set title 'mp-1186919 - Density of States'
set xlabel 'Energy (eV)'
set ylabel 'DOS (states/eV)'
set grid
set xrange [-10:10]
set yrange [0:3.517]
set xzeroaxis lt -1
set terminal png size 800,600
set output 'mp-1186919_dos_gnuplot.png'
plot '-' using 1:2 with lines title 'DOS'
-31.890600 0.000000
-31.857700 0.000000
-31.824800 0.000000
-31.791900 0.000000
-31.759000 0.000000
-31.726100 0.000000
-31.693200 0.000000
-31.660300 0.000000
-31.627400 0.000000
-31.594500 0.000000
-31.561600 0.000000
-31.528700 0.000000
-31.495800 0.000000
-31.462900 0.000000
-31.430000 0.000000
-31.397100 0.000000
-31.364200 0.000000
-31.331300 0.000000
-31.298300 0.000000
-31.265400 0.000000
-31.232500 0.000000
-31.199600 0.000000
-31.166700 0.000000
-31.133800 0.000000
-31.100900 0.000000
-31.068000 0.000000
-31.035100 0.000000
-31.002200 0.000000
-30.969300 0.000000
-30.936400 0.000000
-30.903500 0.000000
-30.870600 0.000000
-30.837700 0.000000
-30.804800 0.000000
-30.771900 0.000000
-30.738900 0.000000
-30.706000 0.000000
-30.673100 0.000000
-30.640200 0.000000
-30.607300 0.000000
-30.574400 0.000000
-30.541500 0.000000
-30.508600 0.000000
-30.475700 0.000000
-30.442800 0.000000
-30.409900 0.000000
-30.377000 0.000000
-30.344100 0.000000
-30.311200 0.000000
-30.278300 0.000000
-30.245400 0.000000
-30.212500 0.000000
-30.179500 0.000000
-30.146600 0.000000
-30.113700 0.000000
-30.080800 0.000000
-30.047900 0.000000
-30.015000 0.000000
-29.982100 0.000000
-29.949200 0.000000
-29.916300 0.000000
-29.883400 0.000000
-29.850500 0.000000
-29.817600 0.000000
-29.784700 0.000000
-29.751800 0.000000
-29.718900 0.000000
-29.686000 0.000000
-29.653100 0.000000
-29.620200 0.000000
-29.587200 0.000000
-29.554300 0.000000
-29.521400 0.000000
-29.488500 0.000000
-29.455600 0.000000
-29.422700 0.000000
-29.389800 0.000000
-29.356900 0.000000
-29.324000 0.000000
-29.291100 0.000000
-29.258200 0.000000
-29.225300 0.000000
-29.192400 0.000000
-29.159500 0.000000
-29.126600 0.000000
-29.093700 0.000000
-29.060800 0.000000
-29.027800 0.000000
-28.994900 0.000000
-28.962000 0.000000
-28.929100 0.000000
-28.896200 0.000000
-28.863300 0.000000
-28.830400 0.000000
-28.797500 0.000000
-28.764600 0.000000
-28.731700 0.000000
-28.698800 0.000000
-28.665900 0.000000
-28.633000 0.000000
-28.600100 0.000000
-28.567200 0.000000
-28.534300 0.000000
-28.501400 0.000000
-28.468400 0.000000
-28.435500 0.000000
-28.402600 0.000000
-28.369700 0.000000
-28.336800 0.000000
-28.303900 0.000000
-28.271000 0.000000
-28.238100 0.000000
-28.205200 0.000000
-28.172300 0.000000
-28.139400 0.000000
-28.106500 0.000000
-28.073600 0.000000
-28.040700 0.000000
-28.007800 0.000000
-27.974900 0.000000
-27.942000 0.000000
-27.909100 0.000000
-27.876100 0.000000
-27.843200 0.000000
-27.810300 0.000000
-27.777400 0.000000
-27.744500 0.000000
-27.711600 0.000000
-27.678700 0.000000
-27.645800 0.000000
-27.612900 0.000000
-27.580000 0.000000
-27.547100 0.000000
-27.514200 0.000000
-27.481300 0.000000
-27.448400 0.000000
-27.415500 0.000000
-27.382600 0.000000
-27.349700 0.000000
-27.316700 0.000000
-27.283800 0.000000
-27.250900 0.000000
-27.218000 0.000000
-27.185100 0.000000
-27.152200 0.000000
-27.119300 0.000000
-27.086400 0.000000
-27.053500 0.000000
-27.020600 0.000000
-26.987700 0.000000
-26.954800 0.000000
-26.921900 0.000000
-26.889000 0.000000
-26.856100 0.000000
-26.823200 0.000000
-26.790300 0.000000
-26.757300 0.000000
-26.724400 0.000000
-26.691500 0.000000
-26.658600 0.000000
-26.625700 0.000000
-26.592800 0.000000
-26.559900 0.000000
-26.527000 0.000000
-26.494100 0.000000
-26.461200 0.000000
-26.428300 0.000000
-26.395400 0.000000
-26.362500 0.000000
-26.329600 0.000000
-26.296700 0.000000
-26.263800 0.000000
-26.230900 0.000000
-26.198000 0.000000
-26.165000 0.000000
-26.132100 0.000000
-26.099200 0.000000
-26.066300 0.000000
-26.033400 0.000000
-26.000500 0.000000
-25.967600 0.000000
-25.934700 0.000000
-25.901800 0.000000
-25.868900 0.000000
-25.836000 0.000000
-25.803100 0.000000
-25.770200 0.000000
-25.737300 0.000000
-25.704400 0.000000
-25.671500 0.000000
-25.638600 0.000000
-25.605600 0.000000
-25.572700 0.000000
-25.539800 0.000000
-25.506900 0.000000
-25.474000 0.000000
-25.441100 0.000000
-25.408200 0.000000
-25.375300 0.000000
-25.342400 0.000000
-25.309500 0.000000
-25.276600 0.000000
-25.243700 0.000000
-25.210800 0.000000
-25.177900 0.000000
-25.145000 0.000000
-25.112100 0.000000
-25.079200 0.000000
-25.046200 0.000000
-25.013300 0.000000
-24.980400 0.000000
-24.947500 0.000000
-24.914600 0.000000
-24.881700 0.000000
-24.848800 0.000000
-24.815900 0.000000
-24.783000 0.000000
-24.750100 0.000000
-24.717200 0.000000
-24.684300 0.000000
-24.651400 0.000000
-24.618500 0.000000
-24.585600 0.000000
-24.552700 0.000000
-24.519800 0.000000
-24.486900 0.000000
-24.453900 0.000000
-24.421000 0.000000
-24.388100 0.000000
-24.355200 0.000000
-24.322300 0.000000
-24.289400 0.000000
-24.256500 0.000000
-24.223600 0.000000
-24.190700 0.000000
-24.157800 0.000000
-24.124900 0.000000
-24.092000 0.000000
-24.059100 0.000000
-24.026200 0.000000
-23.993300 0.000000
-23.960400 0.000000
-23.927500 0.000000
-23.894500 0.000000
-23.861600 0.000000
-23.828700 0.000000
-23.795800 0.000000
-23.762900 0.000000
-23.730000 0.000000
-23.697100 0.000000
-23.664200 0.000000
-23.631300 0.000000
-23.598400 0.000000
-23.565500 0.000000
-23.532600 0.000000
-23.499700 0.000000
-23.466800 0.000000
-23.433900 0.000000
-23.401000 0.000000
-23.368100 0.000000
-23.335100 0.000000
-23.302200 0.000000
-23.269300 0.000000
-23.236400 0.000000
-23.203500 0.000000
-23.170600 0.000000
-23.137700 0.000000
-23.104800 0.000000
-23.071900 0.000000
-23.039000 0.000000
-23.006100 0.000000
-22.973200 0.000000
-22.940300 0.000000
-22.907400 0.000000
-22.874500 0.000000
-22.841600 0.000000
-22.808700 0.000000
-22.775800 0.000000
-22.742800 0.000000
-22.709900 0.000000
-22.677000 0.000000
-22.644100 0.000000
-22.611200 0.000000
-22.578300 0.000000
-22.545400 0.000000
-22.512500 0.000000
-22.479600 0.000000
-22.446700 0.000000
-22.413800 0.000000
-22.380900 0.000000
-22.348000 0.000000
-22.315100 0.000000
-22.282200 0.000000
-22.249300 0.000000
-22.216400 0.000000
-22.183400 0.000000
-22.150500 0.000000
-22.117600 0.000000
-22.084700 0.000000
-22.051800 0.000000
-22.018900 0.000000
-21.986000 0.000000
-21.953100 0.000000
-21.920200 0.000000
-21.887300 0.000000
-21.854400 0.000000
-21.821500 0.000000
-21.788600 0.000000
-21.755700 0.000000
-21.722800 0.000000
-21.689900 0.000000
-21.657000 0.000000
-21.624100 0.000000
-21.591100 0.000000
-21.558200 0.000000
-21.525300 0.000000
-21.492400 0.000000
-21.459500 0.000000
-21.426600 0.000000
-21.393700 0.000000
-21.360800 0.000000
-21.327900 0.000000
-21.295000 0.000000
-21.262100 0.000000
-21.229200 0.000000
-21.196300 0.000000
-21.163400 0.000000
-21.130500 0.000000
-21.097600 0.000000
-21.064700 0.000000
-21.031700 0.000000
-20.998800 0.000000
-20.965900 0.000000
-20.933000 0.000000
-20.900100 0.000000
-20.867200 0.000000
-20.834300 0.000000
-20.801400 0.000000
-20.768500 0.000000
-20.735600 0.000000
-20.702700 0.000000
-20.669800 0.000000
-20.636900 0.000000
-20.604000 0.000000
-20.571100 0.000000
-20.538200 0.000000
-20.505300 0.000000
-20.472300 0.000000
-20.439400 0.000000
-20.406500 0.000000
-20.373600 0.000000
-20.340700 0.000000
-20.307800 0.000000
-20.274900 0.000000
-20.242000 0.000000
-20.209100 0.000000
-20.176200 0.000000
-20.143300 0.000000
-20.110400 0.000000
-20.077500 0.000000
-20.044600 0.000000
-20.011700 0.000000
-19.978800 0.000000
-19.945900 0.000000
-19.913000 0.000000
-19.880000 0.000000
-19.847100 0.000000
-19.814200 0.000000
-19.781300 0.000000
-19.748400 0.000000
-19.715500 0.000000
-19.682600 0.000000
-19.649700 0.000000
-19.616800 0.000000
-19.583900 0.000000
-19.551000 0.000000
-19.518100 0.000000
-19.485200 0.000000
-19.452300 0.000000
-19.419400 0.000000
-19.386500 0.000000
-19.353600 0.000000
-19.320600 0.000000
-19.287700 0.000000
-19.254800 0.000000
-19.221900 0.000000
-19.189000 0.000000
-19.156100 0.000000
-19.123200 0.000000
-19.090300 0.000000
-19.057400 0.000000
-19.024500 0.000000
-18.991600 0.000000
-18.958700 0.000000
-18.925800 0.000000
-18.892900 0.000000
-18.860000 0.000000
-18.827100 0.000000
-18.794200 0.000000
-18.761200 0.000000
-18.728300 0.000000
-18.695400 0.000000
-18.662500 0.000000
-18.629600 0.000000
-18.596700 0.000000
-18.563800 0.000000
-18.530900 0.000000
-18.498000 0.000000
-18.465100 0.000000
-18.432200 0.000000
-18.399300 0.000000
-18.366400 0.000000
-18.333500 0.000000
-18.300600 0.000000
-18.267700 0.000000
-18.234800 0.000000
-18.201900 0.000000
-18.168900 0.000000
-18.136000 0.000000
-18.103100 0.000000
-18.070200 0.000000
-18.037300 0.000000
-18.004400 0.000000
-17.971500 0.000000
-17.938600 0.000000
-17.905700 0.000000
-17.872800 0.000000
-17.839900 0.000000
-17.807000 0.000000
-17.774100 0.000000
-17.741200 0.000000
-17.708300 0.000000
-17.675400 0.000000
-17.642500 0.000000
-17.609500 0.000000
-17.576600 0.000000
-17.543700 0.000000
-17.510800 0.000000
-17.477900 0.000000
-17.445000 0.000000
-17.412100 0.000000
-17.379200 0.000000
-17.346300 0.000000
-17.313400 0.000000
-17.280500 0.000000
-17.247600 0.000000
-17.214700 0.000000
-17.181800 0.000000
-17.148900 0.000000
-17.116000 0.000000
-17.083100 0.000000
-17.050100 0.000000
-17.017200 0.000000
-16.984300 0.000000
-16.951400 0.000000
-16.918500 0.000000
-16.885600 0.000000
-16.852700 0.000000
-16.819800 0.000000
-16.786900 0.000000
-16.754000 0.000000
-16.721100 0.000000
-16.688200 0.000000
-16.655300 0.000000
-16.622400 0.000000
-16.589500 0.000000
-16.556600 0.000000
-16.523700 0.000000
-16.490800 0.000000
-16.457800 0.000000
-16.424900 0.000000
-16.392000 0.000000
-16.359100 0.000000
-16.326200 0.000000
-16.293300 0.000000
-16.260400 0.000000
-16.227500 0.000000
-16.194600 0.000000
-16.161700 0.000000
-16.128800 0.000000
-16.095900 0.000000
-16.063000 0.000000
-16.030100 0.000000
-15.997200 0.000000
-15.964300 0.000000
-15.931400 0.000000
-15.898400 0.000000
-15.865500 0.000000
-15.832600 0.000000
-15.799700 0.000000
-15.766800 0.000000
-15.733900 0.000000
-15.701000 0.000000
-15.668100 0.000000
-15.635200 0.000000
-15.602300 0.000000
-15.569400 0.000000
-15.536500 0.000000
-15.503600 0.000000
-15.470700 0.000000
-15.437800 0.000000
-15.404900 0.000000
-15.372000 0.000000
-15.339000 0.000000
-15.306100 0.000000
-15.273200 0.000000
-15.240300 0.000000
-15.207400 0.000000
-15.174500 0.000000
-15.141600 0.000000
-15.108700 0.000000
-15.075800 0.000000
-15.042900 0.000000
-15.010000 0.000000
-14.977100 0.000000
-14.944200 0.000000
-14.911300 0.000000
-14.878400 0.000000
-14.845500 0.000000
-14.812600 0.000000
-14.779700 0.000000
-14.746700 0.000000
-14.713800 0.000000
-14.680900 0.000000
-14.648000 0.000000
-14.615100 0.000000
-14.582200 0.000000
-14.549300 0.000000
-14.516400 0.000000
-14.483500 0.000000
-14.450600 0.000000
-14.417700 0.000000
-14.384800 0.000000
-14.351900 0.000000
-14.319000 0.000000
-14.286100 0.000000
-14.253200 0.000000
-14.220300 0.000000
-14.187300 0.000000
-14.154400 0.000000
-14.121500 0.000000
-14.088600 0.000000
-14.055700 0.000000
-14.022800 0.000000
-13.989900 0.000000
-13.957000 0.000000
-13.924100 0.000000
-13.891200 0.000000
-13.858300 0.000000
-13.825400 0.000000
-13.792500 0.000000
-13.759600 0.000000
-13.726700 0.000000
-13.693800 0.000000
-13.660900 0.000000
-13.627900 0.000000
-13.595000 0.000000
-13.562100 0.000000
-13.529200 0.000000
-13.496300 0.000000
-13.463400 0.000000
-13.430500 0.000000
-13.397600 0.000000
-13.364700 0.000000
-13.331800 0.000000
-13.298900 0.000000
-13.266000 0.000000
-13.233100 0.000000
-13.200200 0.000000
-13.167300 0.000000
-13.134400 0.000000
-13.101500 0.000000
-13.068600 0.000000
-13.035600 0.000000
-13.002700 0.000000
-12.969800 0.000000
-12.936900 0.000000
-12.904000 0.000000
-12.871100 0.000000
-12.838200 0.000000
-12.805300 0.000000
-12.772400 0.000000
-12.739500 0.000000
-12.706600 0.000000
-12.673700 0.000000
-12.640800 0.000000
-12.607900 0.000000
-12.575000 0.000000
-12.542100 0.000000
-12.509200 0.000000
-12.476200 0.000000
-12.443300 0.000000
-12.410400 0.000000
-12.377500 0.000000
-12.344600 0.000000
-12.311700 0.000000
-12.278800 0.000000
-12.245900 0.000000
-12.213000 0.000000
-12.180100 0.000000
-12.147200 0.000000
-12.114300 0.000000
-12.081400 0.000000
-12.048500 0.000000
-12.015600 0.000000
-11.982700 0.000000
-11.949800 0.000000
-11.916800 0.000000
-11.883900 0.000000
-11.851000 0.000000
-11.818100 0.000000
-11.785200 0.000000
-11.752300 0.000000
-11.719400 0.000000
-11.686500 0.000000
-11.653600 0.000000
-11.620700 0.000000
-11.587800 0.000000
-11.554900 0.000000
-11.522000 0.000000
-11.489100 0.000000
-11.456200 0.000000
-11.423300 0.000000
-11.390400 0.000000
-11.357500 0.000000
-11.324500 0.000000
-11.291600 0.000000
-11.258700 0.000000
-11.225800 0.000000
-11.192900 0.000000
-11.160000 0.000000
-11.127100 0.000000
-11.094200 0.000000
-11.061300 0.000000
-11.028400 0.000000
-10.995500 0.000000
-10.962600 0.000000
-10.929700 0.000000
-10.896800 0.000000
-10.863900 0.000000
-10.831000 0.000000
-10.798100 0.000000
-10.765100 0.000000
-10.732200 0.000000
-10.699300 0.000000
-10.666400 0.000000
-10.633500 0.000000
-10.600600 0.000000
-10.567700 0.000000
-10.534800 0.000000
-10.501900 0.000000
-10.469000 0.000000
-10.436100 0.000000
-10.403200 0.000000
-10.370300 0.000000
-10.337400 0.000000
-10.304500 0.000000
-10.271600 0.000000
-10.238700 0.000000
-10.205700 0.000000
-10.172800 0.000000
-10.139900 0.000000
-10.107000 0.000000
-10.074100 0.000000
-10.041200 0.000000
-10.008300 0.000000
-9.975400 0.000000
-9.942500 0.000000
-9.909600 0.000000
-9.876700 0.000000
-9.843800 0.000000
-9.810900 0.000000
-9.778000 0.000000
-9.745100 0.000000
-9.712200 0.000000
-9.679300 0.000000
-9.646400 0.000000
-9.613400 0.000000
-9.580500 0.000000
-9.547600 0.000000
-9.514700 0.000000
-9.481800 0.000000
-9.448900 0.000000
-9.416000 0.000000
-9.383100 0.000000
-9.350200 0.000000
-9.317300 0.000000
-9.284400 0.000000
-9.251500 0.000000
-9.218600 0.000000
-9.185700 0.000000
-9.152800 0.000000
-9.119900 0.000000
-9.087000 0.000000
-9.054000 0.000000
-9.021100 0.000000
-8.988200 0.000000
-8.955300 0.000000
-8.922400 0.000000
-8.889500 0.000000
-8.856600 0.000000
-8.823700 0.000000
-8.790800 0.000000
-8.757900 0.000000
-8.725000 0.000000
-8.692100 0.000000
-8.659200 0.000000
-8.626300 0.000000
-8.593400 0.000000
-8.560500 0.000000
-8.527600 0.000000
-8.494600 0.000000
-8.461700 0.000000
-8.428800 0.000000
-8.395900 0.000000
-8.363000 0.000000
-8.330100 0.000000
-8.297200 0.000000
-8.264300 0.000000
-8.231400 0.000000
-8.198500 0.000000
-8.165600 0.000000
-8.132700 0.000000
-8.099800 0.000000
-8.066900 0.000000
-8.034000 0.000000
-8.001100 0.000000
-7.968200 0.000000
-7.935300 0.000000
-7.902300 0.000000
-7.869400 0.000000
-7.836500 0.000000
-7.803600 0.000000
-7.770700 0.000000
-7.737800 0.000000
-7.704900 0.000000
-7.672000 0.000000
-7.639100 0.000000
-7.606200 0.000000
-7.573300 0.000000
-7.540400 0.000000
-7.507500 0.000000
-7.474600 0.000000
-7.441700 0.000000
-7.408800 0.000000
-7.375900 0.000000
-7.342900 0.000000
-7.310000 0.000000
-7.277100 0.000000
-7.244200 0.000000
-7.211300 0.000000
-7.178400 0.000000
-7.145500 0.000000
-7.112600 0.000000
-7.079700 0.000000
-7.046800 0.000000
-7.013900 0.000000
-6.981000 0.000000
-6.948100 0.000000
-6.915200 0.000000
-6.882300 0.000000
-6.849400 0.000000
-6.816500 0.000000
-6.783500 0.000000
-6.750600 0.000000
-6.717700 0.000000
-6.684800 0.000000
-6.651900 0.000000
-6.619000 0.000000
-6.586100 0.000000
-6.553200 0.000000
-6.520300 0.000000
-6.487400 0.000000
-6.454500 0.000000
-6.421600 0.000000
-6.388700 0.000000
-6.355800 0.000000
-6.322900 0.000000
-6.290000 0.000000
-6.257100 0.000000
-6.224200 0.000000
-6.191200 0.000000
-6.158300 0.000000
-6.125400 0.000000
-6.092500 0.000000
-6.059600 0.000000
-6.026700 0.000000
-5.993800 0.000000
-5.960900 0.000000
-5.928000 0.000000
-5.895100 0.000000
-5.862200 0.000000
-5.829300 0.000000
-5.796400 0.000000
-5.763500 0.000000
-5.730600 0.000000
-5.697700 0.000000
-5.664800 0.000000
-5.631800 0.000000
-5.598900 0.000000
-5.566000 0.000000
-5.533100 0.000000
-5.500200 0.000000
-5.467300 0.000000
-5.434400 0.000000
-5.401500 0.000000
-5.368600 0.000000
-5.335700 0.000000
-5.302800 0.000000
-5.269900 0.000000
-5.237000 0.000000
-5.204100 0.000000
-5.171200 0.000000
-5.138300 0.000000
-5.105400 0.000000
-5.072500 0.000000
-5.039500 0.000000
-5.006600 0.000000
-4.973700 0.000000
-4.940800 0.000000
-4.907900 0.000000
-4.875000 0.000000
-4.842100 0.000000
-4.809200 0.000000
-4.776300 0.000000
-4.743400 0.000000
-4.710500 0.000000
-4.677600 0.000000
-4.644700 0.000000
-4.611800 0.000000
-4.578900 0.000000
-4.546000 0.000000
-4.513100 0.000000
-4.480100 0.000000
-4.447200 0.000000
-4.414300 0.000000
-4.381400 0.000000
-4.348500 0.000000
-4.315600 0.000000
-4.282700 0.000000
-4.249800 0.000000
-4.216900 0.000000
-4.184000 0.000000
-4.151100 0.000000
-4.118200 0.000000
-4.085300 0.011700
-4.052400 0.051000
-4.019500 0.078300
-3.986600 0.087300
-3.953700 0.102900
-3.920700 0.122200
-3.887800 0.140600
-3.854900 0.147400
-3.822000 0.151200
-3.789100 0.160200
-3.756200 0.170100
-3.723300 0.180300
-3.690400 0.191000
-3.657500 0.202700
-3.624600 0.211100
-3.591700 0.216600
-3.558800 0.223300
-3.525900 0.229500
-3.493000 0.235300
-3.460100 0.241800
-3.427200 0.248900
-3.394300 0.258100
-3.361400 0.266900
-3.328400 0.275700
-3.295500 0.283200
-3.262600 0.290000
-3.229700 0.295200
-3.196800 0.300300
-3.163900 0.306200
-3.131000 0.312600
-3.098100 0.319500
-3.065200 0.326700
-3.032300 0.333800
-2.999400 0.341300
-2.966500 0.349000
-2.933600 0.357000
-2.900700 0.364600
-2.867800 0.372100
-2.834900 0.379800
-2.802000 0.387300
-2.769000 0.394800
-2.736100 0.402700
-2.703200 0.411200
-2.670300 0.420900
-2.637400 0.431300
-2.604500 0.442400
-2.571600 0.454100
-2.538700 0.466600
-2.505800 0.480600
-2.472900 0.501000
-2.440000 0.528100
-2.407100 0.554900
-2.374200 0.576700
-2.341300 0.596500
-2.308400 0.614900
-2.275500 0.674300
-2.242600 0.651100
-2.209600 0.616000
-2.176700 0.589200
-2.143800 0.566300
-2.110900 0.549200
-2.078000 0.541500
-2.045100 0.538900
-2.012200 0.531800
-1.979300 0.520300
-1.946400 0.505700
-1.913500 0.509400
-1.880600 0.494200
-1.847700 0.485100
-1.814800 0.489900
-1.781900 0.482400
-1.749000 0.467700
-1.716100 0.453000
-1.683200 0.436100
-1.650300 0.409900
-1.617300 0.405000
-1.584400 0.376500
-1.551500 0.391600
-1.518600 0.356400
-1.485700 0.312900
-1.452800 0.282500
-1.419900 0.254300
-1.387000 0.223800
-1.354100 0.187500
-1.321200 0.142500
-1.288300 0.089200
-1.255400 0.142300
-1.222500 0.155200
-1.189600 0.187000
-1.156700 0.240800
-1.123800 0.304200
-1.090900 0.416500
-1.057900 0.531600
-1.025000 0.640000
-0.992100 0.703700
-0.959200 0.684600
-0.926300 0.708100
-0.893400 0.758100
-0.860500 0.840200
-0.827600 0.956500
-0.794700 1.080100
-0.761800 1.052400
-0.728900 0.985500
-0.696000 0.986900
-0.663100 0.859900
-0.630200 0.746300
-0.597300 0.664600
-0.564400 0.645400
-0.531500 0.617400
-0.498500 0.598800
-0.465600 0.582600
-0.432700 0.602400
-0.399800 0.597600
-0.366900 0.595300
-0.334000 0.605700
-0.301100 0.626200
-0.268200 0.657700
-0.235300 0.698500
-0.202400 0.743600
-0.169500 0.791100
-0.136600 0.832400
-0.103700 0.838200
-0.070800 0.860900
-0.037900 0.919000
-0.005000 0.906200
0.027900 0.899200
0.060800 0.869000
0.093800 0.838800
0.126700 0.805200
0.159600 0.792800
0.192500 0.779500
0.225400 0.768200
0.258300 0.759900
0.291200 0.751100
0.324100 0.770500
0.357000 0.723900
0.389900 0.717800
0.422800 0.711700
0.455700 0.701700
0.488600 0.691700
0.521500 0.676700
0.554400 0.655500
0.587300 0.637100
0.620200 0.621100
0.653200 0.609700
0.686100 0.598600
0.719000 0.588700
0.751900 0.579900
0.784800 0.558200
0.817700 0.549000
0.850600 0.540600
0.883500 0.532400
0.916400 0.523900
0.949300 0.515400
0.982200 0.507700
1.015100 0.500400
1.048000 0.493800
1.080900 0.487200
1.113800 0.478200
1.146700 0.469400
1.179600 0.463100
1.212600 0.457300
1.245500 0.451000
1.278400 0.441900
1.311300 0.434000
1.344200 0.421700
1.377100 0.415500
1.410000 0.408600
1.442900 0.401000
1.475800 0.393200
1.508700 0.385700
1.541600 0.376300
1.574500 0.368500
1.607400 0.381800
1.640300 0.393000
1.673200 0.374500
1.706100 0.358600
1.739000 0.344600
1.771900 0.327600
1.804900 0.316100
1.837800 0.287600
1.870700 0.259000
1.903600 0.230200
1.936500 0.203300
1.969400 0.183600
2.002300 0.169100
2.035200 0.158800
2.068100 0.148100
2.101000 0.136600
2.133900 0.131400
2.166800 0.125600
2.199700 0.115100
2.232600 0.105600
2.265500 0.100800
2.298400 0.096100
2.331300 0.091700
2.364300 0.087400
2.397200 0.083300
2.430100 0.079300
2.463000 0.075600
2.495900 0.072000
2.528800 0.068400
2.561700 0.064900
2.594600 0.061300
2.627500 0.057900
2.660400 0.057600
2.693300 0.126100
2.726200 0.144700
2.759100 0.162500
2.792000 0.183000
2.824900 0.197500
2.857800 0.216500
2.890700 0.234800
2.923700 0.252200
2.956600 0.269200
2.989500 0.285600
3.022400 0.303400
3.055300 0.321100
3.088200 0.340100
3.121100 0.362900
3.154000 0.384100
3.186900 0.407100
3.219800 0.429300
3.252700 0.451400
3.285600 0.475500
3.318500 0.497200
3.351400 0.518500
3.384300 0.540100
3.417200 0.561400
3.450100 0.564300
3.483000 0.541900
3.516000 0.558100
3.548900 0.577500
3.581800 0.557500
3.614700 0.565100
3.647600 0.576500
3.680500 0.632400
3.713400 0.668500
3.746300 0.734600
3.779200 0.752900
3.812100 0.750500
3.845000 0.784200
3.877900 0.793900
3.910800 0.804200
3.943700 0.824900
3.976600 0.847800
4.009500 0.861300
4.042400 0.877100
4.075400 0.938500
4.108300 0.976700
4.141200 1.007700
4.174100 1.024700
4.207000 1.038400
4.239900 1.040900
4.272800 1.093600
4.305700 1.098000
4.338600 1.101400
4.371500 1.106100
4.404400 1.103700
4.437300 1.111400
4.470200 1.035700
4.503100 1.023500
4.536000 1.018000
4.568900 1.031700
4.601800 1.090300
4.634800 1.152100
4.667700 1.219100
4.700600 1.263000
4.733500 1.274700
4.766400 1.283600
4.799300 1.282100
4.832200 1.241000
4.865100 1.215200
4.898000 1.210000
4.930900 1.258100
4.963800 1.291300
4.996700 1.267600
5.029600 1.159400
5.062500 1.077700
5.095400 0.979500
5.128300 0.869200
5.161200 0.693400
5.194100 0.565700
5.227100 0.486800
5.260000 0.421400
5.292900 0.417000
5.325800 0.432600
5.358700 0.464200
5.391600 0.511300
5.424500 0.608800
5.457400 0.660200
5.490300 0.739900
5.523200 0.820000
5.556100 0.912400
5.589000 0.994200
5.621900 1.070200
5.654800 1.156300
5.687700 1.168000
5.720600 1.163200
5.753500 1.140700
5.786500 1.100800
5.819400 1.048800
5.852300 1.027000
5.885200 1.005800
5.918100 0.983900
5.951000 0.960800
5.983900 0.962000
6.016800 0.979400
6.049700 1.000100
6.082600 1.013800
6.115500 1.009800
6.148400 0.995600
6.181300 0.971200
6.214200 0.959800
6.247100 0.952800
6.280000 0.947800
6.312900 0.909400
6.345900 0.847000
6.378800 0.805100
6.411700 0.767700
6.444600 0.728900
6.477500 0.708900
6.510400 0.703900
6.543300 0.715000
6.576200 0.744100
6.609100 0.822400
6.642000 0.851800
6.674900 0.904900
6.707800 0.956900
6.740700 0.990500
6.773600 1.052500
6.806500 1.121000
6.839400 1.166900
6.872300 1.211700
6.905200 1.321100
6.938200 1.508200
6.971100 1.647000
7.004000 1.687600
7.036900 1.538100
7.069800 1.486800
7.102700 1.482900
7.135600 1.455500
7.168500 1.295700
7.201400 1.302700
7.234300 1.338200
7.267200 1.359600
7.300100 1.363000
7.333000 1.338700
7.365900 1.317400
7.398800 1.293900
7.431700 1.290100
7.464600 1.339900
7.497600 1.400600
7.530500 1.530900
7.563400 1.622800
7.596300 1.607500
7.629200 1.538100
7.662100 1.523600
7.695000 1.514300
7.727900 1.456000
7.760800 1.454300
7.793700 1.709500
7.826600 1.362900
7.859500 1.310400
7.892400 1.247800
7.925300 1.255000
7.958200 1.265100
7.991100 1.335100
8.024000 1.545900
8.057000 1.744400
8.089900 1.617400
8.122800 1.653900
8.155700 1.634200
8.188600 1.665600
8.221500 1.728800
8.254400 1.768800
8.287300 1.876000
8.320200 1.897400
8.353100 2.022100
8.386000 2.221800
8.418900 2.375200
8.451800 2.979600
8.484700 3.197600
8.517600 2.895900
8.550500 2.798000
8.583400 2.588800
8.616300 2.536300
8.649300 2.365200
8.682200 2.030800
8.715100 2.090600
8.748000 1.966900
8.780900 1.936600
8.813800 1.932700
8.846700 1.870300
8.879600 1.855200
8.912500 1.833900
8.945400 1.657600
8.978300 1.785200
9.011200 2.124100
9.044100 2.063400
9.077000 2.258000
9.109900 2.159600
9.142800 2.192600
9.175700 2.063900
9.208700 1.751200
9.241600 1.369400
9.274500 1.243300
9.307400 1.179900
9.340300 1.167200
9.373200 1.150900
9.406100 1.078300
9.439000 1.080700
9.471900 1.092700
9.504800 1.059700
9.537700 1.089000
9.570600 1.197400
9.603500 1.255400
9.636400 1.275100
9.669300 1.266700
9.702200 1.300200
9.735100 1.292500
9.768100 1.225100
9.801000 1.105000
9.833900 1.035600
9.866800 0.985500
9.899700 0.975700
9.932600 1.011200
9.965500 0.982100
9.998400 0.967600
10.031300 1.018700
10.064200 1.081900
10.097100 1.157700
10.130000 1.179800
10.162900 1.248200
10.195800 1.497200
10.228700 1.928000
10.261600 2.315700
10.294500 2.409800
10.327400 2.578000
10.360400 2.780100
10.393300 2.311300
10.426200 1.768900
10.459100 1.560400
10.492000 1.390000
10.524900 1.271200
10.557800 1.178100
10.590700 1.097400
10.623600 1.040800
10.656500 0.987200
10.689400 1.006400
10.722300 1.114000
10.755200 1.261100
10.788100 1.345400
10.821000 1.264200
10.853900 1.171800
10.886800 1.124500
10.919800 1.070200
10.952700 1.052100
10.985600 1.104800
11.018500 1.086700
11.051400 1.107500
11.084300 1.197300
11.117200 1.335000
11.150100 1.525400
11.183000 1.792100
11.215900 1.901600
11.248800 1.602700
11.281700 1.470400
11.314600 1.367900
11.347500 1.250300
11.380400 1.217400
11.413300 1.244700
11.446200 1.357600
11.479200 1.452400
11.512100 1.548400
11.545000 1.570300
11.577900 1.605700
11.610800 1.626500
11.643700 1.593200
11.676600 1.748600
11.709500 1.696200
11.742400 1.488000
11.775300 1.200300
11.808200 1.071900
11.841100 1.119600
11.874000 1.241300
11.906900 1.400800
11.939800 2.087000
11.972700 1.932200
12.005600 2.141100
12.038500 2.014800
12.071500 1.970000
12.104400 2.067500
12.137300 1.918300
12.170200 1.774400
12.203100 1.662400
12.236000 1.585700
12.268900 1.461300
12.301800 1.247900
12.334700 1.129600
12.367600 1.082800
12.400500 0.979000
12.433400 0.913000
12.466300 0.904100
12.499200 0.918900
12.532100 0.953100
12.565000 1.053400
12.597900 1.234100
12.630900 1.413700
12.663800 1.547800
12.696700 1.679700
12.729600 1.635700
12.762500 1.544700
12.795400 1.341700
12.828300 1.217400
12.861200 1.161700
12.894100 1.145700
12.927000 1.101600
12.959900 1.085600
12.992800 1.092200
13.025700 1.109200
13.058600 1.174000
13.091500 1.293900
13.124400 1.540900
13.157300 1.774000
13.190200 2.072300
13.223200 1.718900
13.256100 1.597000
13.289000 1.463200
13.321900 1.323100
13.354800 1.282700
13.387700 1.249300
13.420600 1.289500
13.453500 1.303200
13.486400 1.328900
13.519300 1.347700
13.552200 1.345300
13.585100 1.281600
13.618000 1.163300
13.650900 1.126700
13.683800 1.077500
13.716700 1.037300
13.749600 1.006400
13.782600 0.975000
13.815500 0.945300
13.848400 0.916400
13.881300 0.891800
13.914200 0.865200
13.947100 0.850300
13.980000 0.951000
14.012900 0.844900
14.045800 0.824700
14.078700 0.828300
14.111600 0.862600
14.144500 1.086700
14.177400 1.246500
14.210300 1.378700
14.243200 1.363300
14.276100 1.442900
14.309000 1.503200
14.342000 1.551700
14.374900 1.560300
14.407800 1.694200
14.440700 1.896600
14.473600 2.110600
14.506500 2.165000
14.539400 2.094800
14.572300 1.463100
14.605200 1.075000
14.638100 0.943500
14.671000 0.917900
14.703900 0.860000
14.736800 0.715400
14.769700 0.569600
14.802600 0.408700
14.835500 0.344400
14.868400 0.299900
14.901300 0.270200
14.934300 0.249300
14.967200 0.269600
15.000100 0.189800
15.033000 0.192600
15.065900 0.202000
15.098800 0.224700
15.131700 0.254400
15.164600 0.290900
15.197500 0.330900
15.230400 0.361800
15.263300 0.380900
15.296200 0.416700
15.329100 0.506800
15.362000 0.522400
15.394900 0.565000
15.427800 0.611200
15.460700 0.660900
15.493700 0.712500
15.526600 0.774500
15.559500 0.840800
15.592400 0.896500
15.625300 0.941800
15.658200 0.981900
15.691100 1.026800
15.724000 1.098800
15.756900 1.222700
15.789800 1.316400
15.822700 1.459800
15.855600 1.566400
15.888500 1.619600
15.921400 1.592900
15.954300 1.564300
15.987200 1.634100
16.020100 1.548000
16.053100 1.426000
16.086000 1.507400
16.118900 1.513800
16.151800 1.508200
16.184700 1.513800
16.217600 1.542500
16.250500 1.557700
16.283400 1.554000
16.316300 1.539600
16.349200 1.522200
16.382100 1.501500
16.415000 1.490300
16.447900 1.511400
16.480800 1.470800
16.513700 1.450300
16.546600 1.410800
16.579500 1.352600
16.612400 1.296100
16.645400 1.253400
16.678300 1.231000
16.711200 1.256500
16.744100 1.295100
16.777000 1.494600
16.809900 1.613400
16.842800 1.487800
16.875700 1.390000
16.908600 1.360000
16.941500 1.360000
16.974400 1.355700
17.007300 1.375500
17.040200 1.394200
17.073100 1.430200
17.106000 1.426700
17.138900 1.463900
17.171800 1.501400
17.204800 1.496800
17.237700 1.417000
17.270600 1.414300
17.303500 1.398100
17.336400 1.375700
17.369300 1.359300
17.402200 1.371700
17.435100 1.407200
17.468000 1.381400
17.500900 1.296300
17.533800 1.206800
17.566700 1.192000
17.599600 1.145200
17.632500 1.025100
17.665400 0.977200
17.698300 0.949500
17.731200 0.871300
17.764200 0.857400
17.797100 0.898500
17.830000 0.786700
17.862900 0.772200
17.895800 0.763500
17.928700 0.741900
17.961600 0.719000
17.994500 0.712800
18.027400 0.709700
18.060300 0.703200
18.093200 0.683500
18.126100 0.675600
18.159000 0.681300
18.191900 0.700200
18.224800 0.735200
18.257700 0.778300
18.290600 0.827900
18.323500 0.854500
18.356500 0.887000
18.389400 0.894900
18.422300 0.926600
18.455200 0.963100
18.488100 0.986100
18.521000 0.998600
18.553900 0.997900
18.586800 1.008800
18.619700 1.032800
18.652600 1.072600
18.685500 1.136700
18.718400 1.250600
18.751300 1.400000
18.784200 1.470300
18.817100 1.551200
18.850000 1.673600
18.882900 1.827200
18.915900 1.853300
18.948800 1.762800
18.981700 1.524200
19.014600 1.426700
19.047500 1.499700
19.080400 1.468800
19.113300 1.455500
19.146200 1.478300
19.179100 1.461100
19.212000 1.433400
19.244900 1.383400
19.277800 1.439400
19.310700 1.516800
19.343600 1.435900
19.376500 1.515600
19.409400 1.590700
19.442300 1.546800
19.475300 1.502800
19.508200 1.464300
19.541100 1.443700
19.574000 1.471900
19.606900 1.509200
19.639800 1.612400
19.672700 1.586600
19.705600 1.553100
19.738500 1.489400
19.771400 1.438400
19.804300 1.410600
19.837200 1.331700
19.870100 1.299700
19.903000 1.304600
19.935900 1.298300
19.968800 1.329100
20.001700 1.374100
20.034600 1.433000
20.067600 1.472000
20.100500 1.531100
20.133400 1.621700
20.166300 1.686700
20.199200 1.782600
20.232100 2.011000
20.265000 1.712100
20.297900 1.645700
20.330800 1.622600
20.363700 1.718800
20.396600 1.781100
20.429500 1.809400
20.462400 1.816900
20.495300 1.748100
20.528200 1.652800
20.561100 1.578000
20.594000 1.563300
20.627000 1.419900
20.659900 1.494900
20.692800 1.398100
20.725700 1.407900
20.758600 1.444900
20.791500 1.482000
20.824400 1.569700
20.857300 1.677600
20.890200 1.752000
20.923100 1.795500
20.956000 1.838300
20.988900 1.841500
21.021800 1.811900
21.054700 1.774400
21.087600 1.685100
21.120500 1.599500
21.153400 1.563600
21.186400 1.511900
21.219300 1.470600
21.252200 1.475400
21.285100 1.453800
21.318000 1.450700
21.350900 1.439500
21.383800 1.431400
21.416700 1.460000
21.449600 1.421100
21.482500 1.378500
21.515400 1.413000
21.548300 1.578600
21.581200 1.746900
21.614100 1.737000
21.647000 1.696900
21.679900 1.656400
21.712800 1.652100
21.745700 1.666000
21.778700 1.684000
21.811600 1.848100
21.844500 1.814000
21.877400 1.754900
21.910300 1.709900
21.943200 1.704000
21.976100 1.688400
22.009000 1.520300
22.041900 1.414500
22.074800 1.717700
22.107700 1.771000
22.140600 1.750300
22.173500 1.683400
22.206400 1.637100
22.239300 1.616800
22.272200 1.622700
22.305100 1.555100
22.338100 1.535800
22.371000 1.493800
22.403900 1.510000
22.436800 1.497400
22.469700 1.475200
22.502600 1.485200
22.535500 1.474600
22.568400 1.412800
22.601300 1.388200
22.634200 1.594100
22.667100 1.518000
22.700000 1.571200
22.732900 1.597100
22.765800 1.596300
22.798700 1.579800
22.831600 1.600100
22.864500 1.595900
22.897500 1.649700
22.930400 1.944500
22.963300 1.824500
22.996200 1.781800
23.029100 1.964000
23.062000 2.031000
23.094900 2.013000
23.127800 1.984000
23.160700 1.858600
23.193600 1.797100
23.226500 1.728200
23.259400 1.662800
23.292300 1.626100
23.325200 1.608000
23.358100 1.578100
23.391000 1.552900
23.423900 1.553400
23.456800 1.582800
23.489800 1.630900
23.522700 1.614500
23.555600 1.628000
23.588500 1.635600
23.621400 1.731700
23.654300 1.920000
23.687200 2.018300
23.720100 1.846600
23.753000 1.624500
23.785900 1.581100
23.818800 1.600500
23.851700 1.664200
23.884600 1.787700
23.917500 1.813400
23.950400 1.875000
23.983300 1.987600
24.016200 2.085400
24.049200 2.175900
24.082100 2.303300
24.115000 2.484700
24.147900 2.589500
24.180800 2.503700
24.213700 2.442100
24.246600 2.355000
24.279500 2.112200
24.312400 1.968500
24.345300 1.950900
24.378200 1.974600
24.411100 2.008600
24.444000 2.299800
24.476900 2.347500
24.509800 2.357300
24.542700 2.306100
24.575600 2.318400
24.608600 2.353900
24.641500 2.282500
24.674400 2.189100
24.707300 2.102600
24.740200 2.159900
24.773100 2.060400
24.806000 2.086700
24.838900 2.125600
24.871800 2.083200
24.904700 2.037700
24.937600 1.996400
24.970500 1.945100
25.003400 1.946000
25.036300 1.934700
25.069200 1.908100
25.102100 1.867300
25.135000 1.945900
25.167900 1.927000
25.200900 1.896800
25.233800 1.811000
25.266700 1.861500
25.299600 1.902800
25.332500 1.922700
25.365400 2.044000
25.398300 2.084000
25.431200 1.956300
25.464100 1.963700
25.497000 2.026300
25.529900 2.062700
25.562800 2.139200
25.595700 2.072000
25.628600 2.005000
25.661500 1.999300
25.694400 1.969300
25.727300 2.136900
25.760300 2.216000
25.793200 2.403800
25.826100 2.347500
25.859000 2.259500
25.891900 2.238600
25.924800 2.220800
25.957700 2.197700
25.990600 2.305000
26.023500 2.343200
26.056400 2.294500
26.089300 2.260000
26.122200 2.285100
26.155100 2.280400
26.188000 2.267800
26.220900 2.222100
26.253800 2.235800
26.286700 2.144300
26.319700 2.129800
26.352600 2.145800
26.385500 2.104600
26.418400 1.995700
26.451300 1.867000
26.484200 1.811800
26.517100 1.864200
26.550000 2.106300
26.582900 2.223900
26.615800 2.384000
26.648700 2.438800
26.681600 2.479700
26.714500 2.489400
26.747400 2.423600
26.780300 2.274700
26.813200 2.091800
26.846100 1.977000
26.879000 1.909500
26.912000 1.843300
26.944900 1.677700
26.977800 1.610700
27.010700 1.621200
27.043600 1.671900
27.076500 1.792800
27.109400 1.868500
27.142300 1.924200
27.175200 1.972900
27.208100 2.057400
27.241000 2.120600
27.273900 2.104800
27.306800 2.073300
27.339700 2.173700
27.372600 2.362300
27.405500 2.532500
27.438400 2.705100
27.471400 2.619400
27.504300 2.632100
27.537200 2.654700
27.570100 2.648400
27.603000 2.381000
27.635900 2.112800
27.668800 2.033100
27.701700 2.066600
27.734600 2.055300
27.767500 2.171900
27.800400 2.412000
27.833300 2.496600
27.866200 2.460900
27.899100 2.382800
27.932000 2.387700
27.964900 2.477300
27.997800 2.485600
28.030800 2.446600
28.063700 2.254100
28.096600 2.154000
28.129500 2.127400
28.162400 1.986100
28.195300 1.809000
28.228200 1.644100
28.261100 1.631800
28.294000 1.772500
28.326900 1.903300
28.359800 2.050200
28.392700 2.196600
28.425600 2.272800
28.458500 2.303500
28.491400 2.386800
28.524300 2.422000
28.557200 2.334700
28.590100 2.246600
28.623100 2.140100
28.656000 2.059400
28.688900 2.196200
28.721800 2.348800
28.754700 2.482600
28.787600 2.598100
28.820500 2.508600
28.853400 2.464300
28.886300 2.465600
28.919200 2.374700
28.952100 2.086400
28.985000 2.031500
29.017900 2.342400
29.050800 2.732800
29.083700 2.895300
29.116600 2.681200
29.149500 2.674200
29.182500 2.684600
29.215400 2.687700
29.248300 2.603200
29.281200 2.687000
29.314100 2.414400
29.347000 2.287200
29.379900 2.220800
29.412800 2.549300
29.445700 2.205700
29.478600 2.136000
29.511500 2.086200
29.544400 2.202000
29.577300 2.184800
29.610200 2.335200
29.643100 2.426400
29.676000 2.404400
29.708900 2.206600
29.741800 2.103300
29.774800 2.117300
29.807700 2.137500
29.840600 2.290300
29.873500 2.362400
29.906400 2.382900
29.939300 2.331000
29.972200 2.222600
30.005100 2.094400
30.038000 1.991400
30.070900 1.931900
30.103800 1.901800
30.136700 1.761700
30.169600 1.713200
30.202500 1.728900
30.235400 1.596400
30.268300 1.683000
30.301200 1.790100
30.334200 1.786500
30.367100 1.836400
30.400000 1.802400
30.432900 1.717300
30.465800 2.079600
30.498700 1.611200
30.531600 1.552900
30.564500 1.420400
30.597400 1.298900
30.630300 1.198100
30.663200 0.995200
30.696100 0.828100
30.729000 0.677800
30.761900 0.388700
30.794800 0.179900
30.827700 0.047900
30.860600 0.021500
30.893600 0.005900
30.926500 0.000000
30.959400 0.000000
30.992300 0.000000
31.025200 0.000000
31.058100 0.000000
31.091000 0.000000
31.123900 0.000000
31.156800 0.000000
31.189700 0.000000
31.222600 0.000000
31.255500 0.000000
31.288400 0.000000
31.321300 0.000000
31.354200 0.000000
31.387100 0.000000
31.420000 0.000000
31.452900 0.000000
31.485900 0.000000
31.518800 0.000000
31.551700 0.000000
31.584600 0.000000
31.617500 0.000000
31.650400 0.000000
31.683300 0.000000
31.716200 0.000000
31.749100 0.000000
31.782000 0.000000
31.814900 0.000000
31.847800 0.000000
31.880700 0.000000
31.913600 0.000000
31.946500 0.000000
31.979400 0.000000
32.012300 0.000000
32.045300 0.000000
32.078200 0.000000
32.111100 0.000000
32.144000 0.000000
32.176900 0.000000
32.209800 0.000000
32.242700 0.000000
32.275600 0.000000
32.308500 0.000000
32.341400 0.000000
32.374300 0.000000
32.407200 0.000000
32.440100 0.000000
32.473000 0.000000
32.505900 0.000000
32.538800 0.000000
32.571700 0.000000
32.604700 0.000000
32.637600 0.000000
32.670500 0.000000
32.703400 0.000000
32.736300 0.000000
32.769200 0.000000
32.802100 0.000000
32.835000 0.000000
32.867900 0.000000
32.900800 0.000000
32.933700 0.000000
32.966600 0.000000
32.999500 0.000000
33.032400 0.000000
33.065300 0.000000
33.098200 0.000000
33.131100 0.000000
33.164000 0.000000
33.197000 0.000000
33.229900 0.000000
33.262800 0.000000
33.295700 0.000000
33.328600 0.000000
33.361500 0.000000
33.394400 0.000000
33.427300 0.000000
33.460200 0.000000
33.493100 0.000000
33.526000 0.000000
33.558900 0.000000
33.591800 0.000000
33.624700 0.000000
33.657600 0.000000
33.690500 0.000000
33.723400 0.000000
33.756400 0.000000
33.789300 0.000000
33.822200 0.000000
33.855100 0.000000
33.888000 0.000000
33.920900 0.000000
e
