set title 'mp-12628 - Density of States'
set xlabel 'Energy (eV)'
set ylabel 'DOS (states/eV)'
set grid
set xrange [-10:10]
set yrange [0:7.797]
set xzeroaxis lt -1
set terminal png size 800,600
set output 'mp-12628_dos_gnuplot.png'
plot '-' using 1:2 with lines title 'DOS'
-32.809700 0.000000
-32.765700 0.000000
-32.721800 0.000000
-32.677800 0.000000
-32.633800 0.000000
-32.589800 0.000000
-32.545800 0.000000
-32.501900 0.000000
-32.457900 0.000000
-32.413900 0.000000
-32.369900 0.000000
-32.325900 0.000000
-32.282000 0.000000
-32.238000 0.000000
-32.194000 0.000000
-32.150000 0.000000
-32.106000 0.000000
-32.062100 0.000000
-32.018100 0.000000
-31.974100 0.000000
-31.930100 0.000000
-31.886100 0.000000
-31.842200 0.000000
-31.798200 0.000000
-31.754200 0.000000
-31.710200 0.000000
-31.666200 0.000000
-31.622300 0.000000
-31.578300 0.000000
-31.534300 0.000000
-31.490300 0.000000
-31.446400 0.000000
-31.402400 0.000000
-31.358400 0.000000
-31.314400 0.000000
-31.270400 0.000000
-31.226500 0.000000
-31.182500 0.000000
-31.138500 0.000000
-31.094500 0.000000
-31.050500 0.000000
-31.006600 0.000000
-30.962600 0.000000
-30.918600 0.000000
-30.874600 0.000000
-30.830600 0.000000
-30.786700 0.000000
-30.742700 0.000000
-30.698700 0.000000
-30.654700 0.000000
-30.610700 0.000000
-30.566800 0.000000
-30.522800 0.000000
-30.478800 0.000000
-30.434800 0.000000
-30.390800 0.000000
-30.346900 0.000000
-30.302900 0.000000
-30.258900 0.000000
-30.214900 0.000000
-30.170900 0.000000
-30.127000 0.000000
-30.083000 0.000000
-30.039000 0.000000
-29.995000 0.000000
-29.951000 0.000000
-29.907100 0.000000
-29.863100 0.000000
-29.819100 0.000000
-29.775100 0.000000
-29.731100 0.000000
-29.687200 0.000000
-29.643200 0.000000
-29.599200 0.000000
-29.555200 0.000000
-29.511200 0.000000
-29.467300 0.000000
-29.423300 0.000000
-29.379300 0.000000
-29.335300 0.000000
-29.291300 0.000000
-29.247400 0.000000
-29.203400 0.000000
-29.159400 0.000000
-29.115400 0.000000
-29.071400 0.000000
-29.027500 0.000000
-28.983500 0.000000
-28.939500 0.000000
-28.895500 0.000000
-28.851500 0.000000
-28.807600 784.740300
-28.763600 0.000000
-28.719600 0.000000
-28.675600 0.000000
-28.631600 0.000000
-28.587700 0.000000
-28.543700 0.000000
-28.499700 0.000000
-28.455700 0.000000
-28.411700 0.000000
-28.367800 0.000000
-28.323800 0.000000
-28.279800 0.000000
-28.235800 0.000000
-28.191800 0.000000
-28.147900 0.000000
-28.103900 0.000000
-28.059900 0.000000
-28.015900 0.000000
-27.972000 0.000000
-27.928000 0.000000
-27.884000 0.000000
-27.840000 0.000000
-27.796000 0.000000
-27.752100 0.000000
-27.708100 0.000000
-27.664100 0.000000
-27.620100 0.000000
-27.576100 0.000000
-27.532200 0.000000
-27.488200 0.000000
-27.444200 0.000000
-27.400200 0.000000
-27.356200 0.000000
-27.312300 0.000000
-27.268300 0.000000
-27.224300 0.000000
-27.180300 0.000000
-27.136300 0.000000
-27.092400 0.000000
-27.048400 0.000000
-27.004400 0.000000
-26.960400 0.000000
-26.916400 0.000000
-26.872500 0.000000
-26.828500 0.000000
-26.784500 0.000000
-26.740500 0.000000
-26.696500 0.000000
-26.652600 0.000000
-26.608600 0.000000
-26.564600 0.000000
-26.520600 0.000000
-26.476600 0.000000
-26.432700 0.000000
-26.388700 0.000000
-26.344700 0.000000
-26.300700 0.000000
-26.256700 0.000000
-26.212800 0.000000
-26.168800 0.000000
-26.124800 0.000000
-26.080800 0.000000
-26.036800 0.000000
-25.992900 0.000000
-25.948900 0.000000
-25.904900 0.000000
-25.860900 0.000000
-25.816900 0.000000
-25.773000 0.000000
-25.729000 0.000000
-25.685000 0.000000
-25.641000 0.000000
-25.597000 0.000000
-25.553100 0.000000
-25.509100 0.000000
-25.465100 0.000000
-25.421100 0.000000
-25.377100 0.000000
-25.333200 0.000000
-25.289200 0.000000
-25.245200 0.000000
-25.201200 0.000000
-25.157200 0.000000
-25.113300 0.000000
-25.069300 0.000000
-25.025300 0.000000
-24.981300 0.000000
-24.937300 0.000000
-24.893400 0.000000
-24.849400 0.000000
-24.805400 0.000000
-24.761400 0.000000
-24.717500 0.000000
-24.673500 0.000000
-24.629500 0.000000
-24.585500 0.000000
-24.541500 0.000000
-24.497600 0.000000
-24.453600 0.000000
-24.409600 0.000000
-24.365600 0.000000
-24.321600 0.000000
-24.277700 0.000000
-24.233700 0.000000
-24.189700 0.000000
-24.145700 0.000000
-24.101700 0.000000
-24.057800 0.000000
-24.013800 0.000000
-23.969800 0.000000
-23.925800 0.000000
-23.881800 0.000000
-23.837900 0.000000
-23.793900 0.000000
-23.749900 0.000000
-23.705900 0.000000
-23.661900 0.000000
-23.618000 0.000000
-23.574000 0.000000
-23.530000 0.000000
-23.486000 0.000000
-23.442000 0.000000
-23.398100 0.000000
-23.354100 0.000000
-23.310100 0.000000
-23.266100 0.000000
-23.222100 0.000000
-23.178200 0.000000
-23.134200 0.000000
-23.090200 0.000000
-23.046200 0.000000
-23.002200 0.000000
-22.958300 0.000000
-22.914300 0.000000
-22.870300 0.000000
-22.826300 0.000000
-22.782300 0.000000
-22.738400 0.000000
-22.694400 0.000000
-22.650400 0.000000
-22.606400 0.000000
-22.562400 0.000000
-22.518500 0.000000
-22.474500 0.000000
-22.430500 0.000000
-22.386500 0.000000
-22.342500 0.000000
-22.298600 0.000000
-22.254600 0.000000
-22.210600 0.000000
-22.166600 0.000000
-22.122600 0.000000
-22.078700 0.000000
-22.034700 0.000000
-21.990700 0.000000
-21.946700 0.000000
-21.902700 0.000000
-21.858800 0.000000
-21.814800 0.000000
-21.770800 0.000000
-21.726800 0.000000
-21.682800 0.000000
-21.638900 0.000000
-21.594900 0.000000
-21.550900 0.000000
-21.506900 0.000000
-21.463000 0.000000
-21.419000 0.000000
-21.375000 0.000000
-21.331000 0.000000
-21.287000 0.000000
-21.243100 0.000000
-21.199100 0.000000
-21.155100 0.000000
-21.111100 0.000000
-21.067100 0.000000
-21.023200 0.000000
-20.979200 0.000000
-20.935200 0.000000
-20.891200 0.000000
-20.847200 0.000000
-20.803300 0.000000
-20.759300 0.000000
-20.715300 0.000000
-20.671300 0.000000
-20.627300 0.000000
-20.583400 0.000000
-20.539400 0.000000
-20.495400 0.000000
-20.451400 0.000000
-20.407400 0.000000
-20.363500 0.000000
-20.319500 0.000000
-20.275500 0.000000
-20.231500 0.000000
-20.187500 0.000000
-20.143600 0.000000
-20.099600 0.000000
-20.055600 0.000000
-20.011600 0.000000
-19.967600 0.000000
-19.923700 0.000000
-19.879700 0.000000
-19.835700 0.000000
-19.791700 0.000000
-19.747700 0.000000
-19.703800 0.000000
-19.659800 0.000000
-19.615800 0.000000
-19.571800 0.000000
-19.527800 0.000000
-19.483900 0.000000
-19.439900 0.000000
-19.395900 0.000000
-19.351900 0.000000
-19.307900 0.000000
-19.264000 0.000000
-19.220000 0.000000
-19.176000 0.000000
-19.132000 0.000000
-19.088000 0.000000
-19.044100 0.000000
-19.000100 0.000000
-18.956100 0.000000
-18.912100 0.000000
-18.868100 0.000000
-18.824200 0.000000
-18.780200 0.000000
-18.736200 0.000000
-18.692200 0.000000
-18.648200 0.000000
-18.604300 0.000000
-18.560300 0.000000
-18.516300 0.000000
-18.472300 0.000000
-18.428300 0.000000
-18.384400 0.000000
-18.340400 0.000000
-18.296400 0.000000
-18.252400 0.000000
-18.208500 0.000000
-18.164500 0.000000
-18.120500 0.000000
-18.076500 0.000000
-18.032500 0.000000
-17.988600 0.000000
-17.944600 0.000000
-17.900600 0.000000
-17.856600 0.000000
-17.812600 0.000000
-17.768700 0.000000
-17.724700 0.000000
-17.680700 0.000000
-17.636700 0.000000
-17.592700 0.000000
-17.548800 0.000000
-17.504800 0.000000
-17.460800 0.000000
-17.416800 0.000000
-17.372800 0.000000
-17.328900 0.000000
-17.284900 0.000000
-17.240900 0.000000
-17.196900 0.000000
-17.152900 0.000000
-17.109000 0.000000
-17.065000 0.000000
-17.021000 0.000000
-16.977000 0.000000
-16.933000 0.000000
-16.889100 0.000000
-16.845100 0.000000
-16.801100 0.000000
-16.757100 0.000000
-16.713100 0.000000
-16.669200 0.000000
-16.625200 0.000000
-16.581200 0.000000
-16.537200 0.000000
-16.493200 0.000000
-16.449300 0.000000
-16.405300 0.000000
-16.361300 0.000000
-16.317300 0.000000
-16.273300 0.000000
-16.229400 0.000000
-16.185400 0.000000
-16.141400 0.000000
-16.097400 0.000000
-16.053400 0.000000
-16.009500 0.000000
-15.965500 0.000000
-15.921500 0.000000
-15.877500 0.000000
-15.833500 0.000000
-15.789600 0.000000
-15.745600 0.000000
-15.701600 0.000000
-15.657600 0.000000
-15.613600 0.000000
-15.569700 0.000000
-15.525700 0.000000
-15.481700 0.000000
-15.437700 0.000000
-15.393700 0.000000
-15.349800 0.000000
-15.305800 0.000000
-15.261800 0.000000
-15.217800 0.000000
-15.173800 0.000000
-15.129900 0.000000
-15.085900 0.000000
-15.041900 0.000000
-14.997900 0.000000
-14.953900 0.000000
-14.910000 0.000000
-14.866000 0.000000
-14.822000 0.000000
-14.778000 0.000000
-14.734100 0.000000
-14.690100 0.000000
-14.646100 0.000000
-14.602100 0.000000
-14.558100 0.000000
-14.514200 0.000000
-14.470200 0.000000
-14.426200 0.000000
-14.382200 0.000000
-14.338200 0.000000
-14.294300 0.000000
-14.250300 0.000000
-14.206300 0.000000
-14.162300 0.000000
-14.118300 0.000000
-14.074400 0.000000
-14.030400 0.000000
-13.986400 0.000000
-13.942400 0.000000
-13.898400 0.000000
-13.854500 0.000000
-13.810500 0.000000
-13.766500 0.000000
-13.722500 0.000000
-13.678500 0.000000
-13.634600 0.000000
-13.590600 0.000000
-13.546600 0.000000
-13.502600 0.000000
-13.458600 0.000000
-13.414700 0.000000
-13.370700 0.000000
-13.326700 0.000000
-13.282700 0.000000
-13.238700 0.000000
-13.194800 0.000000
-13.150800 0.000000
-13.106800 0.000000
-13.062800 0.000000
-13.018800 0.000000
-12.974900 21.566900
-12.930900 128.656300
-12.886900 0.000000
-12.842900 0.000000
-12.798900 0.000000
-12.755000 0.000000
-12.711000 0.000000
-12.667000 0.000000
-12.623000 0.000000
-12.579000 0.000000
-12.535100 0.000000
-12.491100 0.000000
-12.447100 0.000000
-12.403100 0.000000
-12.359100 0.000000
-12.315200 0.000000
-12.271200 0.000000
-12.227200 0.000000
-12.183200 0.000000
-12.139200 0.000000
-12.095300 0.000000
-12.051300 0.000000
-12.007300 0.000000
-11.963300 0.000000
-11.919300 0.000000
-11.875400 0.000000
-11.831400 0.000000
-11.787400 0.000000
-11.743400 0.000000
-11.699400 0.000000
-11.655500 0.000000
-11.611500 0.000000
-11.567500 0.000000
-11.523500 0.000000
-11.479600 0.000000
-11.435600 0.000000
-11.391600 0.000000
-11.347600 0.000000
-11.303600 0.000000
-11.259700 0.000000
-11.215700 0.000000
-11.171700 0.000000
-11.127700 0.000000
-11.083700 0.000000
-11.039800 0.000000
-10.995800 0.000000
-10.951800 0.000000
-10.907800 0.000000
-10.863800 0.000000
-10.819900 0.000000
-10.775900 0.000000
-10.731900 0.000000
-10.687900 0.000000
-10.643900 0.000000
-10.600000 0.000000
-10.556000 0.000000
-10.512000 0.000000
-10.468000 0.000000
-10.424000 0.000000
-10.380100 0.000000
-10.336100 0.000000
-10.292100 0.000000
-10.248100 0.000000
-10.204100 0.000000
-10.160200 0.000000
-10.116200 0.000000
-10.072200 0.000000
-10.028200 0.000000
-9.984200 0.000000
-9.940300 0.000000
-9.896300 0.000000
-9.852300 0.000000
-9.808300 0.000000
-9.764300 0.000000
-9.720400 0.000000
-9.676400 0.000000
-9.632400 0.000000
-9.588400 0.000000
-9.544400 0.000000
-9.500500 0.000000
-9.456500 0.000000
-9.412500 0.000000
-9.368500 0.000000
-9.324500 0.000000
-9.280600 0.000000
-9.236600 0.000000
-9.192600 0.000000
-9.148600 0.000000
-9.104600 0.000000
-9.060700 0.000000
-9.016700 0.000000
-8.972700 0.000000
-8.928700 0.000000
-8.884700 0.000000
-8.840800 0.000000
-8.796800 0.000000
-8.752800 0.000000
-8.708800 0.000000
-8.664800 0.000000
-8.620900 0.000000
-8.576900 0.000000
-8.532900 0.000000
-8.488900 0.000000
-8.444900 0.000000
-8.401000 0.000000
-8.357000 0.000000
-8.313000 0.000000
-8.269000 0.000000
-8.225100 0.000000
-8.181100 0.000000
-8.137100 0.000000
-8.093100 0.000000
-8.049100 0.000000
-8.005200 0.000000
-7.961200 0.000000
-7.917200 0.000000
-7.873200 0.000000
-7.829200 0.000000
-7.785300 0.000000
-7.741300 0.000000
-7.697300 0.000000
-7.653300 0.000000
-7.609300 0.000000
-7.565400 0.000000
-7.521400 0.000000
-7.477400 0.000000
-7.433400 0.000000
-7.389400 0.000000
-7.345500 0.000000
-7.301500 0.000000
-7.257500 0.000000
-7.213500 0.000000
-7.169500 0.000000
-7.125600 0.000000
-7.081600 0.000000
-7.037600 0.000000
-6.993600 0.000000
-6.949600 0.000000
-6.905700 0.000000
-6.861700 0.000000
-6.817700 0.000000
-6.773700 0.000000
-6.729700 0.000000
-6.685800 0.000000
-6.641800 0.000000
-6.597800 0.000000
-6.553800 0.000000
-6.509800 0.000000
-6.465900 0.000000
-6.421900 0.000000
-6.377900 0.000000
-6.333900 0.000000
-6.289900 0.000000
-6.246000 0.000000
-6.202000 0.000000
-6.158000 0.000000
-6.114000 0.000000
-6.070000 0.000000
-6.026100 0.000000
-5.982100 0.000000
-5.938100 0.000000
-5.894100 0.000000
-5.850100 0.000000
-5.806200 0.000000
-5.762200 0.000000
-5.718200 0.000000
-5.674200 0.000000
-5.630200 0.000000
-5.586300 0.000000
-5.542300 0.000000
-5.498300 0.000000
-5.454300 0.000000
-5.410300 0.000000
-5.366400 0.000000
-5.322400 0.000000
-5.278400 0.000000
-5.234400 0.000000
-5.190400 0.000000
-5.146500 0.000000
-5.102500 0.000000
-5.058500 0.000000
-5.014500 0.000000
-4.970500 0.000000
-4.926600 0.000000
-4.882600 0.000000
-4.838600 0.000000
-4.794600 0.000000
-4.750700 0.000000
-4.706700 0.000000
-4.662700 0.000000
-4.618700 0.000000
-4.574700 0.000000
-4.530800 0.000000
-4.486800 0.000000
-4.442800 0.000000
-4.398800 0.000000
-4.354800 0.000000
-4.310900 0.000000
-4.266900 0.000000
-4.222900 0.000000
-4.178900 0.000000
-4.134900 0.000000
-4.091000 0.000000
-4.047000 0.000000
-4.003000 0.000000
-3.959000 0.000000
-3.915000 0.000000
-3.871100 0.000000
-3.827100 0.000000
-3.783100 0.000000
-3.739100 0.000000
-3.695100 0.000000
-3.651200 0.000000
-3.607200 0.000000
-3.563200 0.000000
-3.519200 0.000000
-3.475200 0.000000
-3.431300 0.000000
-3.387300 0.000000
-3.343300 0.000000
-3.299300 0.000000
-3.255300 0.000000
-3.211400 0.000000
-3.167400 0.000000
-3.123400 0.000000
-3.079400 0.000000
-3.035400 0.000000
-2.991500 0.000000
-2.947500 0.000000
-2.903500 0.000000
-2.859500 0.000000
-2.815500 0.000000
-2.771600 0.000000
-2.727600 0.000000
-2.683600 0.000000
-2.639600 0.000000
-2.595600 0.000000
-2.551700 0.000000
-2.507700 0.000000
-2.463700 0.000000
-2.419700 0.000000
-2.375700 0.000000
-2.331800 0.000000
-2.287800 0.000000
-2.243800 0.000000
-2.199800 0.000000
-2.155800 0.000000
-2.111900 0.000000
-2.067900 0.000000
-2.023900 0.000000
-1.979900 0.000000
-1.935900 0.004700
-1.892000 0.063100
-1.848000 0.130400
-1.804000 0.144800
-1.760000 0.174900
-1.716000 0.207300
-1.672100 0.236000
-1.628100 0.249600
-1.584100 0.262600
-1.540100 0.282400
-1.496200 0.302700
-1.452200 0.323600
-1.408200 0.345100
-1.364200 0.359800
-1.320200 0.374400
-1.276300 0.389000
-1.232300 0.403400
-1.188300 0.418700
-1.144300 0.435300
-1.100300 0.452900
-1.056400 0.470600
-1.012400 0.488600
-0.968400 0.504100
-0.924400 0.516300
-0.880400 0.531100
-0.836500 0.546200
-0.792500 0.561700
-0.748500 0.577300
-0.704500 0.593300
-0.660500 0.610100
-0.616600 0.627400
-0.572600 0.645000
-0.528600 0.663000
-0.484600 0.679400
-0.440600 0.696000
-0.396700 0.712700
-0.352700 0.729900
-0.308700 0.748400
-0.264700 0.767900
-0.220700 0.788400
-0.176800 0.809800
-0.132800 0.832200
-0.088800 0.858700
-0.044800 0.890700
-0.000800 0.937200
0.043100 0.990100
0.087100 1.026100
0.131100 1.049100
0.175100 1.062500
0.219100 1.100300
0.263000 1.062900
0.307000 1.038300
0.351000 1.020100
0.395000 1.008000
0.439000 1.002600
0.482900 1.006400
0.526900 1.042000
0.570900 1.093400
0.614900 1.140600
0.658900 1.144800
0.702800 1.211200
0.746800 1.199500
0.790800 1.254600
0.834800 1.289300
0.878800 1.402500
0.922700 1.541400
0.966700 1.483400
1.010700 1.109000
1.054700 1.007300
1.098700 0.992200
1.142600 0.970400
1.186600 1.061500
1.230600 1.359900
1.274600 1.454100
1.318600 1.516800
1.362500 1.622800
1.406500 1.731400
1.450500 1.885200
1.494500 2.364500
1.538500 2.310600
1.582400 2.287200
1.626400 2.382100
1.670400 2.504800
1.714400 2.688500
1.758300 2.671700
1.802300 2.826800
1.846300 2.781700
1.890300 2.425100
1.934300 2.156400
1.978200 2.000500
2.022200 1.950300
2.066200 1.898500
2.110200 1.833900
2.154200 1.794600
2.198100 1.720800
2.242100 1.642900
2.286100 1.569700
2.330100 1.517000
2.374100 1.476800
2.418000 1.436700
2.462000 1.410600
2.506000 1.368400
2.550000 1.334200
2.594000 1.286800
2.637900 1.253900
2.681900 1.224300
2.725900 1.306400
2.769900 1.302900
2.813900 1.296300
2.857800 1.285400
2.901800 1.271000
2.945800 1.261600
2.989800 1.273100
3.033800 1.288800
3.077700 1.297800
3.121700 1.319000
3.165700 1.415300
3.209700 1.436800
3.253700 1.444400
3.297600 1.452000
3.341600 1.456900
3.385600 1.467400
3.429600 1.899700
3.473600 2.676500
3.517500 3.953600
3.561500 4.489300
3.605500 4.531600
3.649500 4.754500
3.693500 4.743400
3.737400 4.127000
3.781400 4.138700
3.825400 3.014300
3.869400 1.957200
3.913400 1.203600
3.957300 0.839200
4.001300 0.832000
4.045300 0.918800
4.089300 1.022100
4.133300 1.279500
4.177200 1.676300
4.221200 2.068200
4.265200 2.320300
4.309200 2.332800
4.353200 2.274400
4.397100 2.283400
4.441100 2.453300
4.485100 2.409700
4.529100 2.554300
4.573100 2.679200
4.617000 2.642300
4.661000 2.535000
4.705000 2.429700
4.749000 2.359000
4.793000 1.903500
4.836900 1.604700
4.880900 1.546100
4.924900 1.427400
4.968900 1.423700
5.012800 1.410000
5.056800 1.410400
5.100800 1.697900
5.144800 1.395700
5.188800 1.547500
5.232700 1.684100
5.276700 1.864400
5.320700 2.131300
5.364700 2.473000
5.408700 3.020200
5.452600 3.976500
5.496600 4.558100
5.540600 4.951300
5.584600 4.788900
5.628600 4.382400
5.672500 3.231500
5.716500 2.291400
5.760500 1.185200
5.804500 1.879000
5.848500 2.147800
5.892400 4.014100
5.936400 6.833400
5.980400 6.835000
6.024400 7.088400
6.068400 3.568900
6.112300 2.456600
6.156300 2.081200
6.200300 1.902800
6.244300 1.931500
6.288300 2.063200
6.332200 2.045200
6.376200 1.981400
6.420200 1.934500
6.464200 2.019800
6.508200 2.058100
6.552100 2.161600
6.596100 2.349700
6.640100 2.206900
6.684100 2.134300
6.728100 2.131800
6.772000 2.355500
6.816000 2.696700
6.860000 3.070900
6.904000 3.501300
6.948000 3.500900
6.991900 2.919700
7.035900 2.295200
7.079900 2.200800
7.123900 3.249300
7.167900 3.471000
7.211800 3.241100
7.255800 3.738300
7.299800 3.828200
7.343800 4.078800
7.387800 4.376800
7.431700 3.640100
7.475700 3.751300
7.519700 3.996700
7.563700 3.399400
7.607700 2.428700
7.651600 1.998600
7.695600 1.879400
7.739600 1.843100
7.783600 1.900400
7.827600 2.018800
7.871500 2.210500
7.915500 2.490200
7.959500 2.343400
8.003500 2.671700
8.047500 2.892900
8.091400 2.778700
8.135400 2.687800
8.179400 2.765100
8.223400 2.078400
8.267400 1.953200
8.311300 1.892000
8.355300 1.851400
8.399300 1.814800
8.443300 1.803300
8.487200 1.546900
8.531200 1.382600
8.575200 1.231100
8.619200 1.179400
8.663200 1.347600
8.707100 1.995100
8.751100 1.961500
8.795100 1.947000
8.839100 1.797000
8.883100 1.746100
8.927000 1.799200
8.971000 1.159900
9.015000 1.015600
9.059000 0.873600
9.103000 0.633400
9.146900 0.580200
9.190900 0.556600
9.234900 0.558500
9.278900 0.564000
9.322900 0.570600
9.366800 0.576900
9.410800 0.588900
9.454800 0.614600
9.498800 0.635000
9.542800 0.650200
9.586700 0.663600
9.630700 0.678200
9.674700 0.694000
9.718700 0.711000
9.762700 0.731300
9.806600 0.758500
9.850600 0.793200
9.894600 0.840200
9.938600 0.969700
9.982600 1.197900
10.026500 1.598300
10.070500 1.981300
10.114500 2.646200
10.158500 3.364200
10.202500 3.940700
10.246400 4.138500
10.290400 3.499200
10.334400 3.036000
10.378400 3.499400
10.422400 2.297200
10.466300 2.163900
10.510300 2.138000
10.554300 2.423300
10.598300 2.332400
10.642300 2.676500
10.686200 2.487900
10.730200 2.522100
10.774200 2.633200
10.818200 2.845300
10.862200 3.072900
10.906100 3.418500
10.950100 3.305100
10.994100 4.000500
11.038100 3.351000
11.082100 3.203000
11.126000 3.171600
11.170000 3.115000
11.214000 3.281700
11.258000 3.460600
11.302000 3.728700
11.345900 4.047000
11.389900 5.592200
11.433900 3.964300
11.477900 2.292000
11.521900 1.526600
11.565800 1.343700
11.609800 1.244500
11.653800 1.714400
11.697800 2.760600
11.741700 3.423800
11.785700 3.566500
11.829700 3.496500
11.873700 3.305600
11.917700 2.947400
11.961600 2.764100
12.005600 2.508400
12.049600 2.053600
12.093600 1.817700
12.137600 1.644000
12.181500 1.675900
12.225500 1.731400
12.269500 1.952500
12.313500 2.326800
12.357500 2.181100
12.401400 2.341000
12.445400 2.081500
12.489400 2.125000
12.533400 2.164000
12.577400 2.166700
12.621300 2.495300
12.665300 2.659300
12.709300 2.827300
12.753300 2.907900
12.797300 2.986200
12.841200 3.355500
12.885200 3.805500
12.929200 3.949200
12.973200 4.111400
13.017200 4.300800
13.061100 3.074900
13.105100 2.750000
13.149100 2.639400
13.193100 2.762000
13.237100 2.833000
13.281000 2.681300
13.325000 2.468200
13.369000 2.353000
13.413000 2.968500
13.457000 3.701700
13.500900 3.497600
13.544900 3.311800
13.588900 3.501100
13.632900 2.792200
13.676900 2.118100
13.720800 1.746300
13.764800 1.559900
13.808800 1.425700
13.852800 1.567500
13.896800 1.797900
13.940700 2.104200
13.984700 2.602200
14.028700 2.611400
14.072700 2.519200
14.116700 2.500400
14.160600 2.476000
14.204600 2.396500
14.248600 2.312500
14.292600 2.434300
14.336600 2.965900
14.380500 3.344500
14.424500 3.497100
14.468500 3.909800
14.512500 4.091200
14.556500 2.944400
14.600400 2.400800
14.644400 2.187000
14.688400 2.187000
14.732400 2.412000
14.776400 2.333700
14.820300 2.362600
14.864300 2.366700
14.908300 2.152100
14.952300 2.200900
14.996200 2.331200
15.040200 2.534500
15.084200 3.177800
15.128200 2.859000
15.172200 2.586300
15.216100 2.580900
15.260100 2.648500
15.304100 2.750500
15.348100 2.970700
15.392100 2.899700
15.436000 2.444900
15.480000 2.545300
15.524000 2.958000
15.568000 3.145200
15.612000 2.963100
15.655900 2.887700
15.699900 2.922100
15.743900 3.043900
15.787900 3.342300
15.831900 5.454400
15.875800 3.981500
15.919800 3.680300
15.963800 3.167800
16.007800 2.438500
16.051800 1.985100
16.095700 1.623900
16.139700 1.322700
16.183700 1.255100
16.227700 1.697900
16.271700 1.947600
16.315600 2.214600
16.359600 2.380300
16.403600 2.513500
16.447600 2.666900
16.491600 2.802800
16.535500 2.696500
16.579500 2.740600
16.623500 2.737700
16.667500 2.698300
16.711500 2.811800
16.755400 2.551900
16.799400 2.504500
16.843400 2.528200
16.887400 2.853200
16.931400 2.800500
16.975300 3.443900
17.019300 3.043500
17.063300 2.982400
17.107300 3.313300
17.151300 3.566600
17.195200 3.507900
17.239200 3.314100
17.283200 3.400100
17.327200 3.307300
17.371200 2.682500
17.415100 2.434600
17.459100 2.221800
17.503100 2.200400
17.547100 2.252500
17.591100 2.294300
17.635000 2.496100
17.679000 3.947400
17.723000 2.902800
17.767000 2.953700
17.811000 3.048900
17.854900 2.974600
17.898900 2.652200
17.942900 2.155900
17.986900 1.807900
18.030900 1.559000
18.074800 1.417000
18.118800 2.158000
18.162800 2.952700
18.206800 3.488400
18.250800 3.450100
18.294700 3.571000
18.338700 3.521000
18.382700 3.310700
18.426700 2.929800
18.470600 2.239600
18.514600 1.946500
18.558600 1.917500
18.602600 2.038600
18.646600 2.849800
18.690500 3.720600
18.734500 3.815900
18.778500 3.813700
18.822500 3.675100
18.866500 3.997100
18.910400 4.262700
18.954400 3.434500
18.998400 3.169400
19.042400 2.876200
19.086400 2.885200
19.130300 3.022600
19.174300 3.383100
19.218300 3.305900
19.262300 3.409400
19.306300 2.837700
19.350200 2.645600
19.394200 2.797400
19.438200 2.812100
19.482200 2.949800
19.526200 3.183000
19.570100 3.766400
19.614100 3.766200
19.658100 3.724600
19.702100 3.316600
19.746100 3.119400
19.790000 2.934100
19.834000 2.863600
19.878000 2.781400
19.922000 2.592300
19.966000 2.384100
20.009900 2.418100
20.053900 2.434000
20.097900 2.544000
20.141900 2.889600
20.185900 2.580500
20.229800 2.602200
20.273800 2.650900
20.317800 2.699100
20.361800 2.683700
20.405800 2.655300
20.449700 2.859300
20.493700 4.048700
20.537700 3.960900
20.581700 3.552900
20.625700 3.429700
20.669600 3.239100
20.713600 3.192400
20.757600 2.966700
20.801600 2.866400
20.845600 2.904700
20.889500 2.933400
20.933500 3.024700
20.977500 3.106300
21.021500 3.195100
21.065500 3.328300
21.109400 3.477900
21.153400 3.602300
21.197400 3.795600
21.241400 3.837500
21.285400 3.705900
21.329300 3.504800
21.373300 3.329900
21.417300 3.088600
21.461300 2.855400
21.505300 2.624700
21.549200 2.629600
21.593200 2.770100
21.637200 2.913300
21.681200 3.013000
21.725100 3.113200
21.769100 3.150300
21.813100 3.177900
21.857100 3.249700
21.901100 3.484000
21.945000 3.982300
21.989000 3.564400
22.033000 3.391200
22.077000 3.146600
22.121000 2.957600
22.164900 2.833700
22.208900 2.618300
22.252900 2.572300
22.296900 2.502200
22.340900 2.369200
22.384800 2.338700
22.428800 2.238800
22.472800 2.258500
22.516800 2.384000
22.560800 2.593400
22.604700 2.970400
22.648700 3.432100
22.692700 4.482700
22.736700 4.464400
22.780700 4.605200
22.824600 4.651200
22.868600 4.659300
22.912600 4.496100
22.956600 4.334000
23.000600 4.057400
23.044500 3.643300
23.088500 3.114700
23.132500 2.756900
23.176500 2.823900
23.220500 2.488700
23.264400 2.613900
23.308400 2.722500
23.352400 3.491300
23.396400 3.215000
23.440400 3.501000
23.484300 3.821900
23.528300 4.101000
23.572300 4.354400
23.616300 4.900300
23.660300 3.910300
23.704200 3.568100
23.748200 3.374400
23.792200 3.328700
23.836200 3.429700
23.880200 3.327800
23.924100 3.373900
23.968100 3.745700
24.012100 3.906200
24.056100 3.637100
24.100100 3.514500
24.144000 3.375800
24.188000 3.165500
24.232000 2.908000
24.276000 2.653400
24.320000 2.400600
24.363900 2.170600
24.407900 2.043500
24.451900 2.140400
24.495900 2.356300
24.539900 2.532600
24.583800 2.235100
24.627800 2.271000
24.671800 2.466000
24.715800 2.728800
24.759800 2.943400
24.803700 3.153000
24.847700 3.381900
24.891700 3.917500
24.935700 4.171600
24.979600 3.767900
25.023600 3.904400
25.067600 3.709700
25.111600 3.331300
25.155600 2.650600
25.199500 2.685100
25.243500 3.215400
25.287500 3.571600
25.331500 3.774500
25.375500 4.066300
25.419400 3.814100
25.463400 3.584800
25.507400 3.544300
25.551400 3.646100
25.595400 3.783300
25.639300 3.519100
25.683300 3.385500
25.727300 3.551900
25.771300 3.286600
25.815300 3.172900
25.859200 3.244500
25.903200 3.516300
25.947200 3.813800
25.991200 4.017500
26.035200 4.689300
26.079100 5.527000
26.123100 5.038700
26.167100 4.353700
26.211100 3.751200
26.255100 3.441800
26.299000 2.724200
26.343000 2.641400
26.387000 2.107500
26.431000 1.876600
26.475000 1.978900
26.518900 2.015600
26.562900 2.374500
26.606900 2.724000
26.650900 2.910000
26.694900 3.076300
26.738800 3.400000
26.782800 3.410500
26.826800 3.395800
26.870800 3.817100
26.914800 3.914900
26.958700 4.227800
27.002700 4.715500
27.046700 4.342900
27.090700 4.272600
27.134700 4.586400
27.178600 4.464500
27.222600 5.489000
27.266600 3.772900
27.310600 3.722600
27.354600 3.670700
27.398500 3.656200
27.442500 3.720700
27.486500 3.729500
27.530500 3.478600
27.574500 3.475800
27.618400 3.949800
27.662400 3.944600
27.706400 3.586800
27.750400 2.959200
27.794400 2.732300
27.838300 3.045600
27.882300 3.071500
27.926300 3.035200
27.970300 3.345500
28.014300 3.298000
28.058200 3.383200
28.102200 3.318900
28.146200 3.292400
28.190200 3.251400
28.234100 4.341400
28.278100 3.558400
28.322100 3.396200
28.366100 2.957400
28.410100 2.713800
28.454000 2.735400
28.498000 2.798900
28.542000 2.879500
28.586000 2.957400
28.630000 2.913300
28.673900 2.980400
28.717900 3.532000
28.761900 3.046500
28.805900 3.086100
28.849900 3.238900
28.893800 3.244700
28.937800 3.306300
28.981800 3.800700
29.025800 4.296000
29.069800 4.616800
29.113700 4.658700
29.157700 4.584300
29.201700 4.687900
29.245700 4.768500
29.289700 4.480200
29.333600 3.819600
29.377600 3.507800
29.421600 3.364400
29.465600 3.464500
29.509600 4.196400
29.553500 3.806900
29.597500 3.559100
29.641500 3.531100
29.685500 3.716900
29.729500 3.988400
29.773400 4.034800
29.817400 3.826700
29.861400 3.422400
29.905400 3.269800
29.949400 3.286400
29.993300 3.461600
30.037300 3.900800
30.081300 4.221800
30.125300 3.867000
30.169300 3.931400
30.213200 3.644600
30.257200 3.620100
30.301200 3.772400
30.345200 3.725300
30.389200 3.887600
30.433100 4.135000
30.477100 3.717800
30.521100 3.554600
30.565100 3.376500
30.609100 3.140700
30.653000 3.041100
30.697000 3.035600
30.741000 3.123200
30.785000 3.295500
30.829000 3.518500
30.872900 3.830600
30.916900 4.181700
30.960900 4.384000
31.004900 4.063300
31.048900 3.594300
31.092800 3.361500
31.136800 3.149300
31.180800 2.985400
31.224800 2.878600
31.268800 2.924700
31.312700 2.924600
31.356700 2.771900
31.400700 2.890500
31.444700 3.443300
31.488700 3.996000
31.532600 3.832400
31.576600 3.876300
31.620600 3.946900
31.664600 4.171500
31.708500 4.272900
31.752500 4.238700
31.796500 4.256600
31.840500 4.597700
31.884500 4.875200
31.928400 5.101100
31.972400 4.720100
32.016400 4.428300
32.060400 3.976400
32.104400 4.044900
32.148300 3.988900
32.192300 4.354800
32.236300 4.824600
32.280300 4.266700
32.324300 4.007200
32.368200 3.676600
32.412200 3.249600
32.456200 3.120500
32.500200 3.120100
32.544200 3.264600
32.588100 3.386500
32.632100 4.285200
32.676100 3.511400
32.720100 4.234500
32.764100 2.689700
32.808000 2.824600
32.852000 2.988300
32.896000 3.126400
32.940000 3.223000
32.984000 3.328100
33.027900 3.345000
33.071900 3.395500
33.115900 3.725800
33.159900 4.063300
33.203900 4.229900
33.247800 3.925300
33.291800 3.559100
33.335800 3.215200
33.379800 2.972800
33.423800 3.097100
33.467700 3.472400
33.511700 3.844400
33.555700 3.990200
33.599700 4.212500
33.643700 4.309100
33.687600 4.778800
33.731600 4.342500
33.775600 4.069100
33.819600 4.022700
33.863600 4.109400
33.907500 4.201800
33.951500 4.428300
33.995500 4.500700
34.039500 4.618800
34.083500 4.367400
34.127400 4.094600
34.171400 4.259600
34.215400 4.280800
34.259400 4.110500
34.303400 3.999000
34.347300 3.993200
34.391300 4.056500
34.435300 3.613200
34.479300 3.646500
34.523300 3.645200
34.567200 3.497500
34.611200 3.485000
34.655200 3.452100
34.699200 4.048800
34.743200 4.320900
34.787100 5.442000
34.831100 4.283600
34.875100 4.166100
34.919100 4.430200
34.963000 4.557900
35.007000 4.587100
35.051000 4.596500
35.095000 3.966700
35.139000 3.666100
35.182900 3.043900
35.226900 2.644800
35.270900 2.599100
35.314900 2.854200
35.358900 3.102700
35.402800 3.319100
35.446800 3.259400
35.490800 3.169700
35.534800 3.183400
35.578800 3.236900
35.622700 3.369500
35.666700 3.473400
35.710700 3.572700
35.754700 4.063500
35.798700 4.035000
35.842600 3.872800
35.886600 3.920100
35.930600 4.630900
35.974600 4.766800
36.018600 4.121100
36.062500 4.364300
36.106500 4.377500
36.150500 3.929000
36.194500 3.766200
36.238500 3.935900
36.282400 4.182800
36.326400 4.410100
36.370400 4.534600
36.414400 4.489600
36.458400 4.375000
36.502300 4.340900
36.546300 4.239800
36.590300 4.187400
36.634300 3.947300
36.678300 3.642100
36.722200 3.503600
36.766200 3.625600
36.810200 4.367500
36.854200 4.312400
36.898200 4.207500
36.942100 4.112500
36.986100 4.118200
37.030100 4.101800
37.074100 4.095400
37.118100 4.260800
37.162000 4.477700
37.206000 4.419200
37.250000 4.426400
37.294000 3.933900
37.338000 3.383200
37.381900 3.399500
37.425900 3.642300
37.469900 3.754200
37.513900 3.810900
37.557900 3.704100
37.601800 3.751200
37.645800 3.560500
37.689800 3.384200
37.733800 3.707700
37.777800 3.920900
37.821700 3.800000
37.865700 3.741500
37.909700 4.076500
37.953700 4.451900
37.997700 4.311400
38.041600 3.612800
38.085600 3.455000
38.129600 3.695400
38.173600 4.105800
38.217500 4.792000
38.261500 6.238500
38.305500 7.800200
38.349500 4.514500
38.393500 4.085600
38.437400 2.953200
38.481400 2.840600
38.525400 3.266800
38.569400 3.952700
38.613400 4.771400
38.657300 5.991400
38.701300 5.083200
38.745300 3.880500
38.789300 3.416700
38.833300 3.362900
38.877200 3.408600
38.921200 3.893800
38.965200 3.566400
39.009200 3.148000
39.053200 3.480200
39.097100 3.420500
39.141100 3.629800
39.185100 3.489500
39.229100 3.261000
39.273100 3.294000
39.317000 3.406600
39.361000 3.820700
39.405000 3.994100
39.449000 3.985500
39.493000 3.946700
39.536900 3.992200
39.580900 4.081500
39.624900 4.172100
39.668900 4.384900
39.712900 4.206700
39.756800 3.848500
39.800800 3.957200
39.844800 4.223200
39.888800 4.752200
39.932800 5.455500
39.976700 5.222700
40.020700 4.769100
40.064700 4.419800
40.108700 4.289800
40.152700 4.275000
40.196600 4.521800
40.240600 6.037000
40.284600 6.198000
40.328600 4.816100
40.372600 4.305300
40.416500 3.912800
40.460500 3.768000
40.504500 3.903300
40.548500 3.898900
40.592500 3.520500
40.636400 3.377600
40.680400 3.362300
40.724400 3.411800
40.768400 3.666100
40.812400 3.855600
40.856300 3.995800
40.900300 4.352800
40.944300 4.199100
40.988300 3.895800
41.032300 3.569500
41.076200 4.240900
41.120200 4.892900
41.164200 4.714700
41.208200 4.536000
41.252200 4.426300
41.296100 4.306700
41.340100 4.098300
41.384100 3.517400
41.428100 3.410600
41.472100 3.422600
41.516000 3.503000
41.560000 4.490500
41.604000 3.967300
41.648000 4.290300
41.691900 4.305800
41.735900 4.471400
41.779900 4.707000
41.823900 4.677900
41.867900 5.070900
41.911800 4.116800
41.955800 3.698100
41.999800 3.684000
42.043800 3.852800
42.087800 4.037100
42.131700 4.229800
42.175700 4.078600
42.219700 3.819900
42.263700 3.711800
42.307700 3.718400
42.351600 4.112200
42.395600 4.283600
42.439600 4.625700
42.483600 4.600900
42.527600 4.563800
42.571500 4.449900
42.615500 3.995400
42.659500 4.162800
42.703500 4.226000
42.747500 4.384300
42.791400 4.682000
42.835400 4.962400
42.879400 4.618300
42.923400 4.578300
42.967400 4.590700
43.011300 4.586500
43.055300 4.653700
43.099300 4.734600
43.143300 4.865800
43.187300 4.924200
43.231200 4.813400
43.275200 4.672900
43.319200 4.626600
43.363200 4.446300
43.407200 3.975200
43.451100 3.882100
43.495100 3.527400
43.539100 3.550800
43.583100 3.282800
43.627100 3.541600
43.671000 3.969000
43.715000 4.182900
43.759000 4.260400
43.803000 4.258700
43.847000 4.179200
43.890900 4.522600
43.934900 5.442700
43.978900 4.702000
44.022900 3.403800
44.066900 2.867000
44.110800 2.845100
44.154800 2.988800
44.198800 3.429000
44.242800 3.821900
44.286800 4.117300
44.330700 4.239300
44.374700 4.306200
44.418700 4.290300
44.462700 4.215200
44.506700 4.346100
44.550600 4.969500
44.594600 5.182800
44.638600 5.051000
44.682600 5.099100
44.726600 4.928300
44.770500 4.640200
44.814500 4.595000
44.858500 4.534400
44.902500 4.776200
44.946400 5.295200
44.990400 5.388300
45.034400 5.407100
45.078400 5.416200
45.122400 5.081100
45.166300 4.954000
45.210300 4.802600
45.254300 4.610200
45.298300 4.506300
45.342300 4.407900
45.386200 4.151600
45.430200 4.130900
45.474200 4.098300
45.518200 3.952800
45.562200 3.792300
45.606100 3.654300
45.650100 3.738300
45.694100 3.842300
45.738100 3.756800
45.782100 3.974300
45.826000 4.502200
45.870000 4.154300
45.914000 3.464500
45.958000 3.899600
46.002000 4.212300
46.045900 4.283500
46.089900 4.150200
46.133900 3.990300
46.177900 3.831300
46.221900 3.766600
46.265800 3.909900
46.309800 4.072800
46.353800 4.188400
46.397800 4.162900
46.441800 4.367000
46.485700 4.283500
46.529700 3.845400
46.573700 3.532300
46.617700 2.997300
46.661700 2.801800
46.705600 2.516300
46.749600 1.979900
46.793600 1.760100
46.837600 1.728300
46.881600 1.671900
46.925500 1.621200
46.969500 1.592800
47.013500 1.557700
47.057500 1.533700
47.101500 1.519800
47.145400 1.515700
47.189400 1.316100
47.233400 1.161100
47.277400 1.145700
47.321400 1.147700
47.365300 1.173500
47.409300 1.252800
47.453300 1.312500
47.497300 1.322500
47.541300 1.130900
47.585200 0.981900
47.629200 0.888700
47.673200 0.788600
47.717200 0.681300
47.761200 0.589500
47.805100 0.532300
47.849100 0.493400
47.893100 0.460400
47.937100 0.434700
47.981100 0.412500
48.025000 0.384400
48.069000 0.353600
48.113000 0.329300
48.157000 0.308100
48.200900 0.288000
48.244900 0.269100
48.288900 0.251400
48.332900 0.234800
48.376900 0.219400
48.420800 0.204500
48.464800 0.188300
48.508800 0.171400
48.552800 0.157300
48.596800 0.150000
48.640700 0.153200
48.684700 0.161900
48.728700 0.174700
48.772700 0.176300
48.816700 0.159700
48.860600 0.143000
48.904600 0.125500
48.948600 0.105400
48.992600 0.082500
49.036600 0.057000
49.080500 0.028700
49.124500 0.017900
49.168500 0.016900
49.212500 0.015900
49.256500 0.015000
49.300400 0.014200
49.344400 0.013300
49.388400 0.012500
49.432400 0.011800
49.476400 0.011000
49.520300 0.010300
49.564300 0.009700
49.608300 0.009100
49.652300 0.008500
49.696300 0.008000
49.740200 0.007500
49.784200 0.007000
49.828200 0.006600
49.872200 0.006100
49.916200 0.005700
49.960100 0.005300
50.004100 0.004900
50.048100 0.004600
50.092100 0.004200
50.136100 0.003900
50.180000 0.003500
50.224000 0.003200
50.268000 0.002900
50.312000 0.002600
50.356000 0.002400
50.399900 0.002100
50.443900 0.001900
50.487900 0.001600
50.531900 0.001400
50.575900 0.001200
50.619800 0.001100
50.663800 0.000900
50.707800 0.000700
50.751800 0.000600
50.795800 0.000500
50.839700 0.000400
50.883700 0.000300
50.927700 0.000200
50.971700 0.000100
51.015700 0.000100
51.059600 0.000000
51.103600 0.000000
51.147600 0.000000
51.191600 0.000000
51.235600 0.000000
51.279500 0.000000
51.323500 0.000000
51.367500 0.000000
51.411500 0.000000
51.455400 0.000000
51.499400 0.000000
51.543400 0.000000
51.587400 0.000000
51.631400 0.000000
51.675300 0.000000
51.719300 0.000000
51.763300 0.000000
51.807300 0.000000
51.851300 0.000000
51.895200 0.000000
51.939200 0.000000
51.983200 0.000000
52.027200 0.000000
52.071200 0.000000
52.115100 0.000000
52.159100 0.000000
52.203100 0.000000
52.247100 0.000000
52.291100 0.000000
52.335000 0.000000
52.379000 0.000000
52.423000 0.000000
52.467000 0.000000
52.511000 0.000000
52.554900 0.000000
52.598900 0.000000
52.642900 0.000000
52.686900 0.000000
52.730900 0.000000
52.774800 0.000000
52.818800 0.000000
52.862800 0.000000
52.906800 0.000000
52.950800 0.000000
52.994700 0.000000
53.038700 0.000000
53.082700 0.000000
53.126700 0.000000
53.170700 0.000000
53.214600 0.000000
53.258600 0.000000
53.302600 0.000000
53.346600 0.000000
53.390600 0.000000
53.434500 0.000000
53.478500 0.000000
53.522500 0.000000
53.566500 0.000000
53.610500 0.000000
53.654400 0.000000
53.698400 0.000000
53.742400 0.000000
53.786400 0.000000
53.830400 0.000000
53.874300 0.000000
53.918300 0.000000
53.962300 0.000000
54.006300 0.000000
54.050300 0.000000
54.094200 0.000000
54.138200 0.000000
54.182200 0.000000
54.226200 0.000000
54.270200 0.000000
54.314100 0.000000
54.358100 0.000000
54.402100 0.000000
54.446100 0.000000
54.490100 0.000000
54.534000 0.000000
54.578000 0.000000
54.622000 0.000000
54.666000 0.000000
54.710000 0.000000
54.753900 0.000000
54.797900 0.000000
54.841900 0.000000
54.885900 0.000000
54.929800 0.000000
54.973800 0.000000
55.017800 0.000000
55.061800 0.000000
55.105800 0.000000
55.149700 0.000000
e
