set title 'mp-974376 - Density of States'
set xlabel 'Energy (eV)'
set ylabel 'DOS (states/eV)'
set grid
set xrange [-10:10]
set yrange [0:11.238]
set xzeroaxis lt -1
set terminal png size 800,600
set output 'mp-974376_dos_gnuplot.png'
plot '-' using 1:2 with lines title 'DOS'
-44.258700 0.000000
-44.208300 0.000000
-44.157900 0.000000
-44.107500 0.000000
-44.057100 0.000000
-44.006700 0.000000
-43.956300 0.000000
-43.905900 0.000000
-43.855500 0.000000
-43.805100 0.000000
-43.754700 0.000000
-43.704300 0.000000
-43.653900 0.000000
-43.603500 0.000000
-43.553100 0.000000
-43.502700 0.000000
-43.452200 0.000000
-43.401800 0.000000
-43.351400 0.000000
-43.301000 0.000000
-43.250600 0.000000
-43.200200 0.000000
-43.149800 0.000000
-43.099400 0.000000
-43.049000 0.000000
-42.998600 0.000000
-42.948200 0.000000
-42.897800 0.000000
-42.847400 0.000000
-42.797000 0.000000
-42.746600 0.000000
-42.696200 0.000000
-42.645800 0.000000
-42.595400 0.000000
-42.545000 0.000000
-42.494600 0.000000
-42.444200 0.000000
-42.393800 0.000000
-42.343300 0.000000
-42.292900 0.000000
-42.242500 0.000000
-42.192100 0.000000
-42.141700 0.000000
-42.091300 0.000000
-42.040900 0.000000
-41.990500 0.000000
-41.940100 0.000000
-41.889700 0.000000
-41.839300 0.000000
-41.788900 0.000000
-41.738500 0.000000
-41.688100 0.000000
-41.637700 0.000000
-41.587300 0.000000
-41.536900 0.000000
-41.486500 0.000000
-41.436100 0.000000
-41.385700 0.000000
-41.335300 0.000000
-41.284900 0.000000
-41.234400 0.000000
-41.184000 0.000000
-41.133600 0.000000
-41.083200 0.000000
-41.032800 0.000000
-40.982400 0.000000
-40.932000 0.000000
-40.881600 0.000000
-40.831200 0.000000
-40.780800 0.000000
-40.730400 0.000000
-40.680000 0.000000
-40.629600 0.000000
-40.579200 0.000000
-40.528800 0.000000
-40.478400 0.000000
-40.428000 0.000000
-40.377600 0.000000
-40.327200 0.000000
-40.276800 0.000000
-40.226400 0.000000
-40.175900 0.000000
-40.125500 0.000000
-40.075100 0.000000
-40.024700 0.000000
-39.974300 0.000000
-39.923900 0.000000
-39.873500 0.000000
-39.823100 0.000000
-39.772700 0.006500
-39.722300 0.333100
-39.671900 4.046800
-39.621500 17.157400
-39.571100 34.741100
-39.520700 40.915000
-39.470300 30.171100
-39.419900 26.708600
-39.369500 37.290500
-39.319100 44.110400
-39.268700 47.917600
-39.218300 46.477300
-39.167900 23.558400
-39.117500 3.559500
-39.067000 0.116300
-39.016600 0.000700
-38.966200 0.000000
-38.915800 0.000000
-38.865400 0.000000
-38.815000 0.000000
-38.764600 0.000000
-38.714200 0.000000
-38.663800 0.000000
-38.613400 0.000000
-38.563000 0.000000
-38.512600 0.000000
-38.462200 0.000000
-38.411800 0.000000
-38.361400 0.000000
-38.311000 0.000000
-38.260600 0.000000
-38.210200 0.000000
-38.159800 0.000000
-38.109400 0.000000
-38.059000 0.000000
-38.008600 0.000000
-37.958100 0.000000
-37.907700 0.000000
-37.857300 0.000000
-37.806900 0.000000
-37.756500 0.000000
-37.706100 0.000000
-37.655700 0.000000
-37.605300 0.000000
-37.554900 0.000000
-37.504500 0.000000
-37.454100 0.000000
-37.403700 0.000000
-37.353300 0.000000
-37.302900 0.000000
-37.252500 0.000000
-37.202100 0.000000
-37.151700 0.000000
-37.101300 0.000000
-37.050900 0.000000
-37.000500 0.000000
-36.950100 0.000000
-36.899600 0.000000
-36.849200 0.000000
-36.798800 0.000000
-36.748400 0.000000
-36.698000 0.000000
-36.647600 0.000000
-36.597200 0.000000
-36.546800 0.000000
-36.496400 0.000000
-36.446000 0.000000
-36.395600 0.000000
-36.345200 0.000000
-36.294800 0.000000
-36.244400 0.000000
-36.194000 0.000000
-36.143600 0.000000
-36.093200 0.000000
-36.042800 0.000000
-35.992400 0.000000
-35.942000 0.000000
-35.891600 0.000000
-35.841200 0.000000
-35.790700 0.000000
-35.740300 0.000000
-35.689900 0.000000
-35.639500 0.000000
-35.589100 0.000000
-35.538700 0.000000
-35.488300 0.000000
-35.437900 0.000000
-35.387500 0.000000
-35.337100 0.000000
-35.286700 0.000000
-35.236300 0.000000
-35.185900 0.000000
-35.135500 0.000000
-35.085100 0.000000
-35.034700 0.000000
-34.984300 0.000000
-34.933900 0.000000
-34.883500 0.000000
-34.833100 0.000000
-34.782700 0.000000
-34.732300 0.000000
-34.681800 0.000000
-34.631400 0.000000
-34.581000 0.000000
-34.530600 0.000000
-34.480200 0.000000
-34.429800 0.000000
-34.379400 0.000000
-34.329000 0.000000
-34.278600 0.000000
-34.228200 0.000000
-34.177800 0.000000
-34.127400 0.000000
-34.077000 0.000000
-34.026600 0.000000
-33.976200 0.000000
-33.925800 0.000000
-33.875400 0.000000
-33.825000 0.000000
-33.774600 0.000000
-33.724200 0.000000
-33.673800 0.000000
-33.623300 0.000000
-33.572900 0.000000
-33.522500 0.000000
-33.472100 0.000000
-33.421700 0.000000
-33.371300 0.000000
-33.320900 0.000000
-33.270500 0.000000
-33.220100 0.000000
-33.169700 0.000000
-33.119300 0.000000
-33.068900 0.000000
-33.018500 0.000000
-32.968100 0.000000
-32.917700 0.000000
-32.867300 0.000000
-32.816900 0.000000
-32.766500 0.000000
-32.716100 0.000000
-32.665700 0.000000
-32.615300 0.000000
-32.564900 0.000000
-32.514400 0.000000
-32.464000 0.000000
-32.413600 0.000000
-32.363200 0.000000
-32.312800 0.000000
-32.262400 0.000000
-32.212000 0.000000
-32.161600 0.000000
-32.111200 0.000000
-32.060800 0.000000
-32.010400 0.000000
-31.960000 0.000000
-31.909600 0.000000
-31.859200 0.000000
-31.808800 0.000000
-31.758400 0.000000
-31.708000 0.000000
-31.657600 0.000000
-31.607200 0.000000
-31.556800 0.000000
-31.506400 0.000000
-31.456000 0.000000
-31.405500 0.000000
-31.355100 0.000000
-31.304700 0.000000
-31.254300 0.000000
-31.203900 0.000000
-31.153500 0.000000
-31.103100 0.000000
-31.052700 0.000000
-31.002300 0.000000
-30.951900 0.000000
-30.901500 0.000000
-30.851100 0.000000
-30.800700 0.000000
-30.750300 0.000000
-30.699900 0.000000
-30.649500 0.000000
-30.599100 0.000000
-30.548700 0.000000
-30.498300 0.000000
-30.447900 0.000000
-30.397500 0.000000
-30.347000 0.000000
-30.296600 0.000000
-30.246200 0.000000
-30.195800 0.000000
-30.145400 0.000000
-30.095000 0.000000
-30.044600 0.000000
-29.994200 0.000000
-29.943800 0.000000
-29.893400 0.000000
-29.843000 0.000000
-29.792600 0.000000
-29.742200 0.000000
-29.691800 0.000000
-29.641400 0.000000
-29.591000 0.000000
-29.540600 0.000000
-29.490200 0.000000
-29.439800 0.000000
-29.389400 0.000000
-29.339000 0.000000
-29.288600 0.000000
-29.238100 0.000000
-29.187700 0.000000
-29.137300 0.000000
-29.086900 0.000000
-29.036500 0.000000
-28.986100 0.000000
-28.935700 0.000000
-28.885300 0.000000
-28.834900 0.000000
-28.784500 0.000000
-28.734100 0.000000
-28.683700 0.000000
-28.633300 0.000000
-28.582900 0.000000
-28.532500 0.000000
-28.482100 0.000000
-28.431700 0.000000
-28.381300 0.000000
-28.330900 0.000000
-28.280500 0.000000
-28.230100 0.000000
-28.179700 0.000000
-28.129200 0.000000
-28.078800 0.000000
-28.028400 0.000000
-27.978000 0.000000
-27.927600 0.000000
-27.877200 0.000000
-27.826800 0.000000
-27.776400 0.000000
-27.726000 0.000000
-27.675600 0.000000
-27.625200 0.000000
-27.574800 0.000000
-27.524400 0.000000
-27.474000 0.000000
-27.423600 0.000000
-27.373200 0.000000
-27.322800 0.000000
-27.272400 0.000000
-27.222000 0.000000
-27.171600 0.000000
-27.121200 0.000000
-27.070700 0.000000
-27.020300 0.000000
-26.969900 0.000000
-26.919500 0.000000
-26.869100 0.000000
-26.818700 0.000000
-26.768300 0.000000
-26.717900 0.000000
-26.667500 0.000000
-26.617100 0.000000
-26.566700 0.000000
-26.516300 0.000000
-26.465900 0.000000
-26.415500 0.000000
-26.365100 0.000000
-26.314700 0.000000
-26.264300 0.000000
-26.213900 0.000000
-26.163500 0.000000
-26.113100 0.000000
-26.062700 0.000000
-26.012300 0.000000
-25.961800 0.000000
-25.911400 0.000000
-25.861000 0.000000
-25.810600 0.000000
-25.760200 0.000000
-25.709800 0.000000
-25.659400 0.000000
-25.609000 0.000000
-25.558600 0.000000
-25.508200 0.000000
-25.457800 0.000000
-25.407400 0.000000
-25.357000 0.000000
-25.306600 0.000000
-25.256200 0.000000
-25.205800 0.000000
-25.155400 0.000000
-25.105000 0.000000
-25.054600 0.000000
-25.004200 0.000000
-24.953800 0.000000
-24.903400 0.000000
-24.852900 0.000000
-24.802500 0.000000
-24.752100 0.000000
-24.701700 0.000000
-24.651300 0.000000
-24.600900 0.000000
-24.550500 0.000000
-24.500100 0.000000
-24.449700 0.000000
-24.399300 0.000000
-24.348900 0.000000
-24.298500 0.000000
-24.248100 0.000000
-24.197700 0.000000
-24.147300 0.000000
-24.096900 0.000000
-24.046500 0.000000
-23.996100 0.000000
-23.945700 0.000000
-23.895300 0.000000
-23.844900 0.000000
-23.794400 0.000000
-23.744000 0.000000
-23.693600 0.000000
-23.643200 0.000000
-23.592800 0.000000
-23.542400 0.000000
-23.492000 0.000000
-23.441600 0.000000
-23.391200 0.000000
-23.340800 0.000000
-23.290400 0.000000
-23.240000 0.000000
-23.189600 0.000000
-23.139200 0.000000
-23.088800 0.000000
-23.038400 0.000000
-22.988000 0.000000
-22.937600 0.000000
-22.887200 0.000000
-22.836800 0.000000
-22.786400 0.000000
-22.736000 0.000000
-22.685500 0.000000
-22.635100 0.000000
-22.584700 0.000000
-22.534300 0.000000
-22.483900 0.000000
-22.433500 0.000000
-22.383100 0.000000
-22.332700 0.000000
-22.282300 0.000000
-22.231900 0.000000
-22.181500 0.000000
-22.131100 0.000000
-22.080700 0.000000
-22.030300 0.000000
-21.979900 0.000000
-21.929500 0.000000
-21.879100 0.000000
-21.828700 0.000000
-21.778300 0.000000
-21.727900 0.000000
-21.677500 0.000000
-21.627000 0.000000
-21.576600 0.000000
-21.526200 0.000000
-21.475800 0.000000
-21.425400 0.000000
-21.375000 0.000000
-21.324600 0.000000
-21.274200 0.000000
-21.223800 0.000000
-21.173400 0.000000
-21.123000 0.000000
-21.072600 0.000000
-21.022200 0.000000
-20.971800 0.000000
-20.921400 0.000000
-20.871000 0.000000
-20.820600 0.000000
-20.770200 0.000000
-20.719800 0.000000
-20.669400 0.000000
-20.619000 0.000000
-20.568600 0.000000
-20.518100 0.000000
-20.467700 0.000000
-20.417300 0.000000
-20.366900 0.000000
-20.316500 0.000000
-20.266100 0.000000
-20.215700 0.000000
-20.165300 0.000000
-20.114900 0.000000
-20.064500 0.000000
-20.014100 0.000000
-19.963700 0.000000
-19.913300 0.000000
-19.862900 0.000000
-19.812500 0.000000
-19.762100 0.000000
-19.711700 0.000000
-19.661300 0.000000
-19.610900 0.000000
-19.560500 0.000000
-19.510100 0.000000
-19.459700 0.000000
-19.409200 0.000000
-19.358800 0.000000
-19.308400 0.000000
-19.258000 0.000000
-19.207600 0.000000
-19.157200 0.000000
-19.106800 0.000000
-19.056400 0.000000
-19.006000 0.000000
-18.955600 0.000000
-18.905200 0.000000
-18.854800 0.000000
-18.804400 0.000000
-18.754000 0.000000
-18.703600 0.000000
-18.653200 0.000000
-18.602800 0.000000
-18.552400 0.000000
-18.502000 0.000000
-18.451600 0.000000
-18.401200 0.000000
-18.350700 0.000000
-18.300300 0.000000
-18.249900 0.000000
-18.199500 0.000000
-18.149100 0.000000
-18.098700 0.000000
-18.048300 0.000000
-17.997900 0.000000
-17.947500 0.000000
-17.897100 0.000000
-17.846700 0.000000
-17.796300 0.000000
-17.745900 0.000000
-17.695500 0.000000
-17.645100 0.000000
-17.594700 0.000000
-17.544300 0.000000
-17.493900 0.000000
-17.443500 0.000000
-17.393100 0.000000
-17.342700 0.000000
-17.292300 0.000000
-17.241800 0.000000
-17.191400 0.000000
-17.141000 0.000000
-17.090600 0.000000
-17.040200 0.000000
-16.989800 0.000000
-16.939400 0.000000
-16.889000 0.000000
-16.838600 0.000000
-16.788200 0.000000
-16.737800 0.000000
-16.687400 0.000000
-16.637000 0.000000
-16.586600 0.000000
-16.536200 0.000000
-16.485800 0.000000
-16.435400 0.000000
-16.385000 0.000000
-16.334600 0.000000
-16.284200 0.000000
-16.233800 0.000000
-16.183400 0.000000
-16.132900 0.000000
-16.082500 0.000000
-16.032100 0.000000
-15.981700 0.000000
-15.931300 0.000000
-15.880900 0.000000
-15.830500 0.000000
-15.780100 0.000000
-15.729700 0.000000
-15.679300 0.000000
-15.628900 0.000000
-15.578500 0.000000
-15.528100 0.000000
-15.477700 0.000000
-15.427300 0.000000
-15.376900 0.000000
-15.326500 0.000000
-15.276100 0.000000
-15.225700 0.000000
-15.175300 0.000000
-15.124900 0.000000
-15.074400 0.000000
-15.024000 0.000000
-14.973600 0.000000
-14.923200 0.000000
-14.872800 0.000000
-14.822400 0.000000
-14.772000 0.000000
-14.721600 0.000000
-14.671200 0.000000
-14.620800 0.000000
-14.570400 0.000000
-14.520000 0.000000
-14.469600 0.000000
-14.419200 0.000000
-14.368800 0.000000
-14.318400 0.000000
-14.268000 0.000000
-14.217600 0.000000
-14.167200 0.000000
-14.116800 0.000000
-14.066400 0.000000
-14.016000 0.000000
-13.965500 0.000000
-13.915100 0.000000
-13.864700 0.000000
-13.814300 0.000000
-13.763900 0.000000
-13.713500 0.000000
-13.663100 0.000000
-13.612700 0.000000
-13.562300 0.000000
-13.511900 0.000000
-13.461500 0.000000
-13.411100 0.000000
-13.360700 0.000000
-13.310300 0.000000
-13.259900 0.000000
-13.209500 0.000000
-13.159100 0.000000
-13.108700 0.000000
-13.058300 0.000000
-13.007900 0.000000
-12.957500 0.000000
-12.907100 0.000000
-12.856600 0.000000
-12.806200 0.000000
-12.755800 0.000000
-12.705400 0.000000
-12.655000 0.000000
-12.604600 0.000000
-12.554200 0.000000
-12.503800 0.000000
-12.453400 0.000000
-12.403000 0.000000
-12.352600 0.000000
-12.302200 0.000000
-12.251800 0.000000
-12.201400 0.000000
-12.151000 0.000000
-12.100600 0.000000
-12.050200 0.000000
-11.999800 0.000000
-11.949400 0.000000
-11.899000 0.000000
-11.848600 0.000000
-11.798100 0.000000
-11.747700 0.000000
-11.697300 0.000000
-11.646900 0.000000
-11.596500 0.000000
-11.546100 0.000000
-11.495700 0.000000
-11.445300 0.000000
-11.394900 0.000000
-11.344500 0.000000
-11.294100 0.000000
-11.243700 0.000000
-11.193300 0.000000
-11.142900 0.000000
-11.092500 0.000000
-11.042100 0.000000
-10.991700 0.000000
-10.941300 0.000000
-10.890900 0.000000
-10.840500 0.000000
-10.790100 0.000000
-10.739700 0.000000
-10.689200 0.000000
-10.638800 0.000000
-10.588400 0.000000
-10.538000 0.000000
-10.487600 0.000000
-10.437200 0.000000
-10.386800 0.000000
-10.336400 0.000000
-10.286000 0.000000
-10.235600 0.000000
-10.185200 0.000000
-10.134800 0.000000
-10.084400 0.000000
-10.034000 0.000000
-9.983600 0.000000
-9.933200 0.000000
-9.882800 0.000000
-9.832400 0.000000
-9.782000 0.000000
-9.731600 0.000000
-9.681200 0.000000
-9.630800 0.000000
-9.580300 0.000000
-9.529900 0.000000
-9.479500 0.000000
-9.429100 0.000000
-9.378700 0.000000
-9.328300 0.000000
-9.277900 0.000000
-9.227500 0.000000
-9.177100 0.000000
-9.126700 0.000000
-9.076300 0.000000
-9.025900 0.000000
-8.975500 0.000000
-8.925100 0.000000
-8.874700 0.000000
-8.824300 0.000000
-8.773900 0.000000
-8.723500 0.000000
-8.673100 0.000000
-8.622700 0.000000
-8.572300 0.000000
-8.521800 0.000000
-8.471400 0.000000
-8.421000 0.000000
-8.370600 0.000000
-8.320200 0.000000
-8.269800 0.000000
-8.219400 0.000000
-8.169000 0.000000
-8.118600 0.000000
-8.068200 0.000000
-8.017800 0.000000
-7.967400 0.000000
-7.917000 0.000000
-7.866600 0.000000
-7.816200 0.000000
-7.765800 0.000000
-7.715400 0.000000
-7.665000 0.000000
-7.614600 0.000000
-7.564200 0.000000
-7.513800 0.000000
-7.463400 0.000000
-7.412900 0.000000
-7.362500 0.000000
-7.312100 0.000000
-7.261700 0.000000
-7.211300 0.000000
-7.160900 0.000000
-7.110500 0.000000
-7.060100 0.000000
-7.009700 0.000000
-6.959300 0.000000
-6.908900 0.000000
-6.858500 0.000000
-6.808100 0.000000
-6.757700 0.000000
-6.707300 0.000000
-6.656900 0.000000
-6.606500 0.000000
-6.556100 0.000000
-6.505700 0.000000
-6.455300 0.000000
-6.404900 0.000000
-6.354500 0.000000
-6.304000 0.000000
-6.253600 0.000000
-6.203200 0.000000
-6.152800 0.000000
-6.102400 0.000000
-6.052000 0.000000
-6.001600 0.000000
-5.951200 0.000000
-5.900800 0.000000
-5.850400 0.000000
-5.800000 0.000000
-5.749600 0.000000
-5.699200 0.000000
-5.648800 0.000000
-5.598400 0.000000
-5.548000 0.000000
-5.497600 0.000000
-5.447200 0.000000
-5.396800 0.000000
-5.346400 0.000000
-5.296000 0.000000
-5.245500 0.000000
-5.195100 0.000000
-5.144700 0.000000
-5.094300 0.000000
-5.043900 0.000000
-4.993500 0.000000
-4.943100 0.000000
-4.892700 0.000000
-4.842300 0.000000
-4.791900 0.000000
-4.741500 0.000000
-4.691100 0.000000
-4.640700 0.000000
-4.590300 0.000000
-4.539900 0.000000
-4.489500 0.000000
-4.439100 0.000000
-4.388700 0.000000
-4.338300 0.000000
-4.287900 0.000000
-4.237500 0.000000
-4.187100 0.000000
-4.136600 0.000000
-4.086200 0.000000
-4.035800 0.000000
-3.985400 0.000000
-3.935000 0.000000
-3.884600 0.000000
-3.834200 0.000000
-3.783800 0.000000
-3.733400 0.000000
-3.683000 0.000000
-3.632600 0.000000
-3.582200 0.000000
-3.531800 0.000000
-3.481400 0.000000
-3.431000 0.000000
-3.380600 0.000000
-3.330200 0.000000
-3.279800 0.000000
-3.229400 0.000000
-3.179000 0.000000
-3.128600 0.000000
-3.078200 0.000000
-3.027700 0.000000
-2.977300 0.000000
-2.926900 0.000000
-2.876500 0.000000
-2.826100 0.000000
-2.775700 0.000000
-2.725300 0.000000
-2.674900 0.000000
-2.624500 0.000000
-2.574100 0.000000
-2.523700 0.000000
-2.473300 0.000000
-2.422900 0.000000
-2.372500 0.000000
-2.322100 0.000000
-2.271700 0.000000
-2.221300 0.000000
-2.170900 0.000000
-2.120500 0.000000
-2.070100 0.000000
-2.019700 0.000000
-1.969200 0.000000
-1.918800 0.000000
-1.868400 0.000000
-1.818000 0.000000
-1.767600 0.000000
-1.717200 0.000000
-1.666800 0.000000
-1.616400 0.000000
-1.566000 0.000000
-1.515600 0.000000
-1.465200 0.000100
-1.414800 0.004300
-1.364400 0.023900
-1.314000 0.047300
-1.263600 0.067000
-1.213200 0.146500
-1.162800 0.198300
-1.112400 0.061500
-1.062000 0.040600
-1.011600 0.188200
-0.961200 0.277800
-0.910800 0.244700
-0.860300 0.295700
-0.809900 0.241400
-0.759500 0.053500
-0.709100 0.106400
-0.658700 0.278900
-0.608300 0.328400
-0.557900 0.381100
-0.507500 0.553400
-0.457100 0.254100
-0.406700 0.098900
-0.356300 0.250200
-0.305900 0.368500
-0.255500 0.611900
-0.205100 0.483000
-0.154700 0.120400
-0.104300 0.307800
-0.053900 0.637700
-0.003500 0.433600
0.046900 0.433900
0.097300 0.512100
0.147700 0.408700
0.198100 0.652600
0.248600 0.878600
0.299000 0.754100
0.349400 0.471500
0.399800 0.304400
0.450200 0.429800
0.500600 0.913500
0.551000 1.244700
0.601400 1.036600
0.651800 1.011600
0.702200 1.446800
0.752600 1.859600
0.803000 2.396000
0.853400 2.904300
0.903800 3.720900
0.954200 3.857400
1.004600 3.327700
1.055000 3.420500
1.105400 3.315100
1.155800 3.433000
1.206200 3.691400
1.256600 3.272500
1.307100 2.859700
1.357500 3.524000
1.407900 4.768300
1.458300 5.361200
1.508700 5.815500
1.559100 6.586700
1.609500 6.992600
1.659900 7.852500
1.710300 8.614300
1.760700 8.550000
1.811100 7.142300
1.861500 7.444500
1.911900 7.597300
1.962300 7.342800
2.012700 7.236500
2.063100 6.199200
2.113500 6.498400
2.163900 6.475700
2.214300 5.729000
2.264700 5.368700
2.315100 5.237900
2.365500 4.699600
2.416000 4.784500
2.466400 4.976100
2.516800 5.421700
2.567200 5.585100
2.617600 4.440800
2.668000 4.904400
2.718400 4.133500
2.768800 4.334000
2.819200 5.201200
2.869600 5.258300
2.920000 4.763900
2.970400 4.481800
3.020800 4.588700
3.071200 4.698000
3.121600 4.765700
3.172000 4.752900
3.222400 5.346700
3.272800 5.319200
3.323200 5.146900
3.373600 6.026400
3.424000 6.297400
3.474400 6.388700
3.524900 6.289000
3.575300 5.828300
3.625700 5.867400
3.676100 5.280300
3.726500 4.962300
3.776900 4.435300
3.827300 5.138000
3.877700 7.268300
3.928100 8.240200
3.978500 7.595200
4.028900 6.988500
4.079300 7.851000
4.129700 7.882000
4.180100 8.396300
4.230500 9.267800
4.280900 9.566800
4.331300 9.094700
4.381700 10.216800
4.432100 9.936600
4.482500 7.759000
4.532900 6.721100
4.583400 6.594800
4.633800 5.664900
4.684200 5.248200
4.734600 5.989100
4.785000 5.963900
4.835400 5.400400
4.885800 6.002900
4.936200 5.982700
4.986600 4.844000
5.037000 5.097300
5.087400 6.070400
5.137800 5.510700
5.188200 4.705300
5.238600 5.079300
5.289000 5.686700
5.339400 5.880200
5.389800 6.624400
5.440200 6.779200
5.490600 6.172300
5.541000 5.372500
5.591400 5.278500
5.641800 5.870200
5.692300 5.872000
5.742700 6.183600
5.793100 5.373400
5.843500 4.631000
5.893900 6.275600
5.944300 6.494200
5.994700 5.261100
6.045100 5.904500
6.095500 5.614400
6.145900 5.422400
6.196300 6.057700
6.246700 5.635200
6.297100 4.840400
6.347500 5.235300
6.397900 5.350200
6.448300 4.559400
6.498700 5.235700
6.549100 5.188400
6.599500 4.590700
6.649900 5.063300
6.700300 5.454100
6.750700 5.499400
6.801200 5.071600
6.851600 4.702100
6.902000 4.862800
6.952400 5.742900
7.002800 5.978800
7.053200 6.546800
7.103600 6.973300
7.154000 6.929700
7.204400 6.646900
7.254800 7.231800
7.305200 9.074400
7.355600 8.999800
7.406000 9.525000
7.456400 9.868500
7.506800 7.608900
7.557200 5.879700
7.607600 4.874500
7.658000 3.781700
7.708400 3.588200
7.758800 3.810900
7.809200 2.760100
7.859700 2.271300
7.910100 1.665900
7.960500 1.058300
8.010900 0.511100
8.061300 0.707300
8.111700 1.355600
8.162100 2.142600
8.212500 2.033700
8.262900 1.299200
8.313300 0.674800
8.363700 0.392800
8.414100 0.472500
8.464500 0.775300
8.514900 1.215100
8.565300 1.182900
8.615700 0.574500
8.666100 0.275100
8.716500 0.383200
8.766900 0.595900
8.817300 1.288200
8.867700 2.002700
8.918100 1.597100
8.968600 1.050000
9.019000 0.934800
9.069400 1.139500
9.119800 1.237400
9.170200 1.305400
9.220600 1.237200
9.271000 0.963700
9.321400 0.688900
9.371800 0.704500
9.422200 0.880900
9.472600 1.059400
9.523000 1.304900
9.573400 1.094900
9.623800 0.676800
9.674200 0.610800
9.724600 0.890800
9.775000 0.946800
9.825400 0.832100
9.875800 0.659100
9.926200 0.773700
9.976600 1.153200
10.027000 1.491600
10.077500 1.475800
10.127900 1.346900
10.178300 0.998500
10.228700 0.821700
10.279100 0.853800
10.329500 1.345600
10.379900 1.435800
10.430300 0.918400
10.480700 0.777300
10.531100 1.212100
10.581500 1.508000
10.631900 1.157100
10.682300 0.625600
10.732700 0.355800
10.783100 0.636800
10.833500 1.012600
10.883900 1.097300
10.934300 0.998900
10.984700 0.703900
11.035100 0.712500
11.085500 0.908400
11.136000 1.134000
11.186400 1.302700
11.236800 1.384700
11.287200 1.497700
11.337600 1.104100
11.388000 0.601600
11.438400 0.569000
11.488800 0.652500
11.539200 0.770400
11.589600 0.620700
11.640000 0.538600
11.690400 1.039900
11.740800 1.279900
11.791200 1.160700
11.841600 0.888500
11.892000 1.043600
11.942400 1.137800
11.992800 1.105600
12.043200 1.074400
12.093600 0.969900
12.144000 0.838300
12.194400 0.990800
12.244900 0.704300
12.295300 0.491200
12.345700 0.500100
12.396100 0.656900
12.446500 0.851600
12.496900 0.741600
12.547300 0.538900
12.597700 0.472600
12.648100 0.378200
12.698500 0.798400
12.748900 0.608700
12.799300 0.408300
12.849700 0.874400
12.900100 1.348200
12.950500 1.110900
13.000900 0.909100
13.051300 1.076400
13.101700 0.980500
13.152100 0.790900
13.202500 0.706900
13.252900 0.877800
13.303300 0.730600
13.353800 0.381200
13.404200 0.443400
13.454600 0.511700
13.505000 0.471400
13.555400 0.510400
13.605800 0.415000
13.656200 0.394200
13.706600 0.459300
13.757000 0.452700
13.807400 0.631500
13.857800 1.075700
13.908200 0.852700
13.958600 0.633100
14.009000 0.892800
14.059400 0.711300
14.109800 0.470900
14.160200 0.782800
14.210600 1.712100
14.261000 2.052000
14.311400 1.434400
14.361800 1.634800
14.412300 1.716500
14.462700 1.202500
14.513100 1.115800
14.563500 1.155000
14.613900 0.838500
14.664300 0.833000
14.714700 0.805100
14.765100 0.784500
14.815500 0.716200
14.865900 0.617500
14.916300 0.799900
14.966700 0.893400
15.017100 0.669700
15.067500 0.801500
15.117900 1.345300
15.168300 1.086700
15.218700 0.853900
15.269100 1.231300
15.319500 1.384500
15.369900 1.262700
15.420300 1.414500
15.470700 1.124300
15.521200 0.903500
15.571600 1.769700
15.622000 1.820900
15.672400 1.249700
15.722800 1.280900
15.773200 1.319400
15.823600 1.274200
15.874000 1.325100
15.924400 1.065500
15.974800 1.009100
16.025200 0.846700
16.075600 0.703700
16.126000 0.801100
16.176400 1.094900
16.226800 1.525900
16.277200 1.606300
16.327600 1.284600
16.378000 1.087300
16.428400 1.276100
16.478800 1.379400
16.529200 1.238100
16.579600 0.660700
16.630100 0.770400
16.680500 1.457600
16.730900 1.577200
16.781300 1.049700
16.831700 0.863600
16.882100 0.852000
16.932500 1.073800
16.982900 1.127300
17.033300 0.934000
17.083700 1.369700
17.134100 1.512300
17.184500 1.346100
17.234900 1.322000
17.285300 1.081400
17.335700 0.862500
17.386100 1.136700
17.436500 1.289600
17.486900 1.144100
17.537300 0.875000
17.587700 0.956700
17.638100 0.990400
17.688600 1.249600
17.739000 1.479400
17.789400 1.600500
17.839800 2.207900
17.890200 1.772900
17.940600 1.407300
17.991000 1.551300
18.041400 1.487600
18.091800 1.384200
18.142200 1.093500
18.192600 0.869300
18.243000 0.944900
18.293400 0.927800
18.343800 1.125300
18.394200 1.350700
18.444600 1.582100
18.495000 2.093000
18.545400 2.567200
18.595800 2.587500
18.646200 2.424200
18.696600 1.753000
18.747000 0.853600
18.797500 1.112200
18.847900 1.905200
18.898300 2.109100
18.948700 1.966400
18.999100 1.528000
19.049500 1.762700
19.099900 1.807300
19.150300 1.680500
19.200700 1.522000
19.251100 1.517200
19.301500 1.204300
19.351900 1.088000
19.402300 1.514000
19.452700 2.102600
19.503100 2.320000
19.553500 2.143700
19.603900 2.097500
19.654300 1.863000
19.704700 2.007900
19.755100 2.376500
19.805500 1.822100
19.855900 1.690400
19.906400 2.013200
19.956800 2.089200
20.007200 1.983600
20.057600 2.408100
20.108000 2.736700
20.158400 2.134800
20.208800 1.322000
20.259200 1.480000
20.309600 1.326700
20.360000 1.412700
20.410400 2.030900
20.460800 2.051900
20.511200 2.016600
20.561600 2.615800
20.612000 2.869100
20.662400 2.671700
20.712800 1.960300
20.763200 1.725700
20.813600 2.027700
20.864000 1.820700
20.914400 1.800200
20.964900 2.651000
21.015300 2.453900
21.065700 2.023500
21.116100 1.826400
21.166500 1.990900
21.216900 2.214700
21.267300 2.034400
21.317700 1.980700
21.368100 1.846100
21.418500 1.319100
21.468900 1.612400
21.519300 1.946000
21.569700 2.446500
21.620100 2.563800
21.670500 1.503900
21.720900 1.935300
21.771300 2.761300
21.821700 2.186400
21.872100 1.355400
21.922500 1.580700
21.972900 2.533700
22.023300 2.779900
22.073800 3.013000
22.124200 2.691900
22.174600 1.828200
22.225000 1.161600
22.275400 0.921900
22.325800 1.165100
22.376200 2.174800
22.426600 3.372900
22.477000 3.330600
22.527400 2.763300
22.577800 2.315000
22.628200 2.200700
22.678600 1.845400
22.729000 1.272700
22.779400 1.701000
22.829800 2.436500
22.880200 2.461400
22.930600 2.087200
22.981000 1.598300
23.031400 1.156100
23.081800 1.364400
23.132200 1.755100
23.182700 1.704300
23.233100 2.202100
23.283500 3.163100
23.333900 3.411600
23.384300 3.600800
23.434700 4.771600
23.485100 5.431700
23.535500 4.529900
23.585900 3.533500
23.636300 2.165800
23.686700 1.898200
23.737100 2.936100
23.787500 3.034000
23.837900 3.083600
23.888300 2.448500
23.938700 2.599300
23.989100 3.198100
24.039500 2.300700
24.089900 2.219700
24.140300 1.877200
24.190700 1.325300
24.241200 1.733200
24.291600 2.550400
24.342000 2.288100
24.392400 2.116300
24.442800 2.830300
24.493200 3.083100
24.543600 2.140100
24.594000 1.597700
24.644400 1.758700
24.694800 1.942000
24.745200 1.890100
24.795600 2.013000
24.846000 2.426500
24.896400 3.277100
24.946800 3.192500
24.997200 2.656300
25.047600 3.002800
25.098000 3.747500
25.148400 3.463200
25.198800 2.597200
25.249200 2.216700
25.299600 2.007900
25.350100 1.553000
25.400500 1.190600
25.450900 1.426800
25.501300 2.082200
25.551700 1.777000
25.602100 1.798100
25.652500 1.236400
25.702900 1.462500
25.753300 2.131500
25.803700 1.528700
25.854100 1.510600
25.904500 1.046900
25.954900 0.897100
26.005300 1.517700
26.055700 1.610900
26.106100 1.713400
26.156500 1.257700
26.206900 1.140500
26.257300 1.658300
26.307700 2.318300
26.358100 1.975100
26.408500 1.284600
26.459000 1.411200
26.509400 1.129700
26.559800 0.755600
26.610200 1.049100
26.660600 1.156700
26.711000 0.898600
26.761400 0.770700
26.811800 0.833000
26.862200 0.969900
26.912600 1.591500
26.963000 1.866200
27.013400 1.491500
27.063800 1.508500
27.114200 1.641400
27.164600 1.876500
27.215000 2.047100
27.265400 1.469000
27.315800 1.523300
27.366200 1.791700
27.416600 2.131400
27.467000 1.997300
27.517500 1.876200
27.567900 2.102300
27.618300 2.429200
27.668700 2.311800
27.719100 2.212800
27.769500 2.645700
27.819900 2.964200
27.870300 3.061000
27.920700 2.795400
27.971100 3.056300
28.021500 3.647500
28.071900 2.825400
28.122300 2.657800
28.172700 3.073700
28.223100 2.834500
28.273500 3.256900
28.323900 3.389300
28.374300 3.374600
28.424700 3.501700
28.475100 3.422300
28.525500 3.705400
28.575900 3.166800
28.626400 2.930900
28.676800 3.358100
28.727200 2.957900
28.777600 3.256600
28.828000 3.571200
28.878400 3.577800
28.928800 3.576900
28.979200 3.734800
29.029600 3.525400
29.080000 2.754600
29.130400 2.152800
29.180800 2.303100
29.231200 2.228600
29.281600 2.067800
29.332000 1.963400
29.382400 2.333300
29.432800 3.054200
29.483200 3.012200
29.533600 2.362400
29.584000 2.069600
29.634400 2.459100
29.684800 2.595700
29.735300 1.584900
29.785700 1.714300
29.836100 2.494600
29.886500 2.518600
29.936900 3.833200
29.987300 4.424300
30.037700 3.361700
30.088100 2.176500
30.138500 1.675800
30.188900 1.342300
30.239300 1.207000
30.289700 1.427800
30.340100 1.317500
30.390500 1.781300
30.440900 1.874800
30.491300 1.667100
30.541700 1.189900
30.592100 1.102200
30.642500 1.340200
30.692900 1.438100
30.743300 2.025500
30.793800 2.095200
30.844200 1.235000
30.894600 0.713500
30.945000 1.148200
30.995400 1.542400
31.045800 1.490200
31.096200 1.594000
31.146600 1.950900
31.197000 1.217500
31.247400 1.215300
31.297800 1.341100
31.348200 1.009900
31.398600 0.766500
31.449000 1.233900
31.499400 1.675900
31.549800 3.950900
31.600200 15.615600
31.650600 25.458500
31.701000 36.884400
31.751400 30.369800
31.801800 8.837000
31.852200 2.884000
31.902700 1.528700
31.953100 1.068800
32.003500 1.246800
32.053900 1.517000
32.104300 1.542900
32.154700 1.074300
32.205100 0.869200
32.255500 1.007200
32.305900 0.900500
32.356300 0.728900
32.406700 0.990200
32.457100 1.836200
32.507500 2.540900
32.557900 2.957400
32.608300 2.051500
32.658700 1.601300
32.709100 2.264300
32.759500 2.504300
32.809900 2.364600
32.860300 1.907200
32.910700 1.532100
32.961100 1.441600
33.011600 1.649300
33.062000 2.092600
33.112400 1.914400
33.162800 1.659500
33.213200 1.755100
33.263600 2.212700
33.314000 2.184800
33.364400 2.061500
33.414800 2.567500
33.465200 2.712500
33.515600 2.075300
33.566000 2.496300
33.616400 2.290800
33.666800 1.919800
33.717200 2.259000
33.767600 2.418700
33.818000 2.220400
33.868400 2.230200
33.918800 2.855900
33.969200 2.862700
34.019600 2.255700
34.070100 2.086000
34.120500 2.435000
34.170900 3.042600
34.221300 3.250800
34.271700 2.430800
34.322100 2.659900
34.372500 2.819900
34.422900 2.459000
34.473300 2.674400
34.523700 3.064100
34.574100 3.003300
34.624500 3.161700
34.674900 2.918700
34.725300 2.297700
34.775700 1.801400
34.826100 1.761900
34.876500 2.323100
34.926900 3.178500
34.977300 3.127400
35.027700 3.028000
35.078100 2.875800
35.128500 2.944700
35.179000 3.077700
35.229400 2.396100
35.279800 1.918500
35.330200 1.995200
35.380600 2.731500
35.431000 2.894600
35.481400 2.251200
35.531800 2.649600
35.582200 2.597200
35.632600 2.245700
35.683000 2.679800
35.733400 2.873500
35.783800 2.487100
35.834200 2.192000
35.884600 2.095300
35.935000 2.026000
35.985400 2.610500
36.035800 4.035400
36.086200 4.662500
36.136600 3.790500
36.187000 3.130500
36.237400 3.833600
36.287900 3.546300
36.338300 2.856400
36.388700 2.668000
36.439100 2.823400
36.489500 2.799800
36.539900 2.661300
36.590300 3.542100
36.640700 3.752400
36.691100 3.313200
36.741500 2.843100
36.791900 3.150500
36.842300 3.714500
36.892700 3.602000
36.943100 3.971500
36.993500 4.307700
37.043900 4.586700
37.094300 4.225700
37.144700 3.173400
37.195100 3.854100
37.245500 4.145200
37.295900 2.845900
37.346400 2.173200
37.396800 3.136400
37.447200 3.648600
37.497600 4.443800
37.548000 5.085600
37.598400 3.323800
37.648800 2.975800
37.699200 3.271000
37.749600 2.918500
37.800000 2.623100
37.850400 2.421200
37.900800 1.954300
37.951200 2.180100
38.001600 2.783300
38.052000 2.572500
38.102400 2.920200
38.152800 3.351300
38.203200 3.065600
38.253600 3.268800
38.304000 3.355700
38.354400 3.291600
38.404800 3.809100
38.455300 2.964400
38.505700 1.705300
38.556100 2.020200
38.606500 3.071300
38.656900 3.518500
38.707300 3.520300
38.757700 3.263200
38.808100 2.794900
38.858500 2.643000
38.908900 2.512200
38.959300 2.883500
39.009700 3.581900
39.060100 4.080900
39.110500 4.376200
39.160900 5.842200
39.211300 8.370000
39.261700 13.786700
39.312100 25.498600
39.362500 28.553500
39.412900 17.399800
39.463300 8.534900
39.513700 5.443700
39.564200 4.997300
39.614600 4.890700
39.665000 4.885200
39.715400 4.385300
39.765800 3.295700
39.816200 3.726700
39.866600 3.806400
39.917000 2.597100
39.967400 1.813500
40.017800 1.954300
40.068200 2.095100
40.118600 2.308100
40.169000 2.348200
40.219400 2.428900
40.269800 2.528600
40.320200 2.619300
40.370600 2.682700
40.421000 2.599300
40.471400 2.362700
40.521800 1.941800
40.572200 1.647100
40.622700 1.785800
40.673100 1.839200
40.723500 2.413600
40.773900 2.939300
40.824300 2.292300
40.874700 1.920600
40.925100 2.324500
40.975500 2.100900
41.025900 1.696600
41.076300 2.028400
41.126700 2.139400
41.177100 2.159500
41.227500 2.187700
41.277900 2.116900
41.328300 2.079800
41.378700 2.193000
41.429100 2.187800
41.479500 1.899500
41.529900 1.927700
41.580300 2.354600
41.630700 2.845600
41.681100 2.908900
41.731600 2.380900
41.782000 2.031500
41.832400 1.865200
41.882800 1.604000
41.933200 2.047000
41.983600 2.649900
42.034000 3.134700
42.084400 3.388600
42.134800 2.699600
42.185200 2.212900
42.235600 2.020800
42.286000 2.238900
42.336400 2.587800
42.386800 2.724000
42.437200 2.899100
42.487600 2.809100
42.538000 2.969200
42.588400 2.479900
42.638800 1.851600
42.689200 2.425400
42.739600 2.721200
42.790000 2.225600
42.840500 2.583800
42.890900 2.615400
42.941300 2.184800
42.991700 2.211800
43.042100 2.263100
43.092500 2.340100
43.142900 2.756500
43.193300 2.668900
43.243700 2.508400
43.294100 2.773900
43.344500 2.603700
43.394900 2.312000
43.445300 2.411200
43.495700 2.887000
43.546100 3.004900
43.596500 2.512500
43.646900 2.759400
43.697300 2.322000
43.747700 2.389200
43.798100 2.849800
43.848500 2.162000
43.899000 1.626600
43.949400 2.275200
43.999800 2.776500
44.050200 2.777900
44.100600 3.037500
44.151000 2.911600
44.201400 2.304000
44.251800 2.106300
44.302200 2.117100
44.352600 2.572500
44.403000 3.106300
44.453400 3.479600
44.503800 3.112100
44.554200 2.271600
44.604600 2.201800
44.655000 2.039500
44.705400 2.268700
44.755800 3.083700
44.806200 3.168100
44.856600 3.187400
44.907000 4.079300
44.957400 3.959800
45.007900 3.191600
45.058300 2.454000
45.108700 2.282300
45.159100 2.949600
45.209500 3.158900
45.259900 3.228400
45.310300 3.529500
45.360700 3.627800
45.411100 3.638500
45.461500 3.958100
45.511900 4.841600
45.562300 4.581800
45.612700 3.728800
45.663100 3.525600
45.713500 3.660100
45.763900 3.618000
45.814300 4.058400
45.864700 3.808300
45.915100 3.090600
45.965500 3.584500
46.015900 3.484200
46.066300 3.070700
46.116800 3.007100
46.167200 3.215100
46.217600 4.185400
46.268000 4.895400
46.318400 4.389200
46.368800 3.007400
46.419200 3.378300
46.469600 3.708900
46.520000 3.096900
46.570400 3.190400
46.620800 3.922200
46.671200 4.165700
46.721600 3.457700
46.772000 3.371900
46.822400 3.907500
46.872800 3.855000
46.923200 4.055600
46.973600 4.272300
47.024000 3.720000
47.074400 3.455500
47.124800 3.772400
47.175300 2.508000
47.225700 1.876900
47.276100 2.354800
47.326500 2.264200
47.376900 2.240300
47.427300 2.431900
47.477700 2.947800
47.528100 3.515600
47.578500 2.811400
47.628900 1.844900
47.679300 2.014200
47.729700 3.473600
47.780100 4.238000
47.830500 4.080600
47.880900 3.984500
47.931300 3.433300
47.981700 2.758600
48.032100 3.534300
48.082500 4.337700
48.132900 3.556100
48.183300 3.256400
48.233700 3.156500
48.284200 3.141600
48.334600 3.332200
48.385000 3.742500
48.435400 3.675500
48.485800 2.952400
48.536200 2.495600
48.586600 2.457700
48.637000 2.191000
48.687400 1.927900
48.737800 2.226000
48.788200 2.657400
48.838600 2.902300
48.889000 3.117200
48.939400 2.589400
48.989800 2.186700
49.040200 2.434400
49.090600 3.138700
49.141000 2.825700
49.191400 2.574600
49.241800 2.619600
49.292200 2.187100
49.342600 1.947900
49.393100 2.362300
49.443500 2.797400
49.493900 2.548100
49.544300 2.120600
49.594700 2.543900
49.645100 2.012000
49.695500 1.703900
49.745900 1.759000
49.796300 1.899400
49.846700 1.446600
49.897100 1.016300
49.947500 0.909500
49.997900 1.047100
50.048300 0.983300
50.098700 0.972500
50.149100 0.724500
50.199500 0.615400
50.249900 0.811800
50.300300 0.796100
50.350700 0.529600
50.401100 0.159400
50.451600 0.165700
50.502000 0.448500
50.552400 0.503800
50.602800 0.369300
50.653200 0.481100
50.703600 0.286400
50.754000 0.124800
50.804400 0.045400
50.854800 0.003600
50.905200 0.000500
50.955600 0.015500
51.006000 0.080700
51.056400 0.074600
51.106800 0.012200
51.157200 0.000300
51.207600 0.000000
51.258000 0.000000
51.308400 0.000000
51.358800 0.000000
51.409200 0.000000
51.459600 0.000000
51.510000 0.000000
51.560500 0.000000
51.610900 0.000000
51.661300 0.000000
51.711700 0.000000
51.762100 0.000000
51.812500 0.000000
51.862900 0.000100
51.913300 0.005400
51.963700 0.035700
52.014100 0.041700
52.064500 0.008700
52.114900 0.000300
52.165300 0.000000
52.215700 0.000000
52.266100 0.000000
52.316500 0.000000
52.366900 0.000000
52.417300 0.000000
52.467700 0.000000
52.518100 0.000000
52.568500 0.000000
52.618900 0.000000
52.669400 0.000000
52.719800 0.000000
52.770200 0.000000
52.820600 0.000000
52.871000 0.000000
52.921400 0.000000
52.971800 0.000000
53.022200 0.000000
53.072600 0.000000
53.123000 0.000000
53.173400 0.000000
53.223800 0.000000
53.274200 0.000000
53.324600 0.000000
53.375000 0.000000
53.425400 0.000000
53.475800 0.000000
53.526200 0.000000
53.576600 0.000000
53.627000 0.000000
53.677400 0.000000
53.727900 0.000000
53.778300 0.000000
53.828700 0.000000
53.879100 0.000000
53.929500 0.000000
53.979900 0.000000
54.030300 0.000000
54.080700 0.000000
54.131100 0.000000
54.181500 0.000000
54.231900 0.000000
54.282300 0.000000
54.332700 0.000000
54.383100 0.000000
54.433500 0.000000
54.483900 0.000000
54.534300 0.000000
54.584700 0.000000
54.635100 0.000000
54.685500 0.000000
54.735900 0.000000
54.786300 0.000000
54.836800 0.000000
54.887200 0.000000
54.937600 0.000000
54.988000 0.000000
55.038400 0.000000
55.088800 0.000000
55.139200 0.000000
55.189600 0.000000
55.240000 0.000000
55.290400 0.000000
55.340800 0.000000
55.391200 0.000000
55.441600 0.000000
55.492000 0.000000
55.542400 0.000000
55.592800 0.000000
55.643200 0.000000
55.693600 0.000000
55.744000 0.000000
55.794400 0.000000
55.844800 0.000000
55.895200 0.000000
55.945700 0.000000
55.996100 0.000000
56.046500 0.000000
56.096900 0.000000
56.147300 0.000000
56.197700 0.000000
56.248100 0.000000
56.298500 0.000000
56.348900 0.000000
56.399300 0.000000
56.449700 0.000000
56.500100 0.000000
56.550500 0.000000
e
