set title 'mp-1224692 - Density of States'
set xlabel 'Energy (eV)'
set ylabel 'DOS (states/eV)'
set grid
set xrange [-10:10]
set yrange [0:11.517]
set xzeroaxis lt -1
set terminal png size 800,600
set output 'mp-1224692_dos_gnuplot.png'
plot '-' using 1:2 with lines title 'DOS'
-51.298800 0.000000
-51.247400 0.000000
-51.196000 0.000000
-51.144600 0.000000
-51.093200 0.000000
-51.041800 0.000000
-50.990400 0.000000
-50.939000 0.000000
-50.887600 0.000000
-50.836200 0.000000
-50.784800 0.000000
-50.733400 0.000000
-50.682000 0.000000
-50.630600 0.000000
-50.579200 0.000000
-50.527800 0.000000
-50.476400 0.000000
-50.425000 0.000000
-50.373600 0.000000
-50.322200 0.000000
-50.270800 0.000000
-50.219400 0.000000
-50.168000 0.000000
-50.116600 0.000000
-50.065200 0.000000
-50.013800 0.000000
-49.962400 0.000000
-49.911000 0.000000
-49.859600 0.000000
-49.808200 0.000000
-49.756800 0.000000
-49.705400 0.000000
-49.654000 0.000000
-49.602600 0.000000
-49.551200 0.000000
-49.499800 0.000000
-49.448400 0.000000
-49.397000 0.000000
-49.345600 0.000000
-49.294200 0.000000
-49.242800 0.000000
-49.191400 0.000000
-49.140000 0.000000
-49.088600 0.000000
-49.037200 0.000000
-48.985800 0.000000
-48.934400 0.000000
-48.883000 0.000000
-48.831600 0.000000
-48.780200 0.000000
-48.728800 0.000000
-48.677400 0.000000
-48.626000 0.000000
-48.574600 0.000000
-48.523200 0.000000
-48.471800 0.000000
-48.420400 0.000000
-48.369000 0.000000
-48.317600 0.000000
-48.266200 0.000000
-48.214800 0.000000
-48.163400 0.000000
-48.112000 0.000000
-48.060600 0.000000
-48.009200 0.000000
-47.957800 0.000000
-47.906400 0.000000
-47.855000 0.000000
-47.803600 0.000000
-47.752200 0.000000
-47.700800 0.000000
-47.649400 0.000000
-47.598000 0.000000
-47.546600 0.000000
-47.495200 0.000000
-47.443800 0.000000
-47.392400 0.000000
-47.341000 0.000000
-47.289600 0.000000
-47.238200 0.000000
-47.186800 0.000000
-47.135400 0.000000
-47.084000 0.000000
-47.032600 0.000000
-46.981200 0.000000
-46.929800 0.000000
-46.878400 0.000000
-46.827000 0.000000
-46.775600 0.000000
-46.724200 0.000000
-46.672800 0.000000
-46.621400 10.281300
-46.570000 55.312000
-46.518600 19.003100
-46.467200 6.771300
-46.415800 13.961700
-46.364400 19.480100
-46.313000 35.071600
-46.261600 58.887300
-46.210200 23.063400
-46.158800 0.000000
-46.107400 0.000000
-46.056000 0.000000
-46.004600 0.000000
-45.953200 0.000000
-45.901800 0.000000
-45.850400 0.000000
-45.799000 0.000000
-45.747600 0.000000
-45.696200 0.000000
-45.644800 0.000000
-45.593400 0.000000
-45.542000 0.000000
-45.490600 0.000000
-45.439200 0.000000
-45.387800 0.000000
-45.336400 0.000000
-45.285000 0.000000
-45.233600 0.000000
-45.182200 0.000000
-45.130800 0.000000
-45.079400 0.000000
-45.028000 0.000000
-44.976600 0.000000
-44.925200 0.000000
-44.873800 0.000000
-44.822400 0.000000
-44.771000 0.000000
-44.719600 0.000000
-44.668200 0.000000
-44.616800 0.000000
-44.565400 0.000000
-44.514000 0.000000
-44.462600 0.000000
-44.411200 0.000000
-44.359800 0.000000
-44.308400 0.000000
-44.257000 0.000000
-44.205600 0.000000
-44.154200 0.000000
-44.102800 0.000000
-44.051400 0.000000
-44.000000 0.000000
-43.948600 0.000000
-43.897200 0.000000
-43.845800 0.000000
-43.794400 0.000000
-43.743000 0.000000
-43.691600 0.000000
-43.640200 0.000000
-43.588800 0.000000
-43.537400 0.000000
-43.486000 0.000000
-43.434600 0.000000
-43.383200 0.000000
-43.331800 0.000000
-43.280400 0.000000
-43.229000 0.000000
-43.177600 0.000000
-43.126200 0.000000
-43.074800 0.000000
-43.023400 0.000000
-42.972000 0.000000
-42.920600 0.000000
-42.869200 0.000000
-42.817800 0.000000
-42.766400 0.000000
-42.715000 0.000000
-42.663600 0.000000
-42.612200 0.000000
-42.560800 0.000000
-42.509400 0.000000
-42.458000 0.000000
-42.406600 0.000000
-42.355200 0.000000
-42.303800 0.000000
-42.252400 0.000000
-42.201000 0.000000
-42.149600 0.000000
-42.098200 0.000000
-42.046800 0.000000
-41.995400 0.000000
-41.944000 0.000000
-41.892600 0.000000
-41.841200 0.000000
-41.789800 0.000000
-41.738400 0.000000
-41.687000 0.000000
-41.635600 0.000000
-41.584200 0.000000
-41.532800 0.000000
-41.481400 0.000000
-41.430000 0.000000
-41.378600 0.000000
-41.327200 0.000000
-41.275800 0.000000
-41.224400 0.000000
-41.173000 0.000000
-41.121600 0.000000
-41.070200 0.000000
-41.018800 0.000000
-40.967400 0.000000
-40.916000 0.000000
-40.864600 0.000000
-40.813200 0.000000
-40.761800 0.000000
-40.710400 0.000000
-40.659000 0.000000
-40.607600 0.000000
-40.556200 0.000000
-40.504800 0.000000
-40.453400 0.000000
-40.402000 0.000000
-40.350600 0.000000
-40.299200 0.000000
-40.247800 0.000000
-40.196400 0.000000
-40.145000 0.000000
-40.093600 0.000000
-40.042200 0.000000
-39.990800 0.000000
-39.939400 0.000000
-39.888000 0.000000
-39.836600 0.000000
-39.785200 0.000000
-39.733800 0.000000
-39.682400 0.000000
-39.631000 0.000000
-39.579600 0.000000
-39.528200 0.000000
-39.476800 0.000000
-39.425400 0.000000
-39.374000 0.000000
-39.322600 0.000000
-39.271200 0.000000
-39.219800 0.000000
-39.168400 0.000000
-39.117000 0.000000
-39.065600 0.000000
-39.014200 0.000000
-38.962800 0.000000
-38.911400 0.000000
-38.860000 0.000000
-38.808600 0.000000
-38.757200 0.000000
-38.705800 0.000000
-38.654400 0.000000
-38.603000 0.000000
-38.551600 0.000000
-38.500200 0.000000
-38.448800 0.000000
-38.397400 0.000000
-38.346000 0.000000
-38.294600 0.000000
-38.243200 0.000000
-38.191800 0.000000
-38.140400 0.000000
-38.088900 0.000000
-38.037500 0.000000
-37.986100 0.000000
-37.934700 0.000000
-37.883300 0.000000
-37.831900 0.000000
-37.780500 0.000000
-37.729100 0.000000
-37.677700 0.000000
-37.626300 0.000000
-37.574900 0.000000
-37.523500 0.000000
-37.472100 0.000000
-37.420700 0.000000
-37.369300 0.000000
-37.317900 0.000000
-37.266500 0.000000
-37.215100 0.000000
-37.163700 0.000000
-37.112300 0.000000
-37.060900 0.000000
-37.009500 0.000000
-36.958100 0.000000
-36.906700 0.000000
-36.855300 0.000000
-36.803900 0.000000
-36.752500 0.000000
-36.701100 0.000000
-36.649700 0.000000
-36.598300 0.000000
-36.546900 0.000000
-36.495500 0.000000
-36.444100 0.000000
-36.392700 0.000000
-36.341300 0.000000
-36.289900 0.000000
-36.238500 0.000000
-36.187100 0.000000
-36.135700 0.000000
-36.084300 0.000000
-36.032900 0.000000
-35.981500 0.000000
-35.930100 0.000000
-35.878700 0.000000
-35.827300 0.000000
-35.775900 0.000000
-35.724500 0.000000
-35.673100 0.000000
-35.621700 0.000000
-35.570300 0.000000
-35.518900 0.000000
-35.467500 0.000000
-35.416100 0.000000
-35.364700 0.000000
-35.313300 0.000000
-35.261900 0.000000
-35.210500 0.000000
-35.159100 0.000000
-35.107700 0.000000
-35.056300 0.000000
-35.004900 0.000000
-34.953500 0.000000
-34.902100 0.000000
-34.850700 0.000000
-34.799300 0.000000
-34.747900 0.000000
-34.696500 0.000000
-34.645100 0.000000
-34.593700 0.000000
-34.542300 0.000000
-34.490900 0.000000
-34.439500 0.000000
-34.388100 0.000000
-34.336700 0.000000
-34.285300 0.000000
-34.233900 0.000000
-34.182500 0.000000
-34.131100 0.000000
-34.079700 0.000000
-34.028300 0.000000
-33.976900 0.000000
-33.925500 0.000000
-33.874100 0.000000
-33.822700 0.000000
-33.771300 0.000000
-33.719900 0.000000
-33.668500 0.000000
-33.617100 0.000000
-33.565700 0.000000
-33.514300 0.000000
-33.462900 0.000000
-33.411500 0.000000
-33.360100 0.000000
-33.308700 0.000000
-33.257300 0.000000
-33.205900 0.000000
-33.154500 0.000000
-33.103100 0.000000
-33.051700 0.000000
-33.000300 0.000000
-32.948900 0.000000
-32.897500 0.000000
-32.846100 0.000000
-32.794700 0.000000
-32.743300 0.000000
-32.691900 0.000000
-32.640500 0.000000
-32.589100 0.000000
-32.537700 0.000000
-32.486300 0.000000
-32.434900 0.000000
-32.383500 0.000000
-32.332100 0.000000
-32.280700 0.000000
-32.229300 0.000000
-32.177900 0.000000
-32.126500 0.000000
-32.075100 0.000000
-32.023700 0.000000
-31.972300 0.000000
-31.920900 0.000000
-31.869500 0.000000
-31.818100 0.000000
-31.766700 0.000000
-31.715300 0.000000
-31.663900 0.000000
-31.612500 0.000000
-31.561100 0.000000
-31.509700 0.000000
-31.458300 0.000000
-31.406900 0.000000
-31.355500 0.000000
-31.304100 0.000000
-31.252700 0.000000
-31.201300 0.000000
-31.149900 0.000000
-31.098500 0.000000
-31.047100 0.000000
-30.995700 0.000000
-30.944300 0.000000
-30.892900 0.000000
-30.841500 0.000000
-30.790100 0.000000
-30.738700 0.000000
-30.687300 0.000000
-30.635900 0.000000
-30.584500 0.000000
-30.533100 0.000000
-30.481700 0.000000
-30.430300 0.000000
-30.378900 0.000000
-30.327500 0.000000
-30.276100 0.000000
-30.224700 0.000000
-30.173300 0.000000
-30.121900 0.000000
-30.070500 0.000000
-30.019100 0.000000
-29.967700 0.000000
-29.916300 0.000000
-29.864900 0.000000
-29.813500 0.000000
-29.762100 0.000000
-29.710700 0.000000
-29.659300 0.000000
-29.607900 0.000000
-29.556500 0.000000
-29.505100 0.000000
-29.453700 0.000000
-29.402300 0.000000
-29.350900 0.000000
-29.299500 0.000000
-29.248100 0.000000
-29.196700 0.000000
-29.145300 0.000000
-29.093900 0.000000
-29.042500 0.000000
-28.991100 0.000000
-28.939700 0.000000
-28.888300 0.000000
-28.836900 0.000000
-28.785500 0.000000
-28.734100 0.000000
-28.682700 0.000000
-28.631300 0.000000
-28.579900 0.000000
-28.528500 0.000000
-28.477100 0.000000
-28.425700 0.000000
-28.374300 0.000000
-28.322900 0.000000
-28.271500 0.000000
-28.220100 0.000000
-28.168700 0.000000
-28.117300 0.000000
-28.065900 0.000000
-28.014500 0.000000
-27.963100 0.000000
-27.911700 0.000000
-27.860300 0.000000
-27.808900 0.000000
-27.757500 0.000000
-27.706100 0.000000
-27.654700 0.000000
-27.603300 0.000000
-27.551900 0.000000
-27.500500 0.000000
-27.449100 0.000000
-27.397700 0.000000
-27.346300 0.000000
-27.294900 0.000000
-27.243500 0.000000
-27.192100 0.000000
-27.140700 0.000000
-27.089300 0.000000
-27.037900 0.000000
-26.986500 0.000000
-26.935100 0.000000
-26.883700 0.000000
-26.832300 0.000000
-26.780900 0.000000
-26.729500 0.000000
-26.678100 0.000000
-26.626700 0.000000
-26.575300 0.000000
-26.523900 0.000000
-26.472500 0.000000
-26.421100 0.000000
-26.369700 0.000000
-26.318300 0.000000
-26.266900 0.000000
-26.215500 0.000000
-26.164100 0.000000
-26.112700 0.000000
-26.061300 0.000000
-26.009900 0.000000
-25.958500 0.000000
-25.907100 0.000000
-25.855700 0.000000
-25.804300 0.000000
-25.752900 0.000000
-25.701500 0.000000
-25.650100 0.000000
-25.598700 0.000000
-25.547300 0.000000
-25.495900 0.000000
-25.444500 0.000000
-25.393100 0.000000
-25.341700 0.000000
-25.290300 0.000000
-25.238900 0.000000
-25.187500 0.000000
-25.136100 0.000000
-25.084700 0.000000
-25.033300 0.000000
-24.981900 0.000000
-24.930500 0.000000
-24.879100 0.000000
-24.827700 0.000000
-24.776300 0.000000
-24.724900 0.000000
-24.673500 0.000000
-24.622100 0.000000
-24.570700 0.000000
-24.519300 0.000000
-24.467900 0.000000
-24.416500 0.000000
-24.365100 0.000000
-24.313700 0.000000
-24.262300 0.000000
-24.210900 0.000000
-24.159500 0.000000
-24.108100 0.000000
-24.056700 0.000000
-24.005300 0.000000
-23.953900 0.000000
-23.902500 0.000000
-23.851100 0.000000
-23.799700 0.000000
-23.748300 0.000000
-23.696900 0.000000
-23.645500 0.000000
-23.594100 0.000000
-23.542700 0.000000
-23.491300 0.000000
-23.439900 0.000000
-23.388500 0.000000
-23.337100 0.000000
-23.285700 0.000000
-23.234300 0.000000
-23.182900 0.000000
-23.131500 0.000000
-23.080100 0.000000
-23.028700 0.000000
-22.977300 0.000000
-22.925900 0.000000
-22.874500 0.000000
-22.823100 0.000000
-22.771700 0.000000
-22.720200 0.000000
-22.668800 0.000000
-22.617400 0.000000
-22.566000 0.000000
-22.514600 0.000000
-22.463200 0.000000
-22.411800 0.000000
-22.360400 0.000000
-22.309000 0.000000
-22.257600 0.000000
-22.206200 0.000000
-22.154800 0.000000
-22.103400 0.000000
-22.052000 0.000000
-22.000600 0.000000
-21.949200 0.000000
-21.897800 0.000000
-21.846400 0.000000
-21.795000 0.000000
-21.743600 0.000000
-21.692200 0.000000
-21.640800 0.000000
-21.589400 0.000000
-21.538000 0.000000
-21.486600 0.000000
-21.435200 0.000000
-21.383800 0.000000
-21.332400 0.000000
-21.281000 0.000000
-21.229600 0.000000
-21.178200 0.000000
-21.126800 0.000000
-21.075400 0.000000
-21.024000 0.000000
-20.972600 0.000000
-20.921200 0.000000
-20.869800 0.000000
-20.818400 0.000000
-20.767000 0.000000
-20.715600 0.000000
-20.664200 0.000000
-20.612800 0.000000
-20.561400 0.000000
-20.510000 0.000000
-20.458600 0.000000
-20.407200 0.000000
-20.355800 0.000000
-20.304400 0.000000
-20.253000 0.000000
-20.201600 0.000000
-20.150200 0.000000
-20.098800 0.000000
-20.047400 0.000000
-19.996000 0.000000
-19.944600 0.000000
-19.893200 0.000000
-19.841800 0.000000
-19.790400 0.000000
-19.739000 0.000000
-19.687600 0.000000
-19.636200 0.000000
-19.584800 0.000000
-19.533400 0.000000
-19.482000 0.000000
-19.430600 0.000000
-19.379200 0.000000
-19.327800 0.000000
-19.276400 0.000000
-19.225000 0.000000
-19.173600 0.000000
-19.122200 0.000000
-19.070800 0.000000
-19.019400 0.000000
-18.968000 0.000000
-18.916600 0.000000
-18.865200 0.000000
-18.813800 0.000000
-18.762400 0.000000
-18.711000 0.000000
-18.659600 0.000000
-18.608200 0.000000
-18.556800 0.000000
-18.505400 0.000000
-18.454000 0.000000
-18.402600 0.000000
-18.351200 0.000000
-18.299800 0.000000
-18.248400 0.000000
-18.197000 0.000000
-18.145600 0.000000
-18.094200 0.000000
-18.042800 0.000000
-17.991400 0.000000
-17.940000 0.000000
-17.888600 0.000000
-17.837200 0.000000
-17.785800 0.000000
-17.734400 0.000000
-17.683000 0.000000
-17.631600 0.000000
-17.580200 0.000000
-17.528800 0.000000
-17.477400 0.000000
-17.426000 0.000000
-17.374600 0.000000
-17.323200 0.000000
-17.271800 0.000000
-17.220400 0.000000
-17.169000 0.000000
-17.117600 0.000000
-17.066200 0.000000
-17.014800 0.000000
-16.963400 0.000000
-16.912000 0.000000
-16.860600 0.000000
-16.809200 0.000000
-16.757800 0.000000
-16.706400 0.000000
-16.655000 0.000000
-16.603600 0.000000
-16.552200 0.000000
-16.500800 0.000000
-16.449400 0.000000
-16.398000 0.000000
-16.346600 0.000000
-16.295200 0.000000
-16.243800 0.000000
-16.192400 0.000000
-16.141000 0.000000
-16.089600 0.000000
-16.038200 0.000000
-15.986800 0.000000
-15.935400 0.000000
-15.884000 0.000000
-15.832600 0.000000
-15.781200 0.000000
-15.729800 0.000000
-15.678400 0.000000
-15.627000 0.000000
-15.575600 0.000000
-15.524200 0.000000
-15.472800 0.000000
-15.421400 0.000000
-15.370000 0.000000
-15.318600 0.000000
-15.267200 0.000000
-15.215800 0.000000
-15.164400 0.000000
-15.113000 0.000000
-15.061600 0.000000
-15.010200 0.000000
-14.958800 0.000000
-14.907400 0.000000
-14.856000 0.000000
-14.804600 0.000000
-14.753200 0.000000
-14.701800 0.000000
-14.650400 0.000000
-14.599000 0.000000
-14.547600 0.000000
-14.496200 0.000000
-14.444800 0.000000
-14.393400 0.000000
-14.342000 0.000000
-14.290600 0.000000
-14.239200 0.000000
-14.187800 0.000000
-14.136400 0.000000
-14.085000 0.000000
-14.033600 0.000000
-13.982200 0.000000
-13.930800 0.000000
-13.879400 0.000000
-13.828000 0.000000
-13.776600 0.000000
-13.725200 0.000000
-13.673800 0.000000
-13.622400 0.000000
-13.571000 0.000000
-13.519600 0.000000
-13.468200 0.000000
-13.416800 0.000000
-13.365400 0.000000
-13.314000 0.000000
-13.262600 0.000000
-13.211200 0.000000
-13.159800 0.000000
-13.108400 0.000000
-13.057000 0.000000
-13.005600 0.000000
-12.954200 0.000000
-12.902800 0.000000
-12.851400 0.000000
-12.800000 0.000000
-12.748600 0.000000
-12.697200 0.000000
-12.645800 0.000000
-12.594400 0.000000
-12.543000 0.000000
-12.491600 0.000000
-12.440200 0.000000
-12.388800 0.000000
-12.337400 0.000000
-12.286000 0.000000
-12.234600 0.000000
-12.183200 0.000000
-12.131800 0.000000
-12.080400 0.000000
-12.029000 0.000000
-11.977600 0.000000
-11.926200 0.000000
-11.874800 0.000000
-11.823400 0.000000
-11.772000 0.000000
-11.720600 0.000000
-11.669200 0.000000
-11.617800 0.000000
-11.566400 0.000000
-11.515000 0.000000
-11.463600 0.000000
-11.412200 0.000000
-11.360800 0.000000
-11.309400 0.000000
-11.258000 0.000000
-11.206600 0.000000
-11.155200 0.000000
-11.103800 0.000000
-11.052400 0.000000
-11.001000 0.000000
-10.949600 0.000000
-10.898200 0.000000
-10.846800 0.000000
-10.795400 0.000000
-10.744000 0.000000
-10.692600 0.000000
-10.641200 0.000000
-10.589800 0.000000
-10.538400 0.000000
-10.487000 0.000000
-10.435600 0.000000
-10.384200 0.000000
-10.332800 0.000000
-10.281400 0.000000
-10.230000 0.000000
-10.178600 0.000000
-10.127200 0.000000
-10.075800 0.000000
-10.024400 0.000000
-9.973000 0.000000
-9.921600 0.000000
-9.870200 0.000000
-9.818800 0.000000
-9.767400 0.000000
-9.716000 0.000000
-9.664600 0.000000
-9.613200 0.000000
-9.561800 0.000000
-9.510400 0.000000
-9.459000 0.000000
-9.407600 0.000000
-9.356200 0.000000
-9.304800 0.000000
-9.253400 0.000000
-9.202000 0.000000
-9.150600 0.000000
-9.099200 0.000000
-9.047800 0.000000
-8.996400 0.000000
-8.945000 0.000000
-8.893600 0.000000
-8.842200 0.000000
-8.790800 0.000000
-8.739400 0.000000
-8.688000 0.000000
-8.636600 0.000000
-8.585200 0.000000
-8.533800 0.000000
-8.482400 0.000000
-8.431000 0.000000
-8.379600 0.000000
-8.328200 0.000000
-8.276800 0.000000
-8.225400 0.000000
-8.174000 0.000000
-8.122600 0.000000
-8.071200 0.000000
-8.019800 0.000000
-7.968400 0.000000
-7.917000 0.000000
-7.865600 0.000000
-7.814200 0.000000
-7.762800 0.000000
-7.711400 0.000000
-7.660000 0.000000
-7.608600 0.000000
-7.557200 0.000000
-7.505800 0.000000
-7.454400 0.000000
-7.403000 0.000000
-7.351500 0.000000
-7.300100 0.000000
-7.248700 0.000000
-7.197300 0.000000
-7.145900 0.000000
-7.094500 0.000000
-7.043100 0.000000
-6.991700 0.000000
-6.940300 0.000000
-6.888900 0.000000
-6.837500 0.000000
-6.786100 0.000000
-6.734700 0.000000
-6.683300 0.000000
-6.631900 0.000000
-6.580500 0.000000
-6.529100 0.000000
-6.477700 0.000000
-6.426300 0.000000
-6.374900 0.000000
-6.323500 0.000000
-6.272100 0.000000
-6.220700 0.000000
-6.169300 0.000000
-6.117900 0.000000
-6.066500 0.000000
-6.015100 0.000000
-5.963700 0.000000
-5.912300 0.000000
-5.860900 0.000000
-5.809500 0.000000
-5.758100 0.000000
-5.706700 0.000000
-5.655300 0.000000
-5.603900 0.000000
-5.552500 0.000000
-5.501100 0.000000
-5.449700 0.000000
-5.398300 0.000000
-5.346900 0.000000
-5.295500 0.000000
-5.244100 0.000000
-5.192700 0.000000
-5.141300 0.000000
-5.089900 0.000000
-5.038500 0.000000
-4.987100 0.000000
-4.935700 0.000000
-4.884300 0.000000
-4.832900 0.000000
-4.781500 0.000000
-4.730100 0.000000
-4.678700 0.000000
-4.627300 0.000000
-4.575900 0.000000
-4.524500 0.000000
-4.473100 0.000000
-4.421700 0.000000
-4.370300 0.000000
-4.318900 0.000000
-4.267500 0.000000
-4.216100 0.000000
-4.164700 0.000000
-4.113300 0.000000
-4.061900 0.000000
-4.010500 0.000000
-3.959100 0.000000
-3.907700 0.000000
-3.856300 0.000000
-3.804900 0.000000
-3.753500 0.000000
-3.702100 0.000000
-3.650700 0.000000
-3.599300 0.000000
-3.547900 0.000000
-3.496500 0.000000
-3.445100 0.000000
-3.393700 0.000000
-3.342300 0.000000
-3.290900 0.000000
-3.239500 0.000400
-3.188100 0.025700
-3.136700 0.071800
-3.085300 0.082900
-3.033900 0.103900
-2.982500 0.127100
-2.931100 0.162500
-2.879700 0.184700
-2.828300 0.170700
-2.776900 0.172900
-2.725500 0.175700
-2.674100 0.178600
-2.622700 0.180500
-2.571300 0.180100
-2.519900 0.181000
-2.468500 0.184900
-2.417100 0.186200
-2.365700 0.188400
-2.314300 0.190100
-2.262900 0.191600
-2.211500 0.193100
-2.160100 0.193600
-2.108700 0.195400
-2.057300 0.198200
-2.005900 0.201200
-1.954500 0.204700
-1.903100 0.208000
-1.851700 0.210100
-1.800300 0.212700
-1.748900 0.215600
-1.697500 0.218600
-1.646100 0.221700
-1.594700 0.224400
-1.543300 0.228600
-1.491900 0.233800
-1.440500 0.239200
-1.389100 0.244900
-1.337700 0.251000
-1.286300 0.257300
-1.234900 0.263400
-1.183500 0.270500
-1.132100 0.280100
-1.080700 0.291600
-1.029300 0.305100
-0.977900 0.323300
-0.926500 0.830600
-0.875100 1.277600
-0.823700 1.327600
-0.772300 1.351000
-0.720900 1.719800
-0.669500 1.712600
-0.618100 1.424400
-0.566700 1.202700
-0.515300 1.238800
-0.463900 1.160400
-0.412500 1.127400
-0.361100 1.080500
-0.309700 1.010600
-0.258300 0.933200
-0.206900 0.910400
-0.155500 0.913800
-0.104100 0.915200
-0.052700 0.911600
-0.001300 0.892500
0.050100 0.883600
0.101500 0.873700
0.152900 0.866700
0.204300 0.863400
0.255700 0.864400
0.307100 0.875900
0.358500 2.167900
0.409900 2.267200
0.461300 2.384800
0.512700 2.515200
0.564100 2.785900
0.615500 3.406700
0.666900 3.446000
0.718300 3.665500
0.769700 3.591800
0.821100 3.019200
0.872500 2.803000
0.923900 2.689700
0.975300 1.871400
1.026700 1.482800
1.078100 1.227900
1.129500 1.374700
1.180900 1.852000
1.232300 2.833200
1.283700 3.271800
1.335100 3.130100
1.386500 2.084100
1.437900 1.722600
1.489300 1.502300
1.540700 1.433800
1.592100 1.470400
1.643500 1.804300
1.694900 2.414400
1.746300 1.907400
1.797700 2.131300
1.849100 1.953600
1.900500 2.190700
1.951900 2.807800
2.003300 3.197400
2.054700 2.813000
2.106100 2.805900
2.157500 2.975800
2.208900 2.973400
2.260300 2.863600
2.311700 2.410300
2.363100 1.515300
2.414500 1.637600
2.465900 2.181100
2.517300 2.485700
2.568700 2.822600
2.620100 2.805600
2.671500 2.765400
2.722900 3.208800
2.774300 3.665100
2.825700 4.111300
2.877100 4.078200
2.928500 3.794200
2.979900 3.484100
3.031300 3.016000
3.082700 2.665900
3.134100 2.571900
3.185500 2.616400
3.236900 3.479000
3.288300 2.558200
3.339700 2.738800
3.391100 5.383400
3.442500 6.315500
3.493900 4.446000
3.545300 3.663100
3.596700 5.472200
3.648100 5.250200
3.699500 7.449200
3.750900 4.049100
3.802300 3.518900
3.853700 4.885200
3.905100 6.141300
3.956500 6.498500
4.007900 5.399500
4.059300 5.236400
4.110700 7.397200
4.162100 5.652900
4.213500 4.831100
4.264900 4.235000
4.316300 3.490100
4.367700 2.803400
4.419100 2.507400
4.470500 2.599900
4.521900 3.795300
4.573300 4.948500
4.624700 4.689500
4.676100 5.428400
4.727500 4.622400
4.778900 4.178700
4.830300 3.938600
4.881700 3.488800
4.933100 3.380300
4.984500 3.557300
5.035900 3.588500
5.087300 3.654700
5.138700 3.833900
5.190100 6.808300
5.241500 3.353100
5.292900 3.559000
5.344300 4.515400
5.395700 5.600100
5.447100 5.292200
5.498500 9.778500
5.549900 10.469900
5.601300 6.065400
5.652700 5.435700
5.704100 7.414200
5.755500 9.969400
5.806900 6.159200
5.858300 4.032400
5.909700 3.965100
5.961100 4.317600
6.012500 4.592800
6.063900 4.067500
6.115300 3.916100
6.166700 3.848800
6.218100 3.530400
6.269500 3.273200
6.320900 3.172000
6.372300 3.539900
6.423700 6.561000
6.475100 5.040000
6.526500 4.854700
6.577900 4.639100
6.629300 4.892000
6.680700 5.197300
6.732100 5.145900
6.783500 5.033100
6.834900 5.217400
6.886300 5.494800
6.937700 5.568000
6.989100 5.423000
7.040500 6.106300
7.091900 7.026200
7.143300 9.312300
7.194700 9.876200
7.246100 8.544900
7.297500 6.445400
7.348900 7.394100
7.400300 6.718300
7.451700 5.191700
7.503100 4.371900
7.554500 2.600900
7.605900 1.426300
7.657300 1.357800
7.708700 1.292400
7.760100 1.166600
7.811500 1.108400
7.862900 1.076100
7.914300 1.047800
7.965700 1.024200
8.017200 1.008500
8.068600 0.998000
8.120000 0.992300
8.171400 0.989800
8.222800 0.989000
8.274200 0.984400
8.325600 0.975400
8.377000 0.964700
8.428400 0.956700
8.479800 0.951900
8.531200 0.944600
8.582600 0.945100
8.634000 0.947500
8.685400 0.939800
8.736800 0.923700
8.788200 0.908300
8.839600 0.895400
8.891000 0.886800
8.942400 0.885100
8.993800 0.885100
9.045200 0.887500
9.096600 0.894600
9.148000 0.905400
9.199400 0.901600
9.250800 0.900600
9.302200 0.884800
9.353600 0.865300
9.405000 0.843800
9.456400 0.815300
9.507800 0.786900
9.559200 0.770900
9.610600 0.761600
9.662000 0.757300
9.713400 0.765500
9.764800 0.792300
9.816200 0.758700
9.867600 0.744900
9.919000 0.741300
9.970400 0.745100
10.021800 0.753500
10.073200 0.762900
10.124600 0.773300
10.176000 0.783100
10.227400 0.768400
10.278800 0.762300
10.330200 0.761100
10.381600 0.758100
10.433000 0.747700
10.484400 0.738700
10.535800 0.736500
10.587200 0.741100
10.638600 0.742500
10.690000 0.739800
10.741400 0.733500
10.792800 0.725200
10.844200 0.718800
10.895600 0.714700
10.947000 0.723700
10.998400 0.752100
11.049800 0.790600
11.101200 0.719600
11.152600 0.716400
11.204000 0.753000
11.255400 0.660800
11.306800 0.650000
11.358200 0.637700
11.409600 0.616100
11.461000 0.610700
11.512400 0.600100
11.563800 0.598300
11.615200 0.593700
11.666600 0.582700
11.718000 0.573300
11.769400 0.566500
11.820800 0.562000
11.872200 0.558700
11.923600 0.555800
11.975000 0.553300
12.026400 0.551500
12.077800 0.551000
12.129200 0.552700
12.180600 0.539600
12.232000 0.549700
12.283400 0.495800
12.334800 0.446600
12.386200 0.414600
12.437600 0.411100
12.489000 0.411200
12.540400 0.409800
12.591800 0.411800
12.643200 0.498300
12.694600 0.530900
12.746000 0.542700
12.797400 0.546600
12.848800 0.532800
12.900200 0.511800
12.951600 0.488900
13.003000 0.460000
13.054400 0.457700
13.105800 0.431200
13.157200 0.412600
13.208600 0.408000
13.260000 0.412400
13.311400 0.436300
13.362800 0.483800
13.414200 0.598400
13.465600 0.896400
13.517000 1.164100
13.568400 1.171700
13.619800 1.134200
13.671200 1.079500
13.722600 1.051500
13.774000 1.131300
13.825400 1.161600
13.876800 1.153600
13.928200 1.122400
13.979600 1.087800
14.031000 1.047100
14.082400 0.984200
14.133800 0.923100
14.185200 0.838500
14.236600 0.781400
14.288000 0.746700
14.339400 0.726900
14.390800 0.710700
14.442200 0.706500
14.493600 0.711300
14.545000 0.710700
14.596400 0.725200
14.647800 0.747000
14.699200 0.782500
14.750600 0.824400
14.802000 0.877100
14.853400 0.887700
14.904800 0.890900
14.956200 0.904000
15.007600 0.908200
15.059000 0.925600
15.110400 0.870400
15.161800 0.847000
15.213200 0.818300
15.264600 0.792200
15.316000 0.772600
15.367400 0.760300
15.418800 0.737800
15.470200 0.726400
15.521600 0.723200
15.573000 0.726000
15.624400 0.730600
15.675800 0.735500
15.727200 0.739400
15.778600 0.744600
15.830000 0.753500
15.881400 0.772900
15.932800 0.792800
15.984200 0.815600
16.035600 0.821500
16.087000 0.815500
16.138400 0.811000
16.189800 0.810800
16.241200 0.813400
16.292600 0.824100
16.344000 0.826300
16.395400 0.827000
16.446800 0.826500
16.498200 0.826400
16.549600 0.830900
16.601000 0.842700
16.652400 0.846500
16.703800 0.848900
16.755200 0.842100
16.806600 0.825900
16.858000 0.813300
16.909400 0.805700
16.960800 0.804300
17.012200 0.815900
17.063600 0.910700
17.115000 1.121100
17.166400 1.460300
17.217800 1.426000
17.269200 1.355200
17.320600 1.286700
17.372000 1.237300
17.423400 1.198100
17.474800 1.159800
17.526200 1.125100
17.577600 1.101700
17.629000 1.096600
17.680400 1.103100
17.731800 1.129200
17.783200 1.145800
17.834600 1.148700
17.886000 1.141000
17.937400 1.127400
17.988800 1.115300
18.040200 1.099800
18.091600 1.088900
18.143000 1.079600
18.194400 1.079400
18.245800 1.083000
18.297200 1.083500
18.348600 1.078300
18.400000 1.060100
18.451400 1.031700
18.502800 1.001300
18.554200 0.984600
18.605600 0.991600
18.657000 0.997600
18.708400 0.995600
18.759800 1.008800
18.811200 1.021200
18.862600 1.042300
18.914000 1.066200
18.965400 1.103500
19.016800 1.140500
19.068200 1.185900
19.119600 1.220100
19.171000 1.242000
19.222400 1.265500
19.273800 1.288700
19.325200 1.306000
19.376600 1.329900
19.428000 1.307500
19.479400 1.283500
19.530800 1.266300
19.582200 1.256900
19.633600 1.255900
19.685000 1.263200
19.736400 1.268300
19.787800 1.289100
19.839200 1.287600
19.890600 1.282600
19.942000 1.287000
19.993400 1.299200
20.044800 1.309600
20.096200 1.347300
20.147600 1.334900
20.199000 1.342400
20.250400 1.366800
20.301800 1.384500
20.353200 1.402300
20.404600 1.431300
20.456000 1.467800
20.507400 1.521000
20.558800 1.606700
20.610200 1.672900
20.661600 1.689500
20.713000 1.695400
20.764400 1.700100
20.815800 1.688500
20.867200 1.659900
20.918600 1.561100
20.970000 1.506000
21.021400 1.471700
21.072800 1.430500
21.124200 1.418300
21.175600 1.404900
21.227000 1.385100
21.278400 1.356900
21.329800 1.318000
21.381200 1.325600
21.432600 1.372600
21.484000 1.437600
21.535400 1.511600
21.586800 1.592400
21.638200 1.686400
21.689600 1.715400
21.741000 1.723000
21.792400 1.736500
21.843800 1.739700
21.895200 1.692900
21.946600 1.656000
21.998000 1.575600
22.049400 1.557400
22.100800 1.553100
22.152200 1.540200
22.203600 1.503700
22.255000 1.465100
22.306400 1.425800
22.357800 1.390900
22.409200 1.358000
22.460600 1.334400
22.512000 1.320300
22.563400 1.313300
22.614800 1.314300
22.666200 1.325400
22.717600 1.327600
22.769000 1.328800
22.820400 1.329400
22.871800 1.333000
22.923200 1.339900
22.974600 1.344400
23.026000 1.348300
23.077400 1.355700
23.128800 1.363100
23.180200 1.372700
23.231600 1.388000
23.283000 1.384800
23.334400 1.390500
23.385900 1.436800
23.437300 1.502800
23.488700 1.545300
23.540100 1.528100
23.591500 1.582400
23.642900 1.657900
23.694300 1.730100
23.745700 1.842100
23.797100 1.642100
23.848500 1.471600
23.899900 1.294600
23.951300 1.292000
24.002700 1.285900
24.054100 1.262700
24.105500 1.233300
24.156900 1.210200
24.208300 1.186500
24.259700 1.164900
24.311100 1.147900
24.362500 1.137300
24.413900 1.131300
24.465300 1.133900
24.516700 1.144100
24.568100 1.165900
24.619500 1.186100
24.670900 1.211100
24.722300 1.313300
24.773700 1.431400
24.825100 1.511600
24.876500 1.472300
24.927900 1.413900
24.979300 1.346500
25.030700 1.315900
25.082100 1.289900
25.133500 1.249600
25.184900 1.210900
25.236300 1.180700
25.287700 1.145800
25.339100 1.108000
25.390500 1.073200
25.441900 1.045700
25.493300 1.027000
25.544700 1.013800
25.596100 1.005400
25.647500 0.989000
25.698900 0.987600
25.750300 0.986000
25.801700 0.988500
25.853100 0.994100
25.904500 0.996600
25.955900 0.996200
26.007300 0.987300
26.058700 0.977800
26.110100 0.975300
26.161500 0.977200
26.212900 0.979900
26.264300 0.989400
26.315700 1.008000
26.367100 1.028100
26.418500 1.044100
26.469900 1.066300
26.521300 1.089300
26.572700 1.108300
26.624100 1.114400
26.675500 1.115400
26.726900 1.159400
26.778300 1.175800
26.829700 1.229300
26.881100 1.284900
26.932500 1.323300
26.983900 1.330100
27.035300 1.328000
27.086700 1.318600
27.138100 1.307300
27.189500 1.302000
27.240900 1.330000
27.292300 1.368100
27.343700 1.407900
27.395100 1.409700
27.446500 1.395700
27.497900 1.393100
27.549300 1.389700
27.600700 1.356600
27.652100 1.318600
27.703500 1.279600
27.754900 1.234700
27.806300 1.204000
27.857700 1.162500
27.909100 1.169100
27.960500 1.198200
28.011900 1.290400
28.063300 1.485200
28.114700 1.722300
28.166100 2.046600
28.217500 2.109300
28.268900 2.217900
28.320300 2.262900
28.371700 2.308200
28.423100 2.347000
28.474500 2.296200
28.525900 2.163500
28.577300 2.074100
28.628700 1.971400
28.680100 1.947800
28.731500 1.931200
28.782900 1.922100
28.834300 1.904400
28.885700 1.864900
28.937100 1.833400
28.988500 1.779200
29.039900 1.737300
29.091300 1.712900
29.142700 1.707500
29.194100 1.694300
29.245500 1.718300
29.296900 1.729500
29.348300 1.745200
29.399700 1.760500
29.451100 1.731500
29.502500 1.749600
29.553900 1.757100
29.605300 1.765600
29.656700 1.783800
29.708100 1.772100
29.759500 1.769600
29.810900 1.791600
29.862300 1.821400
29.913700 1.819900
29.965100 1.811600
30.016500 1.821100
30.067900 1.746700
30.119300 1.658800
30.170700 1.573000
30.222100 1.486200
30.273500 1.474300
30.324900 1.471300
30.376300 1.469000
30.427700 1.463200
30.479100 1.423200
30.530500 1.364100
30.581900 1.381600
30.633300 1.447400
30.684700 1.558100
30.736100 1.598000
30.787500 1.488800
30.838900 1.460800
30.890300 1.448800
30.941700 1.434400
30.993100 1.428000
31.044500 1.430400
31.095900 1.408800
31.147300 1.358700
31.198700 1.297100
31.250100 1.234600
31.301500 1.219400
31.352900 1.220900
31.404300 1.205200
31.455700 1.218800
31.507100 1.258900
31.558500 1.280300
31.609900 1.181100
31.661300 1.187800
31.712700 1.219900
31.764100 1.250000
31.815500 1.321900
31.866900 1.424800
31.918300 1.459700
31.969700 1.466100
32.021100 1.499000
32.072500 1.471600
32.123900 1.380800
32.175300 1.284200
32.226700 1.205900
32.278100 1.103100
32.329500 0.981300
32.380900 0.920300
32.432300 0.899100
32.483700 0.904200
32.535100 0.923300
32.586500 0.907400
32.637900 0.905800
32.689300 0.940100
32.740700 0.982500
32.792100 1.038200
32.843500 1.089500
32.894900 1.065900
32.946300 1.049700
32.997700 1.036700
33.049100 1.032800
33.100500 1.040300
33.151900 1.044500
33.203300 1.060700
33.254700 1.063500
33.306100 1.055700
33.357500 1.064700
33.408900 1.101500
33.460300 1.126900
33.511700 1.138300
33.563100 1.155500
33.614500 1.204700
33.665900 1.254700
33.717300 1.275600
33.768700 1.274000
33.820100 1.241000
33.871500 1.196000
33.922900 1.178600
33.974300 1.176800
34.025700 1.186400
34.077100 1.225400
34.128500 1.300700
34.179900 1.383200
34.231300 1.439600
34.282700 1.462800
34.334100 1.504300
34.385500 1.575000
34.436900 1.625800
34.488300 1.689000
34.539700 1.671000
34.591100 1.726600
34.642500 1.808500
34.693900 1.884000
34.745300 1.949600
34.796700 2.057900
34.848100 2.220200
34.899500 2.345700
34.950900 2.377200
35.002300 2.350300
35.053700 2.302100
35.105100 2.204800
35.156500 2.160700
35.207900 2.195500
35.259300 2.195000
35.310700 2.202400
35.362100 2.275400
35.413500 2.249900
35.464900 2.135600
35.516300 2.035800
35.567700 1.946900
35.619100 1.852600
35.670500 1.744900
35.721900 1.645200
35.773300 1.583200
35.824700 1.624700
35.876100 1.731000
35.927500 1.643500
35.978900 1.534800
36.030300 1.493100
36.081700 1.478700
36.133100 1.556900
36.184500 1.600100
36.235900 1.598400
36.287300 1.584600
36.338700 1.585000
36.390100 1.571500
36.441500 1.581700
36.492900 1.597900
36.544300 1.635200
36.595700 1.700400
36.647100 1.614800
36.698500 1.522800
36.749900 1.449100
36.801300 1.415500
36.852700 1.396300
36.904100 1.403600
36.955500 1.464200
37.006900 1.556600
37.058300 1.706000
37.109700 1.730700
37.161100 1.773500
37.212500 1.724000
37.263900 1.730300
37.315300 1.794200
37.366700 1.877300
37.418100 1.851000
37.469500 1.790600
37.520900 1.693200
37.572300 1.650800
37.623700 1.630200
37.675100 1.658300
37.726500 1.737300
37.777900 1.802500
37.829300 1.829900
37.880700 1.917100
37.932100 1.981400
37.983500 2.119400
38.034900 2.272400
38.086300 2.345300
38.137700 2.448800
38.189100 2.602000
38.240500 2.887000
38.291900 3.076200
38.343300 3.395700
38.394700 3.856600
38.446100 4.562900
38.497500 5.786000
38.548900 8.083000
38.600300 16.405200
38.651700 21.814900
38.703100 14.060200
38.754600 11.221200
38.806000 6.507700
38.857400 4.747400
38.908800 6.059600
38.960200 4.461500
39.011600 3.646200
39.063000 2.928700
39.114400 2.705000
39.165800 2.615000
39.217200 2.467700
39.268600 2.406900
39.320000 2.341400
39.371400 2.200500
39.422800 2.088700
39.474200 2.062300
39.525600 2.050700
39.577000 2.051300
39.628400 2.120200
39.679800 2.145300
39.731200 2.194100
39.782600 2.247200
39.834000 2.187000
39.885400 2.110500
39.936800 2.057200
39.988200 1.967100
40.039600 1.922900
40.091000 1.899900
40.142400 1.881000
40.193800 1.867600
40.245200 1.856100
40.296600 1.827800
40.348000 1.792300
40.399400 1.762600
40.450800 1.715500
40.502200 1.641500
40.553600 1.590800
40.605000 1.570000
40.656400 1.566400
40.707800 1.592400
40.759200 1.624700
40.810600 1.650700
40.862000 1.678400
40.913400 1.669800
40.964800 1.617900
41.016200 1.587000
41.067600 1.576200
41.119000 1.565800
41.170400 1.559000
41.221800 1.568800
41.273200 1.594300
41.324600 1.647300
41.376000 1.724700
41.427400 1.738100
41.478800 1.660100
41.530200 1.523500
41.581600 1.418200
41.633000 1.373400
41.684400 1.357000
41.735800 1.341100
41.787200 1.324500
41.838600 1.327700
41.890000 1.314300
41.941400 1.276700
41.992800 1.254600
42.044200 1.247200
42.095600 1.245900
42.147000 1.209000
42.198400 1.141900
42.249800 1.090000
42.301200 1.041900
42.352600 0.989900
42.404000 0.998700
42.455400 0.993200
42.506800 0.943600
42.558200 0.914400
42.609600 0.897600
42.661000 0.862500
42.712400 0.833300
42.763800 0.851500
42.815200 0.840800
42.866600 0.793500
42.918000 0.777000
42.969400 0.766100
43.020800 0.762300
43.072200 0.766100
43.123600 0.778000
43.175000 0.782000
43.226400 0.781900
43.277800 0.784000
43.329200 0.781200
43.380600 0.785800
43.432000 0.789800
43.483400 0.827500
43.534800 0.867000
43.586200 0.843500
43.637600 0.821400
43.689000 0.817500
43.740400 0.829800
43.791800 0.825800
43.843200 0.819800
43.894600 0.817800
43.946000 0.808300
43.997400 0.787700
44.048800 0.759300
44.100200 0.723200
44.151600 0.688800
44.203000 0.656300
44.254400 0.626400
44.305800 0.597600
44.357200 0.571900
44.408600 0.549400
44.460000 0.527600
44.511400 0.519700
44.562800 0.516600
44.614200 0.505400
44.665600 0.484400
44.717000 0.459300
44.768400 0.433400
44.819800 0.405000
44.871200 0.376300
44.922600 0.352900
44.974000 0.335100
45.025400 0.342000
45.076800 0.330800
45.128200 0.317900
45.179600 0.304700
45.231000 0.294600
45.282400 0.279200
45.333800 0.263600
45.385200 0.254300
45.436600 0.246500
45.488000 0.238100
45.539400 0.220500
45.590800 0.200000
45.642200 0.176500
45.693600 0.152800
45.745000 0.142200
45.796400 0.134700
45.847800 0.129800
45.899200 0.126200
45.950600 0.123200
46.002000 0.120700
46.053400 0.118600
46.104800 0.117000
46.156200 0.116300
46.207600 0.113800
46.259000 0.109500
46.310400 0.101600
46.361800 0.087600
46.413200 0.065400
46.464600 0.049800
46.516000 0.039700
46.567400 0.030000
46.618800 0.020600
46.670200 0.011800
46.721600 0.005400
46.773000 0.001500
46.824400 0.000000
46.875800 0.000000
46.927200 0.000000
46.978600 0.000000
47.030000 0.000000
47.081400 0.000000
47.132800 0.000000
47.184200 0.000000
47.235600 0.000000
47.287000 0.000000
47.338400 0.000000
47.389800 0.000000
47.441200 0.000000
47.492600 0.000000
47.544000 0.000000
47.595400 0.000000
47.646800 0.000000
47.698200 0.000000
47.749600 0.000000
47.801000 0.000000
47.852400 0.000000
47.903800 0.000000
47.955200 0.000000
48.006600 0.000000
48.058000 0.000000
48.109400 0.000000
48.160800 0.000000
48.212200 0.000000
48.263600 0.000000
48.315000 0.000000
48.366400 0.000000
48.417800 0.000000
48.469200 0.000000
48.520600 0.000000
48.572000 0.000000
48.623400 0.000000
48.674800 0.000000
48.726200 0.000000
48.777600 0.000000
48.829000 0.000000
48.880400 0.000000
48.931800 0.000000
48.983200 0.000000
49.034600 0.000000
49.086000 0.000000
49.137400 0.000000
49.188800 0.000000
49.240200 0.000000
49.291600 0.000000
49.343000 0.000000
49.394400 0.000000
49.445800 0.000000
49.497200 0.000000
49.548600 0.000000
49.600000 0.000000
49.651400 0.000000
49.702800 0.000000
49.754200 0.000000
49.805600 0.000000
49.857000 0.000000
49.908400 0.000000
49.959800 0.000000
50.011200 0.000000
50.062600 0.000000
50.114000 0.000000
50.165400 0.000000
50.216800 0.000000
50.268200 0.000000
50.319600 0.000000
50.371000 0.000000
50.422400 0.000000
50.473800 0.000000
50.525200 0.000000
50.576600 0.000000
50.628000 0.000000
50.679400 0.000000
50.730800 0.000000
50.782200 0.000000
50.833600 0.000000
50.885000 0.000000
50.936400 0.000000
50.987800 0.000000
51.039200 0.000000
51.090600 0.000000
51.142000 0.000000
51.193400 0.000000
51.244800 0.000000
51.296200 0.000000
51.347600 0.000000
51.399000 0.000000
51.450400 0.000000
51.501800 0.000000
e
