set title 'mp-10201 - Density of States'
set xlabel 'Energy (eV)'
set ylabel 'DOS (states/eV)'
set grid
set xrange [-10:10]
set yrange [0:6.379]
set xzeroaxis lt -1
set terminal png size 800,600
set output 'mp-10201_dos_gnuplot.png'
plot '-' using 1:2 with lines title 'DOS'
-30.987300 0.000000
-30.957600 0.000000
-30.927900 0.000000
-30.898200 0.000000
-30.868400 0.000000
-30.838700 0.000000
-30.809000 0.000000
-30.779300 0.000000
-30.749500 0.000000
-30.719800 0.000000
-30.690100 0.000000
-30.660400 0.000000
-30.630600 0.000000
-30.600900 0.000000
-30.571200 0.000000
-30.541500 0.000000
-30.511700 0.000000
-30.482000 0.000000
-30.452300 0.000000
-30.422600 0.000000
-30.392900 0.000000
-30.363100 0.000000
-30.333400 0.000000
-30.303700 0.000000
-30.274000 0.000000
-30.244200 0.000000
-30.214500 0.000000
-30.184800 0.000000
-30.155100 0.000000
-30.125300 0.000000
-30.095600 0.000000
-30.065900 0.000000
-30.036200 0.000000
-30.006500 0.000000
-29.976700 0.000000
-29.947000 0.000000
-29.917300 0.000000
-29.887600 0.000000
-29.857800 0.000000
-29.828100 0.000000
-29.798400 0.000000
-29.768700 0.000000
-29.738900 0.000000
-29.709200 0.000000
-29.679500 0.000000
-29.649800 0.000000
-29.620000 0.000000
-29.590300 0.000000
-29.560600 0.000000
-29.530900 0.000000
-29.501200 0.000000
-29.471400 0.000000
-29.441700 0.000000
-29.412000 0.000000
-29.382300 0.000000
-29.352500 0.000000
-29.322800 0.000000
-29.293100 0.000000
-29.263400 0.000000
-29.233600 0.000000
-29.203900 0.000000
-29.174200 0.000000
-29.144500 0.000000
-29.114700 0.000000
-29.085000 0.000000
-29.055300 0.000000
-29.025600 0.000000
-28.995900 0.000000
-28.966100 0.000000
-28.936400 0.000000
-28.906700 0.000000
-28.877000 0.000000
-28.847200 0.000000
-28.817500 0.000000
-28.787800 0.000000
-28.758100 0.000000
-28.728300 0.000000
-28.698600 0.000000
-28.668900 0.000000
-28.639200 0.000000
-28.609500 0.000000
-28.579700 0.000000
-28.550000 0.000000
-28.520300 0.000000
-28.490600 0.000000
-28.460800 0.000000
-28.431100 0.000000
-28.401400 0.000000
-28.371700 0.000000
-28.341900 0.000000
-28.312200 0.000000
-28.282500 19.963900
-28.252800 23.747800
-28.223000 17.722400
-28.193300 16.467200
-28.163600 75.710000
-28.133900 47.526100
-28.104200 0.000000
-28.074400 0.000000
-28.044700 0.000000
-28.015000 0.000000
-27.985300 0.000000
-27.955500 0.000000
-27.925800 0.000000
-27.896100 0.000000
-27.866400 0.000000
-27.836600 0.000000
-27.806900 0.000000
-27.777200 0.000000
-27.747500 0.000000
-27.717800 0.000000
-27.688000 0.000000
-27.658300 0.000000
-27.628600 0.000000
-27.598900 0.000000
-27.569100 0.000000
-27.539400 0.000000
-27.509700 0.000000
-27.480000 0.000000
-27.450200 0.000000
-27.420500 0.000000
-27.390800 0.000000
-27.361100 0.000000
-27.331300 0.000000
-27.301600 0.000000
-27.271900 0.000000
-27.242200 0.000000
-27.212500 0.000000
-27.182700 0.000000
-27.153000 0.000000
-27.123300 0.000000
-27.093600 0.000000
-27.063800 0.000000
-27.034100 0.000000
-27.004400 0.000000
-26.974700 0.000000
-26.944900 0.000000
-26.915200 0.000000
-26.885500 0.000000
-26.855800 0.000000
-26.826100 0.000000
-26.796300 0.000000
-26.766600 0.000000
-26.736900 0.000000
-26.707200 0.000000
-26.677400 0.000000
-26.647700 0.000000
-26.618000 0.000000
-26.588300 0.000000
-26.558500 0.000000
-26.528800 0.000000
-26.499100 0.000000
-26.469400 0.000000
-26.439600 0.000000
-26.409900 0.000000
-26.380200 0.000000
-26.350500 0.000000
-26.320800 0.000000
-26.291000 0.000000
-26.261300 0.000000
-26.231600 0.000000
-26.201900 0.000000
-26.172100 0.000000
-26.142400 0.000000
-26.112700 0.000000
-26.083000 0.000000
-26.053200 0.000000
-26.023500 0.000000
-25.993800 0.000000
-25.964100 0.000000
-25.934300 0.000000
-25.904600 0.000000
-25.874900 0.000000
-25.845200 0.000000
-25.815500 0.000000
-25.785700 0.000000
-25.756000 0.000000
-25.726300 0.000000
-25.696600 0.000000
-25.666800 0.000000
-25.637100 0.000000
-25.607400 0.000000
-25.577700 0.000000
-25.547900 0.000000
-25.518200 0.000000
-25.488500 0.000000
-25.458800 0.000000
-25.429100 0.000000
-25.399300 0.000000
-25.369600 0.000000
-25.339900 0.000000
-25.310200 0.000000
-25.280400 0.000000
-25.250700 0.000000
-25.221000 0.000000
-25.191300 0.000000
-25.161500 0.000000
-25.131800 0.000000
-25.102100 0.000000
-25.072400 0.000000
-25.042600 0.000000
-25.012900 0.000000
-24.983200 0.000000
-24.953500 0.000000
-24.923800 0.000000
-24.894000 0.000000
-24.864300 0.000000
-24.834600 0.000000
-24.804900 0.000000
-24.775100 0.000000
-24.745400 0.000000
-24.715700 0.000000
-24.686000 0.000000
-24.656200 0.000000
-24.626500 0.000000
-24.596800 0.000000
-24.567100 0.000000
-24.537400 0.000000
-24.507600 0.000000
-24.477900 0.000000
-24.448200 0.000000
-24.418500 0.000000
-24.388700 0.000000
-24.359000 0.000000
-24.329300 0.000000
-24.299600 0.000000
-24.269800 0.000000
-24.240100 0.000000
-24.210400 0.000000
-24.180700 0.000000
-24.150900 0.000000
-24.121200 0.000000
-24.091500 0.000000
-24.061800 0.000000
-24.032100 0.000000
-24.002300 0.000000
-23.972600 0.000000
-23.942900 0.000000
-23.913200 0.000000
-23.883400 0.000000
-23.853700 0.000000
-23.824000 0.000000
-23.794300 0.000000
-23.764500 0.000000
-23.734800 0.000000
-23.705100 0.000000
-23.675400 0.000000
-23.645600 0.000000
-23.615900 0.000000
-23.586200 0.000000
-23.556500 0.000000
-23.526800 0.000000
-23.497000 0.000000
-23.467300 0.000000
-23.437600 0.000000
-23.407900 0.000000
-23.378100 0.000000
-23.348400 0.000000
-23.318700 0.000000
-23.289000 0.000000
-23.259200 0.000000
-23.229500 0.000000
-23.199800 0.000000
-23.170100 0.000000
-23.140400 0.000000
-23.110600 0.000000
-23.080900 0.000000
-23.051200 0.000000
-23.021500 0.000000
-22.991700 0.000000
-22.962000 0.000000
-22.932300 0.000000
-22.902600 0.000000
-22.872800 0.000000
-22.843100 0.000000
-22.813400 0.000000
-22.783700 0.000000
-22.753900 0.000000
-22.724200 0.000000
-22.694500 0.000000
-22.664800 0.000000
-22.635100 0.000000
-22.605300 0.000000
-22.575600 0.000000
-22.545900 0.000000
-22.516200 0.000000
-22.486400 0.000000
-22.456700 0.000000
-22.427000 0.000000
-22.397300 0.000000
-22.367500 0.000000
-22.337800 0.000000
-22.308100 0.000000
-22.278400 0.000000
-22.248700 0.000000
-22.218900 0.000000
-22.189200 0.000000
-22.159500 0.000000
-22.129800 0.000000
-22.100000 0.000000
-22.070300 0.000000
-22.040600 0.000000
-22.010900 0.000000
-21.981100 0.000000
-21.951400 0.000000
-21.921700 0.000000
-21.892000 0.000000
-21.862200 0.000000
-21.832500 0.000000
-21.802800 0.000000
-21.773100 0.000000
-21.743400 0.000000
-21.713600 0.000000
-21.683900 0.000000
-21.654200 0.000000
-21.624500 0.000000
-21.594700 0.000000
-21.565000 0.000000
-21.535300 0.000000
-21.505600 0.000000
-21.475800 0.000000
-21.446100 0.000000
-21.416400 0.000000
-21.386700 0.000000
-21.356900 0.000000
-21.327200 0.000000
-21.297500 0.000000
-21.267800 0.000000
-21.238100 0.000000
-21.208300 0.000000
-21.178600 0.000000
-21.148900 0.000000
-21.119200 0.000000
-21.089400 0.000000
-21.059700 0.000000
-21.030000 0.000000
-21.000300 0.000000
-20.970500 0.000000
-20.940800 0.000000
-20.911100 0.000000
-20.881400 0.000000
-20.851700 0.000000
-20.821900 0.000000
-20.792200 0.000000
-20.762500 0.000000
-20.732800 0.000000
-20.703000 0.000000
-20.673300 0.000000
-20.643600 0.000000
-20.613900 0.000000
-20.584100 0.000000
-20.554400 0.000000
-20.524700 0.000000
-20.495000 0.000000
-20.465200 0.000000
-20.435500 0.000000
-20.405800 0.000000
-20.376100 0.000000
-20.346400 0.000000
-20.316600 0.000000
-20.286900 0.000000
-20.257200 0.000000
-20.227500 0.000000
-20.197700 0.000000
-20.168000 0.000000
-20.138300 0.000000
-20.108600 0.000000
-20.078800 0.000000
-20.049100 0.000000
-20.019400 0.000000
-19.989700 0.000000
-19.960000 0.000000
-19.930200 0.000000
-19.900500 0.000000
-19.870800 0.000000
-19.841100 0.000000
-19.811300 0.000000
-19.781600 0.000000
-19.751900 0.000000
-19.722200 0.000000
-19.692400 0.000000
-19.662700 0.000000
-19.633000 0.000000
-19.603300 0.000000
-19.573500 0.000000
-19.543800 0.000000
-19.514100 0.000000
-19.484400 0.000000
-19.454700 0.000000
-19.424900 0.000000
-19.395200 0.000000
-19.365500 0.000000
-19.335800 0.000000
-19.306000 0.000000
-19.276300 0.000000
-19.246600 0.000000
-19.216900 0.000000
-19.187100 0.000000
-19.157400 0.000000
-19.127700 0.000000
-19.098000 0.000000
-19.068300 0.000000
-19.038500 0.000000
-19.008800 0.000000
-18.979100 0.000000
-18.949400 0.000000
-18.919600 0.000000
-18.889900 0.000000
-18.860200 0.000000
-18.830500 0.000000
-18.800700 0.000000
-18.771000 0.000000
-18.741300 0.000000
-18.711600 0.000000
-18.681800 0.000000
-18.652100 0.000000
-18.622400 0.000000
-18.592700 0.000000
-18.563000 0.000000
-18.533200 0.000000
-18.503500 0.000000
-18.473800 0.000000
-18.444100 0.000000
-18.414300 0.000000
-18.384600 0.000000
-18.354900 0.000000
-18.325200 0.000000
-18.295400 0.000000
-18.265700 0.000000
-18.236000 0.000000
-18.206300 0.000000
-18.176500 0.000000
-18.146800 0.000000
-18.117100 0.000000
-18.087400 0.000000
-18.057700 0.000000
-18.027900 0.000000
-17.998200 0.000000
-17.968500 0.000000
-17.938800 71.964600
-17.909000 175.953600
-17.879300 83.598300
-17.849600 42.286000
-17.819900 147.123500
-17.790100 130.222600
-17.760400 0.000000
-17.730700 0.000000
-17.701000 0.000000
-17.671300 0.000000
-17.641500 0.000000
-17.611800 0.000000
-17.582100 0.000000
-17.552400 0.000000
-17.522600 0.000000
-17.492900 0.000000
-17.463200 0.000000
-17.433500 0.000000
-17.403700 0.000000
-17.374000 0.000000
-17.344300 0.000000
-17.314600 0.000000
-17.284800 0.000000
-17.255100 0.000000
-17.225400 0.000000
-17.195700 0.000000
-17.166000 0.000000
-17.136200 0.000000
-17.106500 0.000000
-17.076800 0.000000
-17.047100 0.000000
-17.017300 0.000000
-16.987600 0.000000
-16.957900 0.000000
-16.928200 0.000000
-16.898400 0.000000
-16.868700 0.000000
-16.839000 0.000000
-16.809300 0.000000
-16.779600 0.000000
-16.749800 0.000000
-16.720100 0.000000
-16.690400 0.000000
-16.660700 0.000000
-16.630900 0.000000
-16.601200 0.000000
-16.571500 0.000000
-16.541800 0.000000
-16.512000 0.000000
-16.482300 0.000000
-16.452600 0.000000
-16.422900 0.000000
-16.393100 0.000000
-16.363400 0.000000
-16.333700 0.000000
-16.304000 0.000000
-16.274300 0.000000
-16.244500 0.000000
-16.214800 0.000000
-16.185100 0.000000
-16.155400 0.000000
-16.125600 0.000000
-16.095900 0.000000
-16.066200 0.000000
-16.036500 0.000000
-16.006700 0.000000
-15.977000 0.000000
-15.947300 0.000000
-15.917600 0.000000
-15.887800 0.000000
-15.858100 0.000000
-15.828400 0.000000
-15.798700 0.000000
-15.769000 0.000000
-15.739200 0.000000
-15.709500 0.000000
-15.679800 0.000000
-15.650100 0.000000
-15.620300 0.000000
-15.590600 0.000000
-15.560900 0.000000
-15.531200 0.000000
-15.501400 0.000000
-15.471700 0.000000
-15.442000 0.000000
-15.412300 0.000000
-15.382600 0.000000
-15.352800 0.000000
-15.323100 0.000000
-15.293400 0.000000
-15.263700 0.000000
-15.233900 0.000000
-15.204200 0.000000
-15.174500 0.000000
-15.144800 0.000000
-15.115000 0.000000
-15.085300 0.000000
-15.055600 0.000000
-15.025900 0.000000
-14.996100 0.000000
-14.966400 0.000000
-14.936700 0.000000
-14.907000 0.000000
-14.877300 0.000000
-14.847500 0.000000
-14.817800 0.000000
-14.788100 0.000000
-14.758400 0.000000
-14.728600 0.000000
-14.698900 0.000000
-14.669200 0.000000
-14.639500 0.000000
-14.609700 0.000000
-14.580000 0.000000
-14.550300 0.000000
-14.520600 0.000000
-14.490900 0.000000
-14.461100 0.000000
-14.431400 0.000000
-14.401700 0.000000
-14.372000 0.000000
-14.342200 0.000000
-14.312500 0.000000
-14.282800 0.000000
-14.253100 0.000000
-14.223300 0.000000
-14.193600 0.000000
-14.163900 0.000000
-14.134200 0.000000
-14.104400 0.000000
-14.074700 0.000000
-14.045000 0.000000
-14.015300 0.000000
-13.985600 0.000000
-13.955800 0.000000
-13.926100 0.000000
-13.896400 0.000000
-13.866700 0.000000
-13.836900 0.000000
-13.807200 0.000000
-13.777500 0.000000
-13.747800 0.000000
-13.718000 0.000000
-13.688300 0.000000
-13.658600 0.000000
-13.628900 0.000000
-13.599200 0.000000
-13.569400 0.000000
-13.539700 0.000000
-13.510000 0.000000
-13.480300 0.000000
-13.450500 0.000000
-13.420800 0.000000
-13.391100 0.000000
-13.361400 0.000000
-13.331600 0.000000
-13.301900 0.000000
-13.272200 0.000000
-13.242500 0.000000
-13.212700 0.000000
-13.183000 0.000000
-13.153300 0.000000
-13.123600 0.000000
-13.093900 0.000000
-13.064100 0.000000
-13.034400 0.000000
-13.004700 0.000000
-12.975000 0.000000
-12.945200 0.000000
-12.915500 0.000000
-12.885800 0.000000
-12.856100 0.000000
-12.826300 0.000000
-12.796600 0.000000
-12.766900 0.000000
-12.737200 0.000000
-12.707400 0.000000
-12.677700 0.000000
-12.648000 0.000000
-12.618300 0.000000
-12.588600 0.000000
-12.558800 0.000000
-12.529100 0.000000
-12.499400 0.000000
-12.469700 0.000000
-12.439900 0.000000
-12.410200 0.000000
-12.380500 0.000000
-12.350800 0.000000
-12.321000 0.000000
-12.291300 0.000000
-12.261600 0.000000
-12.231900 0.000000
-12.202200 0.000000
-12.172400 0.000000
-12.142700 0.000000
-12.113000 0.000000
-12.083300 0.000000
-12.053500 0.000000
-12.023800 0.000000
-11.994100 0.000000
-11.964400 0.000000
-11.934600 0.000000
-11.904900 0.000000
-11.875200 0.000000
-11.845500 0.000000
-11.815700 0.000000
-11.786000 0.000000
-11.756300 0.000000
-11.726600 0.000000
-11.696900 0.000000
-11.667100 0.000000
-11.637400 0.000000
-11.607700 0.000000
-11.578000 0.000000
-11.548200 0.000000
-11.518500 0.000000
-11.488800 0.000000
-11.459100 0.000000
-11.429300 0.000000
-11.399600 0.000000
-11.369900 0.000000
-11.340200 0.000000
-11.310500 0.000000
-11.280700 0.000000
-11.251000 0.000000
-11.221300 0.000000
-11.191600 0.000000
-11.161800 0.000000
-11.132100 0.000000
-11.102400 0.000000
-11.072700 0.000000
-11.042900 0.000000
-11.013200 0.000000
-10.983500 0.000000
-10.953800 0.000000
-10.924000 0.000000
-10.894300 0.000000
-10.864600 0.000000
-10.834900 0.000000
-10.805200 0.000000
-10.775400 0.000000
-10.745700 0.000000
-10.716000 0.000000
-10.686300 0.000000
-10.656500 0.000000
-10.626800 0.000000
-10.597100 0.000000
-10.567400 0.000000
-10.537600 0.000000
-10.507900 0.000000
-10.478200 0.000000
-10.448500 0.000000
-10.418700 0.000000
-10.389000 0.000000
-10.359300 0.000000
-10.329600 0.000000
-10.299900 0.000000
-10.270100 0.000000
-10.240400 0.000000
-10.210700 0.000000
-10.181000 0.000000
-10.151200 0.000000
-10.121500 0.000000
-10.091800 0.000000
-10.062100 0.000000
-10.032300 0.000000
-10.002600 0.000000
-9.972900 0.000000
-9.943200 0.000000
-9.913500 0.000000
-9.883700 0.000000
-9.854000 0.000000
-9.824300 0.000000
-9.794600 0.000000
-9.764800 0.000000
-9.735100 0.000000
-9.705400 0.000000
-9.675700 0.000000
-9.645900 0.000000
-9.616200 0.000000
-9.586500 0.000000
-9.556800 0.000000
-9.527000 0.000000
-9.497300 0.000000
-9.467600 0.000000
-9.437900 0.000000
-9.408200 0.000000
-9.378400 0.000000
-9.348700 0.000000
-9.319000 0.000000
-9.289300 0.000000
-9.259500 0.000000
-9.229800 0.000000
-9.200100 0.000000
-9.170400 0.000000
-9.140600 0.000000
-9.110900 0.000000
-9.081200 0.000000
-9.051500 0.000000
-9.021800 0.000000
-8.992000 0.000000
-8.962300 0.000000
-8.932600 0.000000
-8.902900 0.000000
-8.873100 0.000000
-8.843400 0.000000
-8.813700 0.000000
-8.784000 0.000000
-8.754200 0.000000
-8.724500 0.000000
-8.694800 0.000000
-8.665100 0.000000
-8.635300 0.000000
-8.605600 0.000000
-8.575900 0.000000
-8.546200 0.000000
-8.516500 0.000000
-8.486700 0.000000
-8.457000 0.000000
-8.427300 0.000000
-8.397600 0.000000
-8.367800 0.000000
-8.338100 0.000000
-8.308400 0.000000
-8.278700 0.000000
-8.248900 0.000000
-8.219200 0.000000
-8.189500 0.000000
-8.159800 0.000000
-8.130000 0.000000
-8.100300 0.000000
-8.070600 0.000000
-8.040900 0.000000
-8.011200 0.000000
-7.981400 0.000000
-7.951700 0.000000
-7.922000 0.000000
-7.892300 0.000000
-7.862500 0.000000
-7.832800 0.000000
-7.803100 0.000000
-7.773400 0.000000
-7.743600 0.000000
-7.713900 0.000000
-7.684200 0.000000
-7.654500 0.000000
-7.624800 0.000000
-7.595000 0.000000
-7.565300 0.000000
-7.535600 0.000000
-7.505900 0.000000
-7.476100 0.000000
-7.446400 0.000000
-7.416700 0.000000
-7.387000 0.000000
-7.357200 0.000000
-7.327500 0.000000
-7.297800 0.000000
-7.268100 0.000000
-7.238300 0.000000
-7.208600 0.000000
-7.178900 0.000000
-7.149200 0.000000
-7.119500 0.000000
-7.089700 0.000000
-7.060000 0.000000
-7.030300 0.000000
-7.000600 0.000000
-6.970800 0.000000
-6.941100 0.000000
-6.911400 0.000000
-6.881700 0.000000
-6.851900 0.000000
-6.822200 0.000000
-6.792500 0.000000
-6.762800 0.000000
-6.733100 0.000000
-6.703300 0.000000
-6.673600 0.000000
-6.643900 0.000000
-6.614200 0.000000
-6.584400 0.000000
-6.554700 0.000000
-6.525000 0.000000
-6.495300 0.000000
-6.465500 0.009500
-6.435800 0.059000
-6.406100 0.068600
-6.376400 0.083300
-6.346600 0.101700
-6.316900 0.117500
-6.287200 0.124100
-6.257500 0.132600
-6.227800 0.142200
-6.198000 0.153000
-6.168300 0.161900
-6.138600 0.171400
-6.108900 0.180700
-6.079100 0.186500
-6.049400 0.193200
-6.019700 0.200500
-5.990000 0.207900
-5.960200 0.215200
-5.930500 0.222000
-5.900800 0.229400
-5.871100 0.237300
-5.841400 0.244500
-5.811600 0.250200
-5.781900 0.255900
-5.752200 0.262000
-5.722500 0.268500
-5.692700 0.274600
-5.663000 0.280800
-5.633300 0.287100
-5.603600 0.293300
-5.573800 0.299800
-5.544100 0.306400
-5.514400 0.313600
-5.484700 0.319600
-5.454900 0.325500
-5.425200 0.331500
-5.395500 0.337600
-5.365800 0.343400
-5.336100 0.349200
-5.306300 0.355300
-5.276600 0.361500
-5.246900 0.368000
-5.217200 0.374900
-5.187400 0.381900
-5.157700 0.389100
-5.128000 0.396400
-5.098300 0.403800
-5.068500 0.410600
-5.038800 0.417700
-5.009100 0.425200
-4.979400 0.433000
-4.949600 0.441600
-4.919900 0.450900
-4.890200 0.461400
-4.860500 0.473800
-4.830800 0.491800
-4.801000 0.505400
-4.771300 0.524500
-4.741600 0.518300
-4.711900 0.524800
-4.682100 0.517000
-4.652400 0.518600
-4.622700 0.531600
-4.593000 0.533000
-4.563200 0.531900
-4.533500 0.530500
-4.503800 0.530400
-4.474100 0.531600
-4.444400 0.533100
-4.414600 0.534900
-4.384900 0.537600
-4.355200 0.540300
-4.325500 0.541500
-4.295700 0.542000
-4.266000 0.544300
-4.236300 0.546500
-4.206600 0.549500
-4.176800 0.552700
-4.147100 0.555200
-4.117400 0.557400
-4.087700 0.559000
-4.057900 0.560200
-4.028200 0.561000
-3.998500 0.563400
-3.968800 0.565700
-3.939100 0.569300
-3.909300 0.573000
-3.879600 0.576700
-3.849900 0.579900
-3.820200 0.583400
-3.790400 0.586900
-3.760700 0.590300
-3.731000 0.592900
-3.701300 0.595900
-3.671500 0.599500
-3.641800 0.604000
-3.612100 0.609000
-3.582400 0.614500
-3.552700 0.620600
-3.522900 0.627200
-3.493200 0.634100
-3.463500 0.641700
-3.433800 0.650200
-3.404000 0.660000
-3.374300 0.670800
-3.344600 0.709700
-3.314900 0.722000
-3.285100 0.749200
-3.255400 0.808900
-3.225700 0.837000
-3.196000 0.868900
-3.166200 0.898000
-3.136500 0.919800
-3.106800 0.928800
-3.077100 0.936900
-3.047400 0.982400
-3.017600 1.083500
-2.987900 0.972700
-2.958200 0.963400
-2.928500 0.922500
-2.898700 0.875000
-2.869000 0.864000
-2.839300 0.851100
-2.809600 0.855000
-2.779800 0.863500
-2.750100 0.869700
-2.720400 0.883100
-2.690700 0.897600
-2.660900 0.934800
-2.631200 0.981000
-2.601500 1.057800
-2.571800 1.220700
-2.542100 1.471800
-2.512300 0.809200
-2.482600 0.798900
-2.452900 0.840900
-2.423200 0.813700
-2.393400 0.801700
-2.363700 0.863700
-2.334000 0.910500
-2.304300 0.916100
-2.274500 0.960500
-2.244800 0.945000
-2.215100 0.931100
-2.185400 0.927500
-2.155700 0.897500
-2.125900 0.851300
-2.096200 0.835300
-2.066500 0.824700
-2.036800 0.815900
-2.007000 0.807600
-1.977300 0.803800
-1.947600 0.798200
-1.917900 0.789200
-1.888100 0.781400
-1.858400 0.776400
-1.828700 0.772000
-1.799000 0.768300
-1.769200 0.765800
-1.739500 0.764100
-1.709800 0.761100
-1.680100 0.755600
-1.650400 0.751600
-1.620600 0.746300
-1.590900 0.741100
-1.561200 0.736400
-1.531500 0.731500
-1.501700 0.727200
-1.472000 0.721200
-1.442300 0.715900
-1.412600 0.711600
-1.382800 0.707700
-1.353100 0.704000
-1.323400 0.700100
-1.293700 0.695800
-1.264000 0.688400
-1.234200 0.681400
-1.204500 0.675500
-1.174800 0.669300
-1.145100 0.663200
-1.115300 0.657300
-1.085600 0.651400
-1.055900 0.644100
-1.026200 0.637300
-0.996400 0.631200
-0.966700 0.625500
-0.937000 0.620000
-0.907300 0.614800
-0.877500 0.609800
-0.847800 0.604000
-0.818100 0.596800
-0.788400 0.589000
-0.758700 0.580900
-0.728900 0.573300
-0.699200 0.565800
-0.669500 0.558900
-0.639800 0.551700
-0.610000 0.543600
-0.580300 0.536400
-0.550600 0.529600
-0.520900 0.522800
-0.491100 0.516200
-0.461400 0.509500
-0.431700 0.503100
-0.402000 0.496900
-0.372200 0.489700
-0.342500 0.483000
-0.312800 0.476200
-0.283100 0.468700
-0.253400 0.460700
-0.223600 0.453100
-0.193900 0.445700
-0.164200 0.437600
-0.134500 0.429100
-0.104700 0.420500
-0.075000 0.411800
-0.045300 0.403500
-0.015600 0.395500
0.014200 0.388300
0.043900 0.408400
0.073600 0.374600
0.103300 0.364500
0.133000 0.353300
0.162800 0.343000
0.192500 0.334100
0.222200 0.326600
0.251900 0.314800
0.281700 0.304100
0.311400 0.291600
0.341100 0.280300
0.370800 0.269000
0.400600 0.256600
0.430300 0.243500
0.460000 0.231200
0.489700 0.221700
0.519500 0.258500
0.549200 0.286800
0.578900 0.278900
0.608600 0.278100
0.638300 0.286800
0.668100 0.298400
0.697800 0.308600
0.727500 0.317200
0.757200 0.325600
0.787000 0.333300
0.816700 0.341400
0.846400 0.355200
0.876100 0.371300
0.905900 0.388300
0.935600 0.405200
0.965300 0.422300
0.995000 0.438300
1.024700 0.444400
1.054500 0.457800
1.084200 0.475800
1.113900 0.489700
1.143600 0.514800
1.173400 0.544900
1.203100 0.615100
1.232800 0.729800
1.262500 0.888700
1.292300 1.122300
1.322000 1.260700
1.351700 1.311400
1.381400 1.319800
1.411200 1.344600
1.440900 1.384200
1.470600 1.408900
1.500300 1.411400
1.530000 1.393600
1.559800 1.382700
1.589500 1.385400
1.619200 1.418500
1.648900 1.445200
1.678700 1.460200
1.708400 1.457500
1.738100 1.453900
1.767800 1.476700
1.797600 1.468300
1.827300 1.484200
1.857000 1.522600
1.886700 1.528900
1.916400 1.544700
1.946200 1.513800
1.975900 1.494000
2.005600 1.495600
2.035300 1.548700
2.065100 1.466400
2.094800 1.429900
2.124500 1.425400
2.154200 1.319000
2.184000 1.251100
2.213700 1.237600
2.243400 1.270400
2.273100 1.127900
2.302900 0.932900
2.332600 0.811600
2.362300 0.748600
2.392000 0.709100
2.421700 0.686100
2.451500 0.669900
2.481200 0.653500
2.510900 0.634700
2.540600 0.604800
2.570400 0.610300
2.600100 0.647600
2.629800 0.691200
2.659500 0.744500
2.689300 0.788500
2.719000 0.826600
2.748700 0.855700
2.778400 0.881900
2.808200 0.884700
2.837900 0.900900
2.867600 0.931600
2.897300 0.975900
2.927000 1.038600
2.956800 1.066400
2.986500 1.080700
3.016200 1.111400
3.045900 1.171100
3.075700 1.265700
3.105400 1.368700
3.135100 1.373400
3.164800 1.375800
3.194600 1.392800
3.224300 1.416000
3.254000 1.424700
3.283700 1.416200
3.313400 1.417400
3.343200 1.449500
3.372900 1.477800
3.402600 1.506900
3.432300 1.531700
3.462100 1.566000
3.491800 1.557400
3.521500 1.522200
3.551200 1.459300
3.581000 1.397300
3.610700 1.332000
3.640400 1.279000
3.670100 1.245400
3.699900 1.239600
3.729600 1.237200
3.759300 1.260500
3.789000 1.288100
3.818700 1.327000
3.848500 1.384100
3.878200 1.497600
3.907900 1.575300
3.937600 1.593100
3.967400 1.692100
3.997100 1.794400
4.026800 1.884600
4.056500 1.983700
4.086300 2.028800
4.116000 2.094800
4.145700 2.179100
4.175400 2.182900
4.205100 2.190400
4.234900 2.337800
4.264600 2.416700
4.294300 2.484400
4.324000 2.845400
4.353800 2.428700
4.383500 2.429000
4.413200 2.326400
4.442900 2.288700
4.472700 2.398300
4.502400 2.464300
4.532100 2.864000
4.561800 3.357600
4.591600 3.733100
4.621300 4.232900
4.651000 5.148200
4.680700 4.896500
4.710400 4.790000
4.740200 4.714000
4.769900 4.709400
4.799600 4.837600
4.829300 4.627600
4.859100 4.648200
4.888800 4.803200
4.918500 5.085400
4.948200 5.625400
4.978000 5.798900
5.007700 5.564200
5.037400 5.135900
5.067100 5.234500
5.096900 5.053700
5.126600 4.663300
5.156300 3.571200
5.186000 3.072300
5.215700 2.780100
5.245500 2.536600
5.275200 2.310700
5.304900 2.111500
5.334600 1.966800
5.364400 1.828000
5.394100 1.696000
5.423800 1.581200
5.453500 1.495100
5.483300 1.422600
5.513000 1.373500
5.542700 1.354700
5.572400 1.364100
5.602100 1.407200
5.631900 1.492100
5.661600 1.632600
5.691300 1.413800
5.721000 1.374400
5.750800 1.339400
5.780500 1.268200
5.810200 1.208200
5.839900 1.161300
5.869700 1.120700
5.899400 1.095700
5.929100 1.075000
5.958800 1.057800
5.988600 1.049900
6.018300 1.038200
6.048000 1.032300
6.077700 1.030500
6.107400 1.019700
6.137200 1.036900
6.166900 1.063000
6.196600 1.081600
6.226300 1.117600
6.256100 1.198100
6.285800 1.209900
6.315500 1.193100
6.345200 1.201800
6.375000 1.243600
6.404700 1.329000
6.434400 1.339800
6.464100 1.206600
6.493800 1.077900
6.523600 1.016100
6.553300 0.973900
6.583000 0.961700
6.612700 0.956300
6.642500 0.902700
6.672200 0.800000
6.701900 0.602500
6.731600 0.395600
6.761400 0.316500
6.791100 0.342200
6.820800 0.410300
6.850500 0.592200
6.880300 0.741700
6.910000 0.694900
6.939700 0.697200
6.969400 0.692500
6.999100 0.680200
7.028900 0.682300
7.058600 0.692700
7.088300 0.693400
7.118000 0.681600
7.147800 0.669900
7.177500 0.663000
7.207200 0.659400
7.236900 0.675600
7.266700 0.696500
7.296400 0.720500
7.326100 0.745300
7.355800 0.773400
7.385500 0.808300
7.415300 0.852900
7.445000 0.907500
7.474700 0.969400
7.504400 1.031100
7.534200 1.099700
7.563900 1.166900
7.593600 1.217600
7.623300 1.235500
7.653100 1.234800
7.682800 1.256200
7.712500 1.283400
7.742200 1.337000
7.772000 1.411300
7.801700 1.483700
7.831400 1.534400
7.861100 1.620100
7.890800 1.756100
7.920600 1.879400
7.950300 2.003000
7.980000 2.184900
8.009700 2.393400
8.039500 2.375600
8.069200 2.233600
8.098900 2.201700
8.128600 2.198100
8.158400 2.230900
8.188100 2.224200
8.217800 2.245000
8.247500 2.297100
8.277300 2.389600
8.307000 2.441500
8.336700 2.491300
8.366400 2.574400
8.396100 2.727600
8.425900 2.952500
8.455600 3.205200
8.485300 3.631700
8.515000 4.214000
8.544800 4.914600
8.574500 4.432500
8.604200 3.855000
8.633900 3.595900
8.663700 2.768900
8.693400 2.363300
8.723100 2.132200
8.752800 1.951500
8.782500 1.781200
8.812300 1.641500
8.842000 1.540000
8.871700 1.455900
8.901400 1.382100
8.931200 1.321500
8.960900 1.271600
8.990600 1.230600
9.020300 1.189900
9.050100 1.153700
9.079800 1.126300
9.109500 1.107100
9.139200 1.075600
9.169000 1.048900
9.198700 1.025200
9.228400 1.006600
9.258100 0.990200
9.287800 0.980200
9.317600 0.971800
9.347300 0.965200
9.377000 0.964000
9.406700 0.965700
9.436500 0.972300
9.466200 0.986800
9.495900 1.007700
9.525600 1.028500
9.555400 1.052200
9.585100 1.080300
9.614800 1.113000
9.644500 1.152200
9.674200 1.195800
9.704000 1.257000
9.733700 1.360400
9.763400 1.554400
9.793100 1.726100
9.822900 1.769500
9.852600 1.713900
9.882300 1.788400
9.912000 1.671000
9.941800 1.588600
9.971500 1.619000
10.001200 1.619200
10.030900 1.632900
10.060700 1.592500
10.090400 1.533300
10.120100 1.498100
10.149800 1.494100
10.179500 1.752600
10.209300 1.886900
10.239000 2.017200
10.268700 2.179900
10.298400 2.245100
10.328200 2.226900
10.357900 2.238700
10.387600 2.269500
10.417300 2.403000
10.447100 2.446600
10.476800 2.453500
10.506500 2.191000
10.536200 1.490300
10.566000 1.558400
10.595700 1.815900
10.625400 2.070900
10.655100 2.416000
10.684800 2.822800
10.714600 3.144500
10.744300 3.381200
10.774000 3.062600
10.803700 2.871600
10.833500 2.716600
10.863200 2.549600
10.892900 2.424200
10.922600 2.289700
10.952400 2.028500
10.982100 1.899600
11.011800 1.774400
11.041500 1.657300
11.071200 1.599400
11.101000 1.552000
11.130700 1.512800
11.160400 1.516700
11.190100 1.525400
11.219900 1.456200
11.249600 1.420700
11.279300 1.376200
11.309000 1.352600
11.338800 1.336200
11.368500 1.333000
11.398200 1.331600
11.427900 1.325400
11.457700 1.326500
11.487400 1.319800
11.517100 1.317800
11.546800 1.334500
11.576500 1.341700
11.606300 1.360000
11.636000 1.365600
11.665700 1.353900
11.695400 1.366500
11.725200 1.383100
11.754900 1.391600
11.784600 1.395700
11.814300 1.401700
11.844100 1.412900
11.873800 1.426500
11.903500 1.446300
11.933200 1.471400
11.962900 1.513500
11.992700 1.516100
12.022400 1.532200
12.052100 1.544100
12.081800 1.558800
12.111600 1.578200
12.141300 1.595400
12.171000 1.613300
12.200700 1.624700
12.230500 1.633100
12.260200 1.636500
12.289900 1.638000
12.319600 1.625400
12.349400 1.616300
12.379100 1.600400
12.408800 1.563000
12.438500 1.514300
12.468200 1.489200
12.498000 1.469800
12.527700 1.454200
12.557400 1.450100
12.587100 1.462400
12.616900 1.474400
12.646600 1.458300
12.676300 1.447900
12.706000 1.441500
12.735800 1.441900
12.765500 1.452700
12.795200 1.473100
12.824900 1.526100
12.854700 1.520200
12.884400 1.519400
12.914100 1.504900
12.943800 1.499000
12.973500 1.487900
13.003300 1.483800
13.033000 1.485600
13.062700 1.509700
13.092400 1.540000
13.122200 1.554400
13.151900 1.583600
13.181600 1.576200
13.211300 1.538300
13.241100 1.511500
13.270800 1.470200
13.300500 1.434100
13.330200 1.421600
13.359900 1.423900
13.389700 1.437000
13.419400 1.443600
13.449100 1.454400
13.478800 1.477300
13.508600 1.504100
13.538300 1.530400
13.568000 1.518900
13.597700 1.491600
13.627500 1.464300
13.657200 1.424900
13.686900 1.396400
13.716600 1.352800
13.746400 1.348800
13.776100 1.365300
13.805800 1.390500
13.835500 1.422300
13.865200 1.451600
13.895000 1.464200
13.924700 1.466300
13.954400 1.478200
13.984100 1.520800
14.013900 1.580800
14.043600 1.580700
14.073300 1.593100
14.103000 1.606300
14.132800 1.767000
14.162500 1.904000
14.192200 1.987600
14.221900 1.986500
14.251600 1.989700
14.281400 1.823500
14.311100 1.713900
14.340800 1.669800
14.370500 1.640000
14.400300 1.609400
14.430000 1.597300
14.459700 1.580900
14.489400 1.556700
14.519200 1.512800
14.548900 1.482000
14.578600 1.449800
14.608300 1.445600
14.638100 1.447600
14.667800 1.432100
14.697500 1.432400
14.727200 1.412300
14.756900 1.376700
14.786700 1.312300
14.816400 1.250800
14.846100 1.217700
14.875800 1.205900
14.905600 1.207700
14.935300 1.213700
14.965000 1.219300
14.994700 1.223200
15.024500 1.228100
15.054200 1.230800
15.083900 1.262900
15.113600 1.280900
15.143300 1.286600
15.173100 1.281200
15.202800 1.282700
15.232500 1.287600
15.262200 1.310100
15.292000 1.272500
15.321700 1.237700
15.351400 1.223100
15.381100 1.201500
15.410900 1.180100
15.440600 1.159000
15.470300 1.152100
15.500000 1.128400
15.529800 1.133500
15.559500 1.170500
15.589200 1.208900
15.618900 1.233700
15.648600 1.245000
15.678400 1.151300
15.708100 1.098200
15.737800 1.077000
15.767500 1.064200
15.797300 1.049700
15.827000 1.037200
15.856700 1.044400
15.886400 1.059000
15.916200 1.104000
15.945900 1.108800
15.975600 1.097300
16.005300 1.058400
16.035100 1.028600
16.064800 1.017100
16.094500 0.998300
16.124200 0.984700
16.153900 0.984500
16.183700 0.995500
16.213400 1.013800
16.243100 1.020800
16.272800 1.023700
16.302600 1.035700
16.332300 1.058000
16.362000 1.083000
16.391700 1.103800
16.421500 1.122900
16.451200 1.153300
16.480900 1.191100
16.510600 1.234200
16.540300 1.284500
16.570100 1.338200
16.599800 1.380300
16.629500 1.425500
16.659200 1.471700
16.689000 1.483900
16.718700 1.458100
16.748400 1.469200
16.778100 1.457800
16.807900 1.441600
16.837600 1.426600
16.867300 1.441000
16.897000 1.471900
16.926800 1.482900
16.956500 1.417100
16.986200 1.252200
17.015900 1.123600
17.045600 1.024400
17.075400 1.005600
17.105100 0.979000
17.134800 0.973400
17.164500 0.983800
17.194300 1.046600
17.224000 1.059200
17.253700 1.101100
17.283400 1.146500
17.313200 1.172900
17.342900 1.198100
17.372600 1.218700
17.402300 1.235300
17.432000 1.247600
17.461800 1.256500
17.491500 1.265400
17.521200 1.278200
17.550900 1.290900
17.580700 1.305500
17.610400 1.322700
17.640100 1.337000
17.669800 1.349000
17.699600 1.357500
17.729300 1.379900
17.759000 1.400200
17.788700 1.410600
17.818500 1.424200
17.848200 1.426700
17.877900 1.416400
17.907600 1.462900
17.937300 1.539700
17.967100 1.524500
17.996800 1.479800
18.026500 1.452600
18.056200 1.451800
18.086000 1.454800
18.115700 1.449400
18.145400 1.480800
18.175100 1.483300
18.204900 1.471400
18.234600 1.477700
18.264300 1.473200
18.294000 1.483300
18.323800 1.502300
18.353500 1.525400
18.383200 1.543200
18.412900 1.563200
18.442600 1.569900
18.472400 1.525000
18.502100 1.521000
18.531800 1.534600
18.561500 1.548200
18.591300 1.560200
18.621000 1.565600
18.650700 1.558300
18.680400 1.548600
18.710200 1.535600
18.739900 1.523000
18.769600 1.519200
18.799300 1.525800
18.829000 1.536600
18.858800 1.540700
18.888500 1.539900
18.918200 1.535900
18.947900 1.499100
18.977700 1.481300
19.007400 1.497500
19.037100 1.535700
19.066800 1.583200
19.096600 1.620300
19.126300 1.640100
19.156000 1.670200
19.185700 1.672900
19.215500 1.645200
19.245200 1.638400
19.274900 1.632000
19.304600 1.591500
19.334300 1.576300
19.364100 1.546600
19.393800 1.499000
19.423500 1.487400
19.453200 1.501400
19.483000 1.497900
19.512700 1.522500
19.542400 1.543000
19.572100 1.537800
19.601900 1.483200
19.631600 1.452900
19.661300 1.439800
19.691000 1.428100
19.720700 1.400900
19.750500 1.392800
19.780200 1.418700
19.809900 1.505200
19.839600 1.609800
19.869400 1.614200
19.899100 1.479900
19.928800 1.427000
19.958500 1.396700
19.988300 1.376500
20.018000 1.364400
20.047700 1.351600
20.077400 1.337000
20.107200 1.311000
20.136900 1.292200
20.166600 1.292800
20.196300 1.299300
20.226000 1.296800
20.255800 1.309600
20.285500 1.298300
20.315200 1.277300
20.344900 1.271100
20.374700 1.253300
20.404400 1.244200
20.434100 1.238000
20.463800 1.233900
20.493600 1.222000
20.523300 1.192700
20.553000 1.146800
20.582700 1.120200
20.612400 1.124000
20.642200 1.137000
20.671900 1.136300
20.701600 1.148100
20.731300 1.175400
20.761100 1.209900
20.790800 1.236500
20.820500 1.300400
20.850200 1.378800
20.880000 1.451100
20.909700 1.511400
20.939400 1.548800
20.969100 1.583300
20.998900 1.607800
21.028600 1.605100
21.058300 1.591800
21.088000 1.575900
21.117700 1.551700
21.147500 1.534400
21.177200 1.513400
21.206900 1.513300
21.236600 1.487000
21.266400 1.452300
21.296100 1.444600
21.325800 1.443200
21.355500 1.425900
21.385300 1.416100
21.415000 1.409200
21.444700 1.401700
21.474400 1.434800
21.504200 1.523600
21.533900 1.558500
21.563600 1.619800
21.593300 1.639600
21.623000 1.705800
21.652800 1.740400
21.682500 1.731800
21.712200 1.685100
21.741900 1.568500
21.771700 1.471200
21.801400 1.407400
21.831100 1.341500
21.860800 1.290000
21.890600 1.247400
21.920300 1.220200
21.950000 1.196200
21.979700 1.160900
22.009400 1.131500
22.039200 1.118500
22.068900 1.111600
22.098600 1.099400
22.128300 1.093500
22.158100 1.087500
22.187800 1.072600
22.217500 1.074300
22.247200 1.084800
22.277000 1.093000
22.306700 1.104900
22.336400 1.120900
22.366100 1.101300
22.395900 1.095500
22.425600 1.082400
22.455300 1.055900
22.485000 1.051400
22.514700 1.041600
22.544500 1.023900
22.574200 1.009700
22.603900 0.994200
22.633600 0.971800
22.663400 0.939300
22.693100 0.895100
22.722800 0.858800
22.752500 0.833000
22.782300 0.811400
22.812000 0.789200
22.841700 0.729400
22.871400 0.680100
22.901100 0.628100
22.930900 0.582000
22.960600 0.547800
22.990300 0.537200
23.020000 0.531200
23.049800 0.524700
23.079500 0.517900
23.109200 0.506100
23.138900 0.493700
23.168700 0.478000
23.198400 0.453800
23.228100 0.422100
23.257800 0.391900
23.287600 0.369100
23.317300 0.327900
23.347000 0.294200
23.376700 0.275400
23.406400 0.269400
23.436200 0.252600
23.465900 0.240300
23.495600 0.232200
23.525300 0.226100
23.555100 0.221000
23.584800 0.216700
23.614500 0.213100
23.644200 0.210100
23.674000 0.207800
23.703700 0.206100
23.733400 0.205000
23.763100 0.204300
23.792900 0.203900
23.822600 0.203600
23.852300 0.203500
23.882000 0.203600
23.911700 0.204300
23.941500 0.205500
23.971200 0.206800
24.000900 0.210800
24.030600 0.217500
24.060400 0.226100
24.090100 0.242200
24.119800 0.272400
24.149500 0.315500
24.179300 0.365600
24.209000 0.432300
24.238700 0.569700
24.268400 0.488500
24.298100 0.284700
24.327900 0.205800
24.357600 0.168200
24.387300 0.139800
24.417000 0.116800
24.446800 0.098000
24.476500 0.081200
24.506200 0.063200
24.535900 0.054000
24.565700 0.053000
24.595400 0.051700
24.625100 0.050000
24.654800 0.046600
24.684600 0.041800
24.714300 0.039100
24.744000 0.037300
24.773700 0.035700
24.803400 0.034200
24.833200 0.032700
24.862900 0.031300
24.892600 0.030000
24.922300 0.028800
24.952100 0.027500
24.981800 0.026300
25.011500 0.025100
25.041200 0.023900
25.071000 0.022900
25.100700 0.021900
25.130400 0.020900
25.160100 0.020000
25.189800 0.019200
25.219600 0.018400
25.249300 0.017600
25.279000 0.016800
25.308700 0.016000
25.338500 0.015300
25.368200 0.014500
25.397900 0.013700
25.427600 0.012900
25.457400 0.012200
25.487100 0.011600
25.516800 0.011700
25.546500 0.011900
25.576300 0.011800
25.606000 0.011400
25.635700 0.010900
25.665400 0.011300
25.695100 0.013300
25.724900 0.009700
25.754600 0.000100
25.784300 0.000000
25.814000 0.000000
25.843800 0.000000
25.873500 0.000000
25.903200 0.000000
25.932900 0.000000
25.962700 0.000000
25.992400 0.000000
26.022100 0.000000
26.051800 0.000000
26.081600 0.000000
26.111300 0.000000
26.141000 0.000000
26.170700 0.000000
26.200400 0.000000
26.230200 0.000000
26.259900 0.000000
26.289600 0.000000
26.319300 0.000000
26.349100 0.000000
26.378800 0.000000
26.408500 0.000000
26.438200 0.000000
26.468000 0.000000
26.497700 0.000000
26.527400 0.000000
26.557100 0.000000
26.586800 0.000000
26.616600 0.000000
26.646300 0.000000
26.676000 0.000000
26.705700 0.000000
26.735500 0.000000
26.765200 0.000000
26.794900 0.000000
26.824600 0.000000
26.854400 0.000000
26.884100 0.000000
26.913800 0.000000
26.943500 0.000000
26.973300 0.000000
27.003000 0.000000
27.032700 0.000000
27.062400 0.000000
27.092100 0.000000
27.121900 0.000000
27.151600 0.000000
27.181300 0.000000
27.211000 0.000000
27.240800 0.000000
27.270500 0.000000
27.300200 0.000000
27.329900 0.000000
27.359700 0.000000
27.389400 0.000000
27.419100 0.000000
27.448800 0.000000
27.478500 0.000000
27.508300 0.000000
27.538000 0.000000
27.567700 0.000000
27.597400 0.000000
27.627200 0.000000
27.656900 0.000000
27.686600 0.000000
27.716300 0.000000
27.746100 0.000000
27.775800 0.000000
27.805500 0.000000
27.835200 0.000000
27.865000 0.000000
27.894700 0.000000
27.924400 0.000000
27.954100 0.000000
27.983800 0.000000
28.013600 0.000000
28.043300 0.000000
28.073000 0.000000
28.102700 0.000000
28.132500 0.000000
28.162200 0.000000
28.191900 0.000000
28.221600 0.000000
28.251400 0.000000
28.281100 0.000000
28.310800 0.000000
28.340500 0.000000
28.370200 0.000000
28.400000 0.000000
28.429700 0.000000
28.459400 0.000000
e
