set title 'mp-1077017 - Density of States'
set xlabel 'Energy (eV)'
set ylabel 'DOS (states/eV)'
set grid
set xrange [-10:10]
set yrange [0:12.267]
set xzeroaxis lt -1
set terminal png size 800,600
set output 'mp-1077017_dos_gnuplot.png'
plot '-' using 1:2 with lines title 'DOS'
-35.903100 0.000000
-35.868800 0.000000
-35.834500 0.000000
-35.800200 0.000000
-35.765900 0.000000
-35.731700 0.000000
-35.697400 0.000000
-35.663100 0.000000
-35.628800 0.000000
-35.594500 0.000000
-35.560200 0.000000
-35.526000 0.000000
-35.491700 0.000000
-35.457400 0.000000
-35.423100 0.000000
-35.388800 0.000000
-35.354500 0.000000
-35.320300 0.000000
-35.286000 0.000000
-35.251700 0.000000
-35.217400 0.000000
-35.183100 0.000000
-35.148800 0.000000
-35.114600 0.000000
-35.080300 0.000000
-35.046000 0.000000
-35.011700 0.000000
-34.977400 0.000000
-34.943100 0.000000
-34.908900 0.000000
-34.874600 0.000000
-34.840300 0.000000
-34.806000 0.000000
-34.771700 0.000000
-34.737400 0.000000
-34.703200 0.000000
-34.668900 0.000000
-34.634600 0.000000
-34.600300 0.000000
-34.566000 0.000000
-34.531700 0.000000
-34.497500 0.000000
-34.463200 0.000000
-34.428900 0.000000
-34.394600 0.000000
-34.360300 0.000000
-34.326000 0.000000
-34.291800 0.000000
-34.257500 0.000000
-34.223200 0.000000
-34.188900 0.000000
-34.154600 0.000000
-34.120300 0.000000
-34.086100 0.000000
-34.051800 0.000000
-34.017500 0.000000
-33.983200 0.000000
-33.948900 0.000000
-33.914600 0.000000
-33.880400 0.000000
-33.846100 0.000000
-33.811800 0.000000
-33.777500 0.000000
-33.743200 0.000000
-33.708900 0.000000
-33.674700 0.000000
-33.640400 0.000000
-33.606100 0.000000
-33.571800 0.000000
-33.537500 0.000000
-33.503200 0.000000
-33.469000 0.000000
-33.434700 0.000000
-33.400400 0.000000
-33.366100 0.000000
-33.331800 0.000000
-33.297500 0.000000
-33.263300 0.000000
-33.229000 0.000000
-33.194700 0.000000
-33.160400 0.000000
-33.126100 0.000000
-33.091800 0.000000
-33.057600 0.000000
-33.023300 0.000000
-32.989000 0.000000
-32.954700 0.000000
-32.920400 0.000000
-32.886100 0.000500
-32.851900 0.008300
-32.817600 0.067900
-32.783300 0.288100
-32.749000 0.720900
-32.714700 1.279600
-32.680400 1.948300
-32.646200 2.839100
-32.611900 3.827700
-32.577600 4.402400
-32.543300 4.339700
-32.509000 3.865700
-32.474700 3.267500
-32.440500 3.484500
-32.406200 6.229700
-32.371900 11.528800
-32.337600 16.359700
-32.303300 18.902200
-32.269100 20.692400
-32.234800 21.193000
-32.200500 19.663600
-32.166200 17.856000
-32.131900 16.350900
-32.097600 15.845700
-32.063400 16.330200
-32.029100 17.578800
-31.994800 18.979500
-31.960500 17.953700
-31.926200 14.020400
-31.891900 9.918100
-31.857700 11.053300
-31.823400 16.132000
-31.789100 17.309600
-31.754800 11.150100
-31.720500 3.890000
-31.686200 0.686500
-31.652000 0.058500
-31.617700 0.002300
-31.583400 0.000000
-31.549100 0.000000
-31.514800 0.000000
-31.480500 0.000000
-31.446300 0.000000
-31.412000 0.000000
-31.377700 0.000000
-31.343400 0.000000
-31.309100 0.000000
-31.274800 0.000000
-31.240600 0.000000
-31.206300 0.000000
-31.172000 0.000000
-31.137700 0.000000
-31.103400 0.000000
-31.069100 0.000000
-31.034900 0.000000
-31.000600 0.000000
-30.966300 0.000000
-30.932000 0.000000
-30.897700 0.000000
-30.863400 0.000000
-30.829200 0.000000
-30.794900 0.000000
-30.760600 0.000000
-30.726300 0.000000
-30.692000 0.000000
-30.657700 0.000000
-30.623500 0.000000
-30.589200 0.000000
-30.554900 0.000000
-30.520600 0.000000
-30.486300 0.000000
-30.452000 0.000000
-30.417800 0.000000
-30.383500 0.000000
-30.349200 0.000000
-30.314900 0.000000
-30.280600 0.000000
-30.246300 0.000000
-30.212100 0.000000
-30.177800 0.000000
-30.143500 0.000000
-30.109200 0.000000
-30.074900 0.000000
-30.040600 0.000000
-30.006400 0.000000
-29.972100 0.000000
-29.937800 0.000000
-29.903500 0.000000
-29.869200 0.000000
-29.834900 0.000000
-29.800700 0.000000
-29.766400 0.000000
-29.732100 0.000000
-29.697800 0.000000
-29.663500 0.000000
-29.629200 0.000000
-29.595000 0.000000
-29.560700 0.000000
-29.526400 0.000000
-29.492100 0.000000
-29.457800 0.000000
-29.423500 0.000000
-29.389300 0.000000
-29.355000 0.000000
-29.320700 0.000000
-29.286400 0.000000
-29.252100 0.000000
-29.217800 0.000000
-29.183600 0.000000
-29.149300 0.000000
-29.115000 0.000000
-29.080700 0.000000
-29.046400 0.000000
-29.012100 0.000000
-28.977900 0.000000
-28.943600 0.000000
-28.909300 0.000000
-28.875000 0.000000
-28.840700 0.000000
-28.806400 0.000000
-28.772200 0.000000
-28.737900 0.000000
-28.703600 0.000000
-28.669300 0.000000
-28.635000 0.000000
-28.600700 0.000000
-28.566500 0.000000
-28.532200 0.000000
-28.497900 0.000000
-28.463600 0.000000
-28.429300 0.000000
-28.395000 0.000000
-28.360800 0.000000
-28.326500 0.000000
-28.292200 0.000000
-28.257900 0.000000
-28.223600 0.000000
-28.189300 0.000000
-28.155100 0.000000
-28.120800 0.000000
-28.086500 0.000000
-28.052200 0.000000
-28.017900 0.000000
-27.983600 0.000000
-27.949400 0.000000
-27.915100 0.000000
-27.880800 0.000000
-27.846500 0.000000
-27.812200 0.000000
-27.777900 0.000000
-27.743700 0.000000
-27.709400 0.000000
-27.675100 0.000000
-27.640800 0.000000
-27.606500 0.000000
-27.572200 0.000000
-27.538000 0.000000
-27.503700 0.000000
-27.469400 0.000000
-27.435100 0.000000
-27.400800 0.000000
-27.366500 0.000000
-27.332300 0.000000
-27.298000 0.000000
-27.263700 0.000000
-27.229400 0.000000
-27.195100 0.000000
-27.160800 0.000000
-27.126600 0.000000
-27.092300 0.000000
-27.058000 0.000000
-27.023700 0.000000
-26.989400 0.000000
-26.955100 0.000000
-26.920900 0.000000
-26.886600 0.000000
-26.852300 0.000000
-26.818000 0.000000
-26.783700 0.000000
-26.749400 0.000000
-26.715200 0.000000
-26.680900 0.000000
-26.646600 0.000000
-26.612300 0.000000
-26.578000 0.000000
-26.543700 0.000000
-26.509500 0.000000
-26.475200 0.000000
-26.440900 0.000000
-26.406600 0.000000
-26.372300 0.000000
-26.338000 0.000000
-26.303800 0.000000
-26.269500 0.000000
-26.235200 0.000000
-26.200900 0.000000
-26.166600 0.000000
-26.132300 0.000000
-26.098100 0.000000
-26.063800 0.000000
-26.029500 0.000000
-25.995200 0.000000
-25.960900 0.000000
-25.926600 0.000000
-25.892400 0.000000
-25.858100 0.000000
-25.823800 0.000000
-25.789500 0.000000
-25.755200 0.000000
-25.720900 0.000000
-25.686700 0.000000
-25.652400 0.000000
-25.618100 0.000000
-25.583800 0.000000
-25.549500 0.000000
-25.515200 0.000000
-25.481000 0.000000
-25.446700 0.000000
-25.412400 0.000000
-25.378100 0.000000
-25.343800 0.000000
-25.309500 0.000000
-25.275300 0.000000
-25.241000 0.000000
-25.206700 0.000000
-25.172400 0.000000
-25.138100 0.000000
-25.103800 0.000000
-25.069600 0.000000
-25.035300 0.000000
-25.001000 0.000000
-24.966700 0.000000
-24.932400 0.000000
-24.898100 0.000000
-24.863900 0.000000
-24.829600 0.000000
-24.795300 0.000000
-24.761000 0.002100
-24.726700 0.068500
-24.692500 0.962500
-24.658200 5.962100
-24.623900 16.807200
-24.589600 22.891700
-24.555300 17.856200
-24.521000 11.685500
-24.486800 8.419900
-24.452500 7.323700
-24.418200 8.813400
-24.383900 11.975800
-24.349600 17.906600
-24.315300 22.455600
-24.281100 15.794100
-24.246800 5.254600
-24.212500 0.781100
-24.178200 0.050400
-24.143900 0.001400
-24.109600 0.000000
-24.075400 0.000000
-24.041100 0.000000
-24.006800 0.000000
-23.972500 0.000000
-23.938200 0.000000
-23.903900 0.000000
-23.869700 0.000000
-23.835400 0.000000
-23.801100 0.000000
-23.766800 0.000000
-23.732500 0.000000
-23.698200 0.000000
-23.664000 0.000000
-23.629700 0.000000
-23.595400 0.000000
-23.561100 0.000000
-23.526800 0.000000
-23.492500 0.000000
-23.458300 0.000000
-23.424000 0.000000
-23.389700 0.000000
-23.355400 0.000000
-23.321100 0.000000
-23.286800 0.000000
-23.252600 0.000000
-23.218300 0.000000
-23.184000 0.000000
-23.149700 0.000000
-23.115400 0.000000
-23.081100 0.000000
-23.046900 0.000000
-23.012600 0.000000
-22.978300 0.000000
-22.944000 0.000000
-22.909700 0.000000
-22.875400 0.000000
-22.841200 0.000000
-22.806900 0.000000
-22.772600 0.000000
-22.738300 0.000000
-22.704000 0.000000
-22.669700 0.000000
-22.635500 0.000000
-22.601200 0.000000
-22.566900 0.000000
-22.532600 0.000000
-22.498300 0.000000
-22.464000 0.000000
-22.429800 0.000000
-22.395500 0.000000
-22.361200 0.000000
-22.326900 0.000000
-22.292600 0.000000
-22.258300 0.000000
-22.224100 0.000000
-22.189800 0.000000
-22.155500 0.000000
-22.121200 0.000000
-22.086900 0.000000
-22.052600 0.000000
-22.018400 0.000000
-21.984100 0.000000
-21.949800 0.000000
-21.915500 0.000000
-21.881200 0.000000
-21.846900 0.000000
-21.812700 0.000000
-21.778400 0.000000
-21.744100 0.000000
-21.709800 0.000000
-21.675500 0.000000
-21.641200 0.000000
-21.607000 0.000000
-21.572700 0.000000
-21.538400 0.000000
-21.504100 0.000000
-21.469800 0.000000
-21.435500 0.000000
-21.401300 0.000000
-21.367000 0.000000
-21.332700 0.000000
-21.298400 0.000000
-21.264100 0.000000
-21.229800 0.000000
-21.195600 0.000000
-21.161300 0.000000
-21.127000 0.000000
-21.092700 0.000000
-21.058400 0.000000
-21.024100 0.000000
-20.989900 0.000000
-20.955600 0.000000
-20.921300 0.000000
-20.887000 0.000000
-20.852700 0.000000
-20.818400 0.000000
-20.784200 0.000000
-20.749900 0.000000
-20.715600 0.000000
-20.681300 0.000000
-20.647000 0.000000
-20.612700 0.000000
-20.578500 0.000000
-20.544200 0.000000
-20.509900 0.000000
-20.475600 0.000000
-20.441300 0.000000
-20.407000 0.000000
-20.372800 0.000000
-20.338500 0.000000
-20.304200 0.000000
-20.269900 0.000000
-20.235600 0.000000
-20.201300 0.000000
-20.167100 0.000000
-20.132800 0.000000
-20.098500 0.000000
-20.064200 0.000000
-20.029900 0.000000
-19.995600 0.000000
-19.961400 0.000000
-19.927100 0.000000
-19.892800 0.000000
-19.858500 0.000000
-19.824200 0.000000
-19.789900 0.000000
-19.755700 0.000000
-19.721400 0.000000
-19.687100 0.000000
-19.652800 0.000000
-19.618500 0.000000
-19.584200 0.000000
-19.550000 0.000000
-19.515700 0.000000
-19.481400 0.000000
-19.447100 0.000000
-19.412800 0.000000
-19.378500 0.000000
-19.344300 0.000000
-19.310000 0.000000
-19.275700 0.000000
-19.241400 0.000000
-19.207100 0.000000
-19.172800 0.000000
-19.138600 0.000000
-19.104300 0.000000
-19.070000 0.000000
-19.035700 0.000000
-19.001400 0.000000
-18.967100 0.000000
-18.932900 0.000000
-18.898600 0.000000
-18.864300 0.000000
-18.830000 0.000000
-18.795700 0.000000
-18.761400 0.000000
-18.727200 0.000000
-18.692900 0.000000
-18.658600 0.000000
-18.624300 0.000000
-18.590000 0.000000
-18.555700 0.000000
-18.521500 0.000000
-18.487200 0.000000
-18.452900 0.000000
-18.418600 0.000000
-18.384300 0.000000
-18.350000 0.000000
-18.315800 0.000000
-18.281500 0.000000
-18.247200 0.000000
-18.212900 0.000000
-18.178600 0.000000
-18.144300 0.000000
-18.110100 0.000000
-18.075800 0.000000
-18.041500 0.000000
-18.007200 0.000000
-17.972900 0.000000
-17.938600 0.000000
-17.904400 0.000000
-17.870100 0.000000
-17.835800 0.000000
-17.801500 0.000000
-17.767200 0.000000
-17.732900 0.000000
-17.698700 0.000000
-17.664400 0.000000
-17.630100 0.000000
-17.595800 0.000000
-17.561500 0.000000
-17.527200 0.000000
-17.493000 0.000000
-17.458700 0.000000
-17.424400 0.000000
-17.390100 0.000000
-17.355800 0.000000
-17.321600 0.000000
-17.287300 0.000000
-17.253000 0.000000
-17.218700 0.000000
-17.184400 0.000000
-17.150100 0.000000
-17.115900 0.000000
-17.081600 0.000000
-17.047300 0.000000
-17.013000 0.000000
-16.978700 0.000000
-16.944400 0.000000
-16.910200 0.000000
-16.875900 0.000000
-16.841600 0.000000
-16.807300 0.000000
-16.773000 0.000000
-16.738700 0.000000
-16.704500 0.000000
-16.670200 0.000000
-16.635900 0.000000
-16.601600 0.000000
-16.567300 0.000000
-16.533000 0.000000
-16.498800 0.000000
-16.464500 0.000000
-16.430200 0.000000
-16.395900 0.000000
-16.361600 0.000000
-16.327300 0.000000
-16.293100 0.000000
-16.258800 0.000000
-16.224500 0.000000
-16.190200 0.000000
-16.155900 0.000000
-16.121600 0.000000
-16.087400 0.000000
-16.053100 0.000000
-16.018800 0.000000
-15.984500 0.000000
-15.950200 0.000000
-15.915900 0.000000
-15.881700 0.000000
-15.847400 0.000000
-15.813100 0.000000
-15.778800 0.000000
-15.744500 0.000000
-15.710200 0.000000
-15.676000 0.000000
-15.641700 0.000000
-15.607400 0.000000
-15.573100 0.000000
-15.538800 0.000000
-15.504500 0.000000
-15.470300 0.000000
-15.436000 0.000000
-15.401700 0.000000
-15.367400 0.000000
-15.333100 0.000000
-15.298800 0.000000
-15.264600 0.000000
-15.230300 0.000000
-15.196000 0.000000
-15.161700 0.000000
-15.127400 0.000000
-15.093100 0.000000
-15.058900 0.000000
-15.024600 0.000000
-14.990300 0.000000
-14.956000 0.000000
-14.921700 0.000000
-14.887400 0.000000
-14.853200 0.000000
-14.818900 0.000000
-14.784600 0.000000
-14.750300 0.000000
-14.716000 0.000000
-14.681700 0.000000
-14.647500 0.000000
-14.613200 0.000000
-14.578900 0.000000
-14.544600 0.000000
-14.510300 0.000000
-14.476000 0.000000
-14.441800 0.000000
-14.407500 0.000000
-14.373200 0.000000
-14.338900 0.000000
-14.304600 0.000000
-14.270300 0.000000
-14.236100 0.000000
-14.201800 0.000000
-14.167500 0.000000
-14.133200 0.000000
-14.098900 0.000000
-14.064600 0.000000
-14.030400 0.000000
-13.996100 0.000000
-13.961800 0.000000
-13.927500 0.000000
-13.893200 0.000000
-13.858900 0.000000
-13.824700 0.000000
-13.790400 0.000000
-13.756100 0.000000
-13.721800 0.000000
-13.687500 0.000000
-13.653200 0.000000
-13.619000 0.000000
-13.584700 0.000000
-13.550400 0.000000
-13.516100 0.000000
-13.481800 0.000000
-13.447500 0.000000
-13.413300 0.000000
-13.379000 0.000000
-13.344700 0.000000
-13.310400 0.000000
-13.276100 0.000000
-13.241800 0.000000
-13.207600 0.000000
-13.173300 0.000000
-13.139000 0.000000
-13.104700 0.000000
-13.070400 0.000000
-13.036100 0.000000
-13.001900 0.000000
-12.967600 0.000000
-12.933300 0.000000
-12.899000 0.000000
-12.864700 0.000000
-12.830400 0.000000
-12.796200 0.000000
-12.761900 0.000000
-12.727600 0.000000
-12.693300 0.000000
-12.659000 0.000000
-12.624700 0.000000
-12.590500 0.000000
-12.556200 0.000000
-12.521900 0.000000
-12.487600 0.000000
-12.453300 0.000000
-12.419000 0.000000
-12.384800 0.000000
-12.350500 0.000000
-12.316200 0.000000
-12.281900 0.000000
-12.247600 0.000000
-12.213300 0.000000
-12.179100 0.000000
-12.144800 0.000000
-12.110500 0.000000
-12.076200 0.000000
-12.041900 0.000000
-12.007600 0.000000
-11.973400 0.000000
-11.939100 0.000000
-11.904800 0.000000
-11.870500 0.000000
-11.836200 0.000000
-11.801900 0.000000
-11.767700 0.000000
-11.733400 0.000000
-11.699100 0.000000
-11.664800 0.000000
-11.630500 0.000000
-11.596200 0.000000
-11.562000 0.000000
-11.527700 0.000000
-11.493400 0.000000
-11.459100 0.000000
-11.424800 0.000000
-11.390500 0.000000
-11.356300 0.000000
-11.322000 0.000000
-11.287700 0.000000
-11.253400 0.000000
-11.219100 0.000000
-11.184800 0.000000
-11.150600 0.000000
-11.116300 0.000000
-11.082000 0.000000
-11.047700 0.000000
-11.013400 0.000000
-10.979100 0.000000
-10.944900 0.000000
-10.910600 0.000000
-10.876300 0.000000
-10.842000 0.000000
-10.807700 0.000000
-10.773400 0.000000
-10.739200 0.000000
-10.704900 0.000000
-10.670600 0.000000
-10.636300 0.000000
-10.602000 0.000000
-10.567700 0.000000
-10.533500 0.000000
-10.499200 0.000000
-10.464900 0.000000
-10.430600 0.000000
-10.396300 0.000000
-10.362000 0.000000
-10.327800 0.000000
-10.293500 0.000000
-10.259200 0.000000
-10.224900 0.000000
-10.190600 0.000000
-10.156300 0.000000
-10.122100 0.000000
-10.087800 0.000000
-10.053500 0.000000
-10.019200 0.000000
-9.984900 0.000000
-9.950700 0.000000
-9.916400 0.000000
-9.882100 0.000000
-9.847800 0.000000
-9.813500 0.000000
-9.779200 0.000000
-9.745000 0.000000
-9.710700 0.000000
-9.676400 0.000000
-9.642100 0.000000
-9.607800 0.000000
-9.573500 0.000000
-9.539300 0.000000
-9.505000 0.000000
-9.470700 0.000000
-9.436400 0.000000
-9.402100 0.000000
-9.367800 0.000000
-9.333600 0.000000
-9.299300 0.000000
-9.265000 0.000000
-9.230700 0.000000
-9.196400 0.000000
-9.162100 0.000000
-9.127900 0.000000
-9.093600 0.000000
-9.059300 0.000000
-9.025000 0.000000
-8.990700 0.000000
-8.956400 0.000000
-8.922200 0.000000
-8.887900 0.000000
-8.853600 0.000000
-8.819300 0.000000
-8.785000 0.000000
-8.750700 0.000000
-8.716500 0.000000
-8.682200 0.000000
-8.647900 0.000000
-8.613600 0.000000
-8.579300 0.000000
-8.545000 0.000000
-8.510800 0.000000
-8.476500 0.000000
-8.442200 0.000000
-8.407900 0.000000
-8.373600 0.000000
-8.339300 0.000000
-8.305100 0.000000
-8.270800 0.000000
-8.236500 0.000000
-8.202200 0.000000
-8.167900 0.000000
-8.133600 0.000000
-8.099400 0.000000
-8.065100 0.000000
-8.030800 0.000000
-7.996500 0.000000
-7.962200 0.000000
-7.927900 0.000000
-7.893700 0.000000
-7.859400 0.000000
-7.825100 0.000000
-7.790800 0.000000
-7.756500 0.000000
-7.722200 0.000000
-7.688000 0.000000
-7.653700 0.000000
-7.619400 0.000000
-7.585100 0.000000
-7.550800 0.000000
-7.516500 0.000000
-7.482300 0.000000
-7.448000 0.000000
-7.413700 0.000000
-7.379400 0.000000
-7.345100 0.000000
-7.310800 0.000000
-7.276600 0.000000
-7.242300 0.000000
-7.208000 0.000000
-7.173700 0.000000
-7.139400 0.000000
-7.105100 0.000000
-7.070900 0.000000
-7.036600 0.000000
-7.002300 0.000000
-6.968000 0.000000
-6.933700 0.000000
-6.899400 0.000000
-6.865200 0.000000
-6.830900 0.000000
-6.796600 0.000000
-6.762300 0.000000
-6.728000 0.000000
-6.693700 0.000000
-6.659500 0.000000
-6.625200 0.000000
-6.590900 0.000000
-6.556600 0.000000
-6.522300 0.000000
-6.488000 0.000000
-6.453800 0.000000
-6.419500 0.000000
-6.385200 0.000000
-6.350900 0.000000
-6.316600 0.000000
-6.282300 0.000000
-6.248100 0.000000
-6.213800 0.000000
-6.179500 0.000000
-6.145200 0.000000
-6.110900 0.000000
-6.076600 0.000000
-6.042400 0.000000
-6.008100 0.000000
-5.973800 0.000000
-5.939500 0.000000
-5.905200 0.000000
-5.870900 0.000000
-5.836700 0.000000
-5.802400 0.000000
-5.768100 0.000000
-5.733800 0.000000
-5.699500 0.000000
-5.665200 0.000000
-5.631000 0.000000
-5.596700 0.000000
-5.562400 0.000000
-5.528100 0.000000
-5.493800 0.000000
-5.459500 0.000000
-5.425300 0.000000
-5.391000 0.000000
-5.356700 0.000000
-5.322400 0.000000
-5.288100 0.000000
-5.253800 0.000000
-5.219600 0.000000
-5.185300 0.000000
-5.151000 0.000000
-5.116700 0.000000
-5.082400 0.000000
-5.048100 0.000000
-5.013900 0.000000
-4.979600 0.000000
-4.945300 0.000000
-4.911000 0.000000
-4.876700 0.000000
-4.842400 0.000000
-4.808200 0.000000
-4.773900 0.000000
-4.739600 0.000000
-4.705300 0.000000
-4.671000 0.000000
-4.636700 0.000000
-4.602500 0.000000
-4.568200 0.000000
-4.533900 0.000000
-4.499600 0.000000
-4.465300 0.000000
-4.431000 0.000000
-4.396800 0.000000
-4.362500 0.000000
-4.328200 0.000000
-4.293900 0.000000
-4.259600 0.000000
-4.225300 0.000000
-4.191100 0.000000
-4.156800 0.000000
-4.122500 0.000000
-4.088200 0.000000
-4.053900 0.000000
-4.019600 0.000000
-3.985400 0.000000
-3.951100 0.000000
-3.916800 0.000000
-3.882500 0.000000
-3.848200 0.000000
-3.813900 0.000000
-3.779700 0.000000
-3.745400 0.000000
-3.711100 0.000000
-3.676800 0.000000
-3.642500 0.000000
-3.608200 0.000000
-3.574000 0.000000
-3.539700 0.000000
-3.505400 0.000000
-3.471100 0.000000
-3.436800 0.000000
-3.402500 0.000000
-3.368300 0.000000
-3.334000 0.000000
-3.299700 0.000000
-3.265400 0.000000
-3.231100 0.000000
-3.196800 0.000000
-3.162600 0.000000
-3.128300 0.000000
-3.094000 0.000000
-3.059700 0.000000
-3.025400 0.000000
-2.991100 0.000000
-2.956900 0.000000
-2.922600 0.000000
-2.888300 0.000000
-2.854000 0.000000
-2.819700 0.000000
-2.785400 0.000000
-2.751200 0.000000
-2.716900 0.000000
-2.682600 0.000000
-2.648300 0.000000
-2.614000 0.000000
-2.579700 0.000000
-2.545500 0.000000
-2.511200 0.000000
-2.476900 0.000000
-2.442600 0.000000
-2.408300 0.000000
-2.374100 0.000000
-2.339800 0.000000
-2.305500 0.000000
-2.271200 0.000000
-2.236900 0.000000
-2.202600 0.000000
-2.168400 0.000000
-2.134100 0.000000
-2.099800 0.000000
-2.065500 0.000000
-2.031200 0.000000
-1.996900 0.000000
-1.962700 0.000000
-1.928400 0.000000
-1.894100 0.000000
-1.859800 0.000000
-1.825500 0.000000
-1.791200 0.000000
-1.757000 0.000000
-1.722700 0.000000
-1.688400 0.000000
-1.654100 0.000000
-1.619800 0.000000
-1.585500 0.000100
-1.551300 0.001200
-1.517000 0.008800
-1.482700 0.031700
-1.448400 0.057100
-1.414100 0.052700
-1.379800 0.038500
-1.345600 0.071000
-1.311300 0.128800
-1.277000 0.138700
-1.242700 0.096800
-1.208400 0.089200
-1.174100 0.152700
-1.139900 0.172900
-1.105600 0.099600
-1.071300 0.047300
-1.037000 0.108900
-1.002700 0.232200
-0.968400 0.232000
-0.934200 0.145200
-0.899900 0.168300
-0.865600 0.227500
-0.831300 0.208100
-0.797000 0.195800
-0.762700 0.236400
-0.728500 0.236100
-0.694200 0.147900
-0.659900 0.071600
-0.625600 0.108100
-0.591300 0.230100
-0.557000 0.303700
-0.522800 0.278200
-0.488500 0.287300
-0.454200 0.384300
-0.419900 0.359500
-0.385600 0.241600
-0.351300 0.214400
-0.317100 0.253400
-0.282800 0.260600
-0.248500 0.229500
-0.214200 0.249100
-0.179900 0.249500
-0.145600 0.219700
-0.111400 0.329600
-0.077100 0.445900
-0.042800 0.412300
-0.008500 0.288300
0.025800 0.207200
0.060100 0.248000
0.094300 0.302300
0.128600 0.415900
0.162900 0.569900
0.197200 0.532300
0.231500 0.410500
0.265800 0.403900
0.300000 0.389900
0.334300 0.299900
0.368600 0.297200
0.402900 0.336400
0.437200 0.294100
0.471500 0.349600
0.505700 0.475100
0.540000 0.453500
0.574300 0.441500
0.608600 0.558500
0.642900 0.576200
0.677200 0.459500
0.711400 0.441500
0.745700 0.559300
0.780000 0.745400
0.814300 0.786500
0.848600 0.576300
0.882900 0.457900
0.917100 0.485800
0.951400 0.445000
0.985700 0.407800
1.020000 0.323200
1.054300 0.260700
1.088600 0.371500
1.122800 0.582000
1.157100 0.714500
1.191400 0.654400
1.225700 0.574900
1.260000 0.619100
1.294300 0.735000
1.328500 0.696100
1.362800 0.676200
1.397100 0.821600
1.431400 0.726600
1.465700 0.500200
1.500000 0.557700
1.534200 0.794200
1.568500 0.927400
1.602800 0.976900
1.637100 1.040900
1.671400 1.003200
1.705700 0.764600
1.739900 0.573000
1.774200 0.734400
1.808500 1.163600
1.842800 1.311900
1.877100 1.154600
1.911400 1.337800
1.945600 1.700300
1.979900 1.736700
2.014200 1.712800
2.048500 2.019700
2.082800 2.388000
2.117100 2.588500
2.151300 2.690100
2.185600 2.889700
2.219900 3.395900
2.254200 4.005000
2.288500 3.988200
2.322800 3.444800
2.357000 3.033700
2.391300 3.015100
2.425600 3.151400
2.459900 2.878300
2.494200 2.286900
2.528500 1.773100
2.562700 1.762400
2.597000 1.965100
2.631300 1.684600
2.665600 1.409600
2.699900 1.699100
2.734200 2.022800
2.768400 2.010300
2.802700 2.034000
2.837000 2.236600
2.871300 2.454800
2.905600 2.376500
2.939900 2.294200
2.974100 2.493800
3.008400 2.615800
3.042700 2.379100
3.077000 2.023000
3.111300 2.050700
3.145600 2.326200
3.179800 2.364100
3.214100 2.288300
3.248400 2.308000
3.282700 2.140800
3.317000 1.889800
3.351300 1.932600
3.385500 1.877200
3.419800 1.727700
3.454100 1.976200
3.488400 2.297000
3.522700 2.246200
3.557000 1.883100
3.591200 1.840200
3.625500 2.207000
3.659800 2.597900
3.694100 2.950900
3.728400 3.180000
3.762700 3.299900
3.796900 3.149600
3.831200 2.596900
3.865500 2.303700
3.899800 2.550100
3.934100 2.840400
3.968400 2.966300
4.002600 3.361800
4.036900 4.045700
4.071200 4.803400
4.105500 5.520800
4.139800 6.205000
4.174100 6.165500
4.208300 5.185500
4.242600 4.649700
4.276900 5.205000
4.311200 5.841800
4.345500 5.446100
4.379800 4.338200
4.414000 3.719800
4.448300 4.152400
4.482600 5.231200
4.516900 6.946500
4.551200 9.302900
4.585500 10.856400
4.619700 11.151500
4.654000 10.664000
4.688300 9.675600
4.722600 8.967000
4.756900 8.927500
4.791200 9.197700
4.825400 9.348100
4.859700 9.270200
4.894000 9.067800
4.928300 8.883900
4.962600 8.367300
4.996800 7.440600
5.031100 7.005100
5.065400 7.027000
5.099700 6.776800
5.134000 6.694600
5.168300 6.458900
5.202500 5.366900
5.236800 4.251700
5.271100 3.829400
5.305400 3.467900
5.339700 2.513100
5.374000 1.661900
5.408200 1.289600
5.442500 1.014600
5.476800 0.783100
5.511100 0.644000
5.545400 0.755800
5.579700 1.130000
5.613900 1.316700
5.648200 1.188900
5.682500 1.082700
5.716800 1.189300
5.751100 1.484100
5.785400 1.656400
5.819600 1.492500
5.853900 1.488100
5.888200 1.775700
5.922500 1.784300
5.956800 1.431100
5.991100 1.181400
6.025300 1.251400
6.059600 1.519100
6.093900 1.804600
6.128200 1.967900
6.162500 2.040600
6.196800 2.126500
6.231000 2.128900
6.265300 1.992000
6.299600 1.910500
6.333900 1.948100
6.368200 1.982000
6.402500 1.975800
6.436700 2.002900
6.471000 2.191300
6.505300 2.626200
6.539600 3.299400
6.573900 4.282100
6.608200 5.410300
6.642400 6.319000
6.676700 6.678900
6.711000 6.614200
6.745300 6.454200
6.779600 5.909800
6.813900 5.066600
6.848100 4.496600
6.882400 4.201100
6.916700 4.064900
6.951000 3.822300
6.985300 3.420100
7.019600 3.498800
7.053800 3.848500
7.088100 3.876200
7.122400 3.547700
7.156700 3.220100
7.191000 3.146500
7.225300 3.158900
7.259500 3.304200
7.293800 3.706500
7.328100 3.855400
7.362400 3.761100
7.396700 3.970300
7.431000 4.925200
7.465200 6.093600
7.499500 6.581800
7.533800 6.632200
7.568100 6.758300
7.602400 6.548000
7.636700 5.469000
7.670900 4.276800
7.705200 4.010100
7.739500 4.539300
7.773800 5.278100
7.808100 5.934500
7.842400 5.704000
7.876600 4.768300
7.910900 4.110000
7.945200 3.884900
7.979500 3.855500
8.013800 3.690500
8.048100 3.575200
8.082300 4.043300
8.116600 4.231900
8.150900 3.708300
8.185200 3.582700
8.219500 3.743500
8.253800 3.795300
8.288000 3.869400
8.322300 3.922100
8.356600 3.688800
8.390900 2.748300
8.425200 1.498600
8.459500 0.808400
8.493700 0.874100
8.528000 1.133000
8.562300 1.192000
8.596600 1.236900
8.630900 1.623700
8.665200 2.529100
8.699400 3.052300
8.733700 2.924900
8.768000 3.132200
8.802300 3.389800
8.836600 3.123700
8.870900 3.032000
8.905100 3.410700
8.939400 3.766800
8.973700 4.053700
9.008000 4.592700
9.042300 4.988300
9.076600 4.474400
9.110800 3.953200
9.145100 4.252000
9.179400 4.812100
9.213700 4.830100
9.248000 4.042800
9.282300 3.190000
9.316500 2.990700
9.350800 2.956800
9.385100 2.860900
9.419400 3.022200
9.453700 2.868100
9.488000 2.148200
9.522200 1.757300
9.556500 1.738700
9.590800 1.690700
9.625100 1.589000
9.659400 1.505100
9.693700 1.714700
9.727900 1.963700
9.762200 1.842000
9.796500 1.882700
9.830800 2.456900
9.865100 2.959700
9.899400 2.998100
9.933600 2.569700
9.967900 2.089200
10.002200 2.170100
10.036500 2.441300
10.070800 2.696400
10.105100 3.100800
10.139300 3.105900
10.173600 2.833100
10.207900 2.727700
10.242200 2.663000
10.276500 2.618600
10.310800 2.693900
10.345000 2.707200
10.379300 2.623000
10.413600 2.880900
10.447900 3.407400
10.482200 3.637700
10.516500 3.487400
10.550700 3.320700
10.585000 3.536800
10.619300 3.772500
10.653600 3.287600
10.687900 2.706600
10.722200 2.544800
10.756400 2.287800
10.790700 1.798200
10.825000 1.433800
10.859300 1.177100
10.893600 1.068100
10.927900 1.222900
10.962100 1.262600
10.996400 1.003000
11.030700 0.866000
11.065000 1.004900
11.099300 1.183400
11.133600 1.162400
11.167800 0.929900
11.202100 0.786900
11.236400 0.718900
11.270700 0.644800
11.305000 0.939300
11.339300 1.726100
11.373500 2.191700
11.407800 1.953400
11.442100 1.466400
11.476400 1.058800
11.510700 0.895700
11.545000 1.027900
11.579200 1.311800
11.613500 1.475700
11.647800 1.370600
11.682100 1.200900
11.716400 1.158300
11.750700 1.118900
11.784900 1.056300
11.819200 1.080300
11.853500 1.217000
11.887800 1.350200
11.922100 1.243300
11.956400 0.961800
11.990600 0.883000
12.024900 0.929900
12.059200 1.091300
12.093500 1.151000
12.127800 1.040600
12.162100 1.123600
12.196300 1.370200
12.230600 1.420500
12.264900 1.171600
12.299200 1.095100
12.333500 1.287700
12.367700 1.279000
12.402000 1.085300
12.436300 0.995500
12.470600 0.848400
12.504900 0.724900
12.539200 0.731300
12.573400 0.561400
12.607700 0.358600
12.642000 0.504000
12.676300 0.957700
12.710600 1.190300
12.744900 1.013200
12.779100 0.945600
12.813400 1.078400
12.847700 1.003000
12.882000 0.729100
12.916300 0.438100
12.950600 0.269900
12.984800 0.270100
13.019100 0.332000
13.053400 0.408500
13.087700 0.504100
13.122000 0.627000
13.156300 0.605400
13.190500 0.401000
13.224800 0.333100
13.259100 0.493000
13.293400 0.526400
13.327700 0.423300
13.362000 0.481100
13.396200 0.560100
13.430500 0.516300
13.464800 0.395200
13.499100 0.296300
13.533400 0.295500
13.567700 0.458600
13.601900 0.716900
13.636200 0.768300
13.670500 0.645500
13.704800 0.617000
13.739100 0.646700
13.773400 0.719500
13.807600 0.877500
13.841900 1.045300
13.876200 1.005200
13.910500 0.680400
13.944800 0.408100
13.979100 0.548200
14.013300 0.916800
14.047600 1.184300
14.081900 1.284200
14.116200 1.221100
14.150500 1.130900
14.184800 1.301600
14.219000 1.671600
14.253300 1.668700
14.287600 1.276000
14.321900 0.878700
14.356200 0.788700
14.390500 0.809400
14.424700 0.651100
14.459000 0.661100
14.493300 1.023300
14.527600 1.474000
14.561900 1.853700
14.596200 1.932700
14.630400 1.632700
14.664700 1.342500
14.699000 1.256000
14.733300 1.234600
14.767600 1.347300
14.801900 1.417900
14.836100 1.361900
14.870400 1.335600
14.904700 1.207200
14.939000 0.960700
14.973300 0.757300
15.007600 0.573500
15.041800 0.439500
15.076100 0.472400
15.110400 0.575700
15.144700 0.899000
15.179000 1.466300
15.213300 1.632800
15.247500 1.371600
15.281800 1.139700
15.316100 0.967100
15.350400 0.919700
15.384700 0.971900
15.419000 0.998100
15.453200 1.222300
15.487500 1.612100
15.521800 1.789800
15.556100 1.636200
15.590400 1.599600
15.624700 1.677400
15.658900 1.715200
15.693200 2.005300
15.727500 2.070300
15.761800 1.659300
15.796100 1.301700
15.830400 1.248800
15.864600 1.426300
15.898900 1.608400
15.933200 1.703500
15.967500 1.589100
16.001800 1.308600
16.036100 1.263200
16.070300 1.616400
16.104600 2.105100
16.138900 2.314800
16.173200 2.057300
16.207500 1.496200
16.241800 1.152300
16.276000 1.087400
16.310300 1.225600
16.344600 1.557100
16.378900 1.640900
16.413200 1.689800
16.447500 1.923400
16.481700 2.001800
16.516000 1.805200
16.550300 1.530700
16.584600 1.339600
16.618900 1.236600
16.653200 1.486500
16.687400 1.842800
16.721700 1.957700
16.756000 2.133900
16.790300 2.418700
16.824600 2.525400
16.858900 2.480300
16.893100 2.246200
16.927400 1.969300
16.961700 1.939100
16.996000 1.921800
17.030300 1.869700
17.064600 2.062900
17.098800 2.305900
17.133100 2.290800
17.167400 2.321700
17.201700 2.277200
17.236000 1.922000
17.270300 1.686200
17.304500 1.918600
17.338800 2.272200
17.373100 2.412700
17.407400 2.224800
17.441700 2.083200
17.476000 2.207100
17.510200 4.123000
17.544500 12.146400
17.578800 21.691600
17.613100 18.242300
17.647400 7.763800
17.681700 2.747700
17.715900 1.561500
17.750200 1.193200
17.784500 1.184000
17.818800 1.531200
17.853100 2.054400
17.887400 2.219300
17.921600 1.971700
17.955900 2.004200
17.990200 2.388000
18.024500 2.462300
18.058800 2.074100
18.093100 1.913300
18.127300 2.194200
18.161600 2.047100
18.195900 1.622800
18.230200 1.604400
18.264500 1.659900
18.298800 1.621500
18.333000 1.716700
18.367300 1.891900
18.401600 1.889000
18.435900 1.672500
18.470200 1.550800
18.504500 1.611400
18.538700 1.562600
18.573000 1.673100
18.607300 2.317700
18.641600 2.611200
18.675900 2.306400
18.710200 2.117500
18.744400 2.084200
18.778700 2.013700
18.813000 1.962700
18.847300 2.154300
18.881600 2.628000
18.915900 3.154900
18.950100 3.387900
18.984400 3.234700
19.018700 2.665200
19.053000 2.242700
19.087300 2.289100
19.121600 2.462800
19.155800 2.620500
19.190100 3.077600
19.224400 3.744800
19.258700 3.657000
19.293000 2.801300
19.327300 2.069800
19.361500 1.721000
19.395800 1.677700
19.430100 1.891800
19.464400 2.204900
19.498700 2.277100
19.533000 2.150200
19.567200 2.106000
19.601500 2.091500
19.635800 2.191700
19.670100 2.327900
19.704400 2.281900
19.738700 2.080900
19.772900 1.880900
19.807200 1.671000
19.841500 1.504000
19.875800 1.464800
19.910100 1.625500
19.944300 1.917100
19.978600 1.880400
20.012900 1.887300
20.047200 2.057800
20.081500 2.234200
20.115800 2.397500
20.150000 2.220600
20.184300 1.857700
20.218600 1.551600
20.252900 1.303400
20.287200 1.250500
20.321500 1.316500
20.355700 1.468800
20.390000 1.627000
20.424300 1.602600
20.458600 1.509000
20.492900 1.518200
20.527200 1.369300
20.561400 1.202700
20.595700 1.293800
20.630000 1.460000
20.664300 1.536500
20.698600 1.659400
20.732900 1.745900
20.767100 1.533800
20.801400 1.395000
20.835700 1.561800
20.870000 1.632800
20.904300 1.461700
20.938600 1.285800
20.972800 1.194900
21.007100 1.163400
21.041400 1.140900
21.075700 1.206000
21.110000 1.267900
21.144300 1.073400
21.178500 0.664500
21.212800 0.537600
21.247100 0.934100
21.281400 1.406200
21.315700 1.577700
21.350000 1.599900
21.384200 1.663700
21.418500 1.618800
21.452800 1.696600
21.487100 1.922200
21.521400 1.687400
21.555700 1.128300
21.589900 0.835800
21.624200 1.100500
21.658500 1.619600
21.692800 1.895300
21.727100 1.910100
21.761400 1.827200
21.795600 1.517000
21.829900 1.153800
21.864200 1.202100
21.898500 1.465000
21.932800 1.521700
21.967100 1.562800
22.001300 1.582100
22.035600 1.501200
22.069900 1.526400
22.104200 1.667100
22.138500 1.659000
22.172800 1.508600
22.207000 1.473300
22.241300 1.658500
22.275600 1.662700
22.309900 1.391200
22.344200 1.280200
22.378500 1.502300
22.412700 1.979300
22.447000 2.627600
22.481300 2.815000
22.515600 2.230300
22.549900 1.550400
22.584200 1.222500
22.618400 1.127900
22.652700 1.055700
22.687000 1.276300
22.721300 1.789300
22.755600 1.855000
22.789900 1.506800
22.824100 1.375500
22.858400 1.606400
22.892700 1.699800
22.927000 1.654600
22.961300 1.773700
22.995600 1.788200
23.029800 1.603600
23.064100 1.477200
23.098400 1.383600
23.132700 1.177900
23.167000 1.012700
23.201300 1.223500
23.235500 1.498200
23.269800 1.395700
23.304100 1.207200
23.338400 1.067500
23.372700 1.170400
23.407000 1.579900
23.441200 1.870300
23.475500 1.789700
23.509800 1.341400
23.544100 0.975000
23.578400 1.158700
23.612700 1.530400
23.646900 1.701100
23.681200 1.839600
23.715500 1.649100
23.749800 1.334800
23.784100 1.358800
23.818400 1.368800
23.852600 1.239600
23.886900 1.249800
23.921200 1.316000
23.955500 1.486500
23.989800 1.900900
24.024100 2.424200
24.058300 2.644700
24.092600 2.397200
24.126900 2.396100
24.161200 2.544800
24.195500 2.361700
24.229800 2.359000
24.264000 2.605800
24.298300 2.628500
24.332600 2.406500
24.366900 2.277500
24.401200 2.530300
24.435500 2.509300
24.469700 2.124300
24.504000 1.780800
24.538300 1.535100
24.572600 1.463400
24.606900 1.388900
24.641200 1.350100
24.675400 1.690900
24.709700 2.210700
24.744000 2.630500
24.778300 2.720200
24.812600 2.481900
24.846900 2.274300
24.881100 2.287100
24.915400 2.343400
24.949700 2.354200
24.984000 2.558800
25.018300 2.708200
25.052600 2.521500
25.086800 2.343100
25.121100 2.232800
25.155400 2.296100
25.189700 2.436500
25.224000 2.429600
25.258300 2.380300
25.292500 2.595300
25.326800 2.820900
25.361100 2.874900
25.395400 2.895900
25.429700 2.765800
25.464000 2.380600
25.498200 1.939900
25.532500 1.812300
25.566800 1.812200
25.601100 1.956200
25.635400 2.357300
25.669700 2.449500
25.703900 1.998300
25.738200 1.537100
25.772500 1.420900
25.806800 1.477800
25.841100 1.579800
25.875400 1.772800
25.909600 1.798500
25.943900 1.577900
25.978200 1.515300
26.012500 1.614500
26.046800 1.432800
26.081100 1.112200
26.115300 1.195800
26.149600 1.540800
26.183900 1.519200
26.218200 1.258100
26.252500 1.256800
26.286800 1.398900
26.321000 1.542100
26.355300 1.752900
26.389600 1.933000
26.423900 1.906900
26.458200 1.809800
26.492500 1.618500
26.526700 1.614000
26.561000 1.827700
26.595300 1.767500
26.629600 1.653700
26.663900 1.849800
26.698200 2.176600
26.732400 2.291700
26.766700 2.163100
26.801000 2.110500
26.835300 2.019400
26.869600 1.916600
26.903900 1.838800
26.938100 1.785700
26.972400 1.854500
27.006700 2.085200
27.041000 2.301400
27.075300 2.159300
27.109600 1.634600
27.143800 1.098600
27.178100 1.021300
27.212400 1.239400
27.246700 1.383900
27.281000 1.503700
27.315200 1.415200
27.349500 1.399100
27.383800 1.673700
27.418100 1.834100
27.452400 1.681600
27.486700 1.382000
27.520900 1.179800
27.555200 1.082600
27.589500 1.030200
27.623800 0.932300
27.658100 0.857800
27.692400 0.836900
27.726600 0.795000
27.760900 0.765200
27.795200 0.721700
27.829500 0.727800
27.863800 0.843800
27.898100 1.020200
27.932300 1.122000
27.966600 1.016200
28.000900 1.046900
28.035200 1.354200
28.069500 1.504300
28.103800 1.183900
28.138000 0.803900
28.172300 0.578400
28.206600 0.433500
28.240900 0.481700
28.275200 0.635200
28.309500 0.770700
28.343700 0.971400
28.378000 1.122700
28.412300 0.965500
28.446600 0.769800
28.480900 0.824900
28.515200 0.885600
28.549400 0.818500
28.583700 0.732300
28.618000 0.681800
28.652300 0.628500
28.686600 0.519400
28.720900 0.355100
28.755100 0.236000
28.789400 0.252900
28.823700 0.293300
28.858000 0.315900
28.892300 0.347100
28.926600 0.324800
28.960800 0.304900
28.995100 0.294800
29.029400 0.210200
29.063700 0.082900
29.098000 0.015500
29.132300 0.003700
29.166500 0.015000
29.200800 0.038100
29.235100 0.046000
29.269400 0.061500
29.303700 0.136600
29.338000 0.170400
29.372200 0.091700
29.406500 0.028900
29.440800 0.043300
29.475100 0.083500
29.509400 0.070400
29.543700 0.024900
29.577900 0.003700
29.612200 0.000200
29.646500 0.000000
29.680800 0.000000
29.715100 0.000000
29.749400 0.000000
29.783600 0.000000
29.817900 0.000000
29.852200 0.000000
29.886500 0.000000
29.920800 0.000000
29.955100 0.000000
29.989300 0.000000
30.023600 0.000000
30.057900 0.000000
30.092200 0.000000
30.126500 0.000000
30.160800 0.000000
30.195000 0.000000
30.229300 0.000000
30.263600 0.000000
30.297900 0.000000
30.332200 0.000000
30.366500 0.000000
30.400700 0.000000
30.435000 0.000000
30.469300 0.000000
30.503600 0.000000
30.537900 0.000000
30.572200 0.000000
30.606400 0.000000
30.640700 0.000000
30.675000 0.000000
30.709300 0.000000
30.743600 0.000000
30.777900 0.000000
30.812100 0.000000
30.846400 0.000000
30.880700 0.000000
30.915000 0.000000
30.949300 0.000000
30.983600 0.000000
31.017800 0.000000
31.052100 0.000000
31.086400 0.000000
31.120700 0.000000
31.155000 0.000000
31.189300 0.000000
31.223500 0.000000
31.257800 0.000000
31.292100 0.000000
31.326400 0.000000
31.360700 0.000000
31.395000 0.000000
31.429200 0.000000
31.463500 0.000000
31.497800 0.000000
31.532100 0.000000
31.566400 0.000000
31.600700 0.000000
31.634900 0.000000
31.669200 0.000000
31.703500 0.000000
31.737800 0.000000
31.772100 0.000000
31.806400 0.000000
31.840600 0.000000
31.874900 0.000000
31.909200 0.000000
31.943500 0.000000
31.977800 0.000000
32.012100 0.000000
32.046300 0.000000
32.080600 0.000000
32.114900 0.000000
32.149200 0.000000
32.183500 0.000000
32.217800 0.000000
32.252000 0.000000
32.286300 0.000000
32.320600 0.000000
32.354900 0.000000
32.389200 0.000000
32.423500 0.000000
32.457700 0.000000
32.492000 0.000000
32.526300 0.000000
32.560600 0.000000
32.594900 0.000000
32.629200 0.000000
32.663400 0.000000
e
