set title 'mp-1187474 - Density of States'
set xlabel 'Energy (eV)'
set ylabel 'DOS (states/eV)'
set grid
set xrange [-10:10]
set yrange [0:78.919]
set xzeroaxis lt -1
set terminal png size 800,600
set output 'mp-1187474_dos_gnuplot.png'
plot '-' using 1:2 with lines title 'DOS'
-30.659200 0.000000
-30.629300 0.000000
-30.599500 0.000000
-30.569600 0.000000
-30.539700 0.000000
-30.509900 0.000000
-30.480000 0.000000
-30.450100 0.000000
-30.420300 0.000000
-30.390400 0.000000
-30.360500 0.000000
-30.330700 0.000000
-30.300800 0.000000
-30.270900 0.000000
-30.241100 0.000000
-30.211200 0.000000
-30.181400 0.000000
-30.151500 0.000000
-30.121600 0.000000
-30.091800 0.000000
-30.061900 0.000000
-30.032000 0.000000
-30.002200 0.000000
-29.972300 0.000000
-29.942400 0.000000
-29.912600 0.000000
-29.882700 0.000000
-29.852800 0.000000
-29.823000 0.000000
-29.793100 0.000000
-29.763200 0.000000
-29.733400 0.000000
-29.703500 0.000000
-29.673600 0.000000
-29.643800 0.000000
-29.613900 0.000000
-29.584100 0.000000
-29.554200 0.000000
-29.524300 0.000000
-29.494500 0.000000
-29.464600 0.000000
-29.434700 0.000000
-29.404900 0.000000
-29.375000 0.000000
-29.345100 0.000000
-29.315300 0.000000
-29.285400 0.000000
-29.255500 0.000000
-29.225700 0.000000
-29.195800 0.000000
-29.165900 0.000000
-29.136100 0.000000
-29.106200 0.000000
-29.076400 0.000000
-29.046500 0.000000
-29.016600 0.000000
-28.986800 0.000000
-28.956900 0.000000
-28.927000 0.000000
-28.897200 0.000000
-28.867300 0.000000
-28.837400 0.000000
-28.807600 0.000000
-28.777700 0.000000
-28.747800 0.000000
-28.718000 0.000000
-28.688100 0.000000
-28.658200 0.000000
-28.628400 0.000000
-28.598500 0.000000
-28.568700 0.000000
-28.538800 0.000000
-28.508900 0.000000
-28.479100 0.000000
-28.449200 0.000000
-28.419300 0.000000
-28.389500 0.000000
-28.359600 0.000000
-28.329700 0.000000
-28.299900 0.000000
-28.270000 0.000000
-28.240100 0.000000
-28.210300 0.000000
-28.180400 0.000000
-28.150500 0.000000
-28.120700 0.000000
-28.090800 0.000000
-28.060900 0.000700
-28.031100 0.013300
-28.001200 0.128900
-27.971400 0.703100
-27.941500 2.345800
-27.911600 5.547800
-27.881800 10.874200
-27.851900 18.412400
-27.822000 26.247400
-27.792200 32.002700
-27.762300 34.340200
-27.732400 32.749400
-27.702600 28.053900
-27.672700 23.114300
-27.642800 21.288600
-27.613000 22.990300
-27.583100 26.365800
-27.553200 29.102900
-27.523400 30.192500
-27.493500 30.949900
-27.463700 31.384600
-27.433800 29.464100
-27.403900 26.617200
-27.374100 27.850000
-27.344200 33.864000
-27.314300 36.267800
-27.284500 26.677600
-27.254600 11.795000
-27.224700 2.940400
-27.194900 0.400200
-27.165000 0.029200
-27.135100 0.001100
-27.105300 0.000000
-27.075400 0.000000
-27.045500 0.000000
-27.015700 0.000000
-26.985800 0.000000
-26.955900 0.000000
-26.926100 0.000000
-26.896200 0.000000
-26.866400 0.000000
-26.836500 0.000000
-26.806600 0.000000
-26.776800 0.000000
-26.746900 0.000000
-26.717000 0.000000
-26.687200 0.000000
-26.657300 0.000000
-26.627400 0.000000
-26.597600 0.000000
-26.567700 0.000000
-26.537800 0.000000
-26.508000 0.000000
-26.478100 0.000000
-26.448200 0.000000
-26.418400 0.000000
-26.388500 0.000000
-26.358700 0.000000
-26.328800 0.000000
-26.298900 0.000000
-26.269100 0.000000
-26.239200 0.000000
-26.209300 0.000000
-26.179500 0.000000
-26.149600 0.000000
-26.119700 0.000000
-26.089900 0.000000
-26.060000 0.000000
-26.030100 0.000000
-26.000300 0.000000
-25.970400 0.000000
-25.940500 0.000000
-25.910700 0.000000
-25.880800 0.000000
-25.850900 0.000000
-25.821100 0.000000
-25.791200 0.000000
-25.761400 0.000000
-25.731500 0.000000
-25.701600 0.000000
-25.671800 0.000000
-25.641900 0.000000
-25.612000 0.000000
-25.582200 0.000000
-25.552300 0.000000
-25.522400 0.000000
-25.492600 0.000000
-25.462700 0.000000
-25.432800 0.000000
-25.403000 0.000000
-25.373100 0.000000
-25.343200 0.000000
-25.313400 0.000000
-25.283500 0.000000
-25.253700 0.000000
-25.223800 0.000000
-25.193900 0.000000
-25.164100 0.000000
-25.134200 0.000000
-25.104300 0.000000
-25.074500 0.000000
-25.044600 0.000000
-25.014700 0.000000
-24.984900 0.000000
-24.955000 0.000000
-24.925100 0.000000
-24.895300 0.000000
-24.865400 0.000000
-24.835500 0.000000
-24.805700 0.000000
-24.775800 0.000000
-24.745900 0.000000
-24.716100 0.000000
-24.686200 0.000000
-24.656400 0.000000
-24.626500 0.000000
-24.596600 0.000000
-24.566800 0.000000
-24.536900 0.000000
-24.507000 0.000000
-24.477200 0.000000
-24.447300 0.000000
-24.417400 0.000000
-24.387600 0.000000
-24.357700 0.000000
-24.327800 0.000000
-24.298000 0.000000
-24.268100 0.000000
-24.238200 0.000000
-24.208400 0.000000
-24.178500 0.000000
-24.148700 0.000000
-24.118800 0.000000
-24.088900 0.000000
-24.059100 0.000000
-24.029200 0.000000
-23.999300 0.000000
-23.969500 0.000000
-23.939600 0.000000
-23.909700 0.000000
-23.879900 0.000000
-23.850000 0.000000
-23.820100 0.000000
-23.790300 0.000000
-23.760400 0.000000
-23.730500 0.000000
-23.700700 0.000000
-23.670800 0.000000
-23.641000 0.000000
-23.611100 0.000000
-23.581200 0.000000
-23.551400 0.000000
-23.521500 0.000000
-23.491600 0.000000
-23.461800 0.000000
-23.431900 0.000000
-23.402000 0.000000
-23.372200 0.000000
-23.342300 0.000000
-23.312400 0.000000
-23.282600 0.000000
-23.252700 0.000000
-23.222800 0.000000
-23.193000 0.000000
-23.163100 0.000000
-23.133200 0.000000
-23.103400 0.000000
-23.073500 0.000000
-23.043700 0.000000
-23.013800 0.000000
-22.983900 0.000000
-22.954100 0.000000
-22.924200 0.000000
-22.894300 0.000000
-22.864500 0.000000
-22.834600 0.000000
-22.804700 0.000000
-22.774900 0.000000
-22.745000 0.000000
-22.715100 0.000000
-22.685300 0.000000
-22.655400 0.000000
-22.625500 0.000000
-22.595700 0.000000
-22.565800 0.000000
-22.536000 0.000000
-22.506100 0.000000
-22.476200 0.000000
-22.446400 0.000000
-22.416500 0.000000
-22.386600 0.000000
-22.356800 0.000000
-22.326900 0.000000
-22.297000 0.000000
-22.267200 0.000000
-22.237300 0.000000
-22.207400 0.000000
-22.177600 0.000000
-22.147700 0.000000
-22.117800 0.000000
-22.088000 0.000000
-22.058100 0.000000
-22.028200 0.000000
-21.998400 0.000000
-21.968500 0.000000
-21.938700 0.000000
-21.908800 0.000000
-21.878900 0.000000
-21.849100 0.000000
-21.819200 0.000000
-21.789300 0.000000
-21.759500 0.000000
-21.729600 0.000000
-21.699700 0.000000
-21.669900 0.000000
-21.640000 0.000000
-21.610100 0.000000
-21.580300 0.000000
-21.550400 0.000000
-21.520500 0.000000
-21.490700 0.000000
-21.460800 0.000000
-21.431000 0.000000
-21.401100 0.000000
-21.371200 0.000000
-21.341400 0.000000
-21.311500 0.000000
-21.281600 0.000000
-21.251800 0.000000
-21.221900 0.000000
-21.192000 0.000000
-21.162200 0.000000
-21.132300 0.000000
-21.102400 0.000000
-21.072600 0.000000
-21.042700 0.000000
-21.012800 0.000000
-20.983000 0.000000
-20.953100 0.000000
-20.923200 0.000000
-20.893400 0.000000
-20.863500 0.000000
-20.833700 0.000000
-20.803800 0.000000
-20.773900 0.000000
-20.744100 0.000000
-20.714200 0.000000
-20.684300 0.000000
-20.654500 0.000000
-20.624600 0.000000
-20.594700 0.000000
-20.564900 0.000000
-20.535000 0.000000
-20.505100 0.000000
-20.475300 0.000000
-20.445400 0.000000
-20.415500 0.000000
-20.385700 0.000000
-20.355800 0.000000
-20.326000 0.000000
-20.296100 0.000000
-20.266200 0.000000
-20.236400 0.000000
-20.206500 0.000000
-20.176600 0.000000
-20.146800 0.000000
-20.116900 0.000000
-20.087000 0.000000
-20.057200 0.000000
-20.027300 0.000000
-19.997400 0.000000
-19.967600 0.000000
-19.937700 0.000000
-19.907800 0.000000
-19.878000 0.000000
-19.848100 0.000000
-19.818300 0.000000
-19.788400 0.000000
-19.758500 0.000000
-19.728700 0.000000
-19.698800 0.000000
-19.668900 0.000000
-19.639100 0.000000
-19.609200 0.000000
-19.579300 0.000000
-19.549500 0.000000
-19.519600 0.000000
-19.489700 0.000000
-19.459900 0.000000
-19.430000 0.000000
-19.400100 0.000000
-19.370300 0.000000
-19.340400 0.000000
-19.310500 0.000000
-19.280700 0.000000
-19.250800 0.000000
-19.221000 0.000000
-19.191100 0.000000
-19.161200 0.000000
-19.131400 0.000000
-19.101500 0.000000
-19.071600 0.000000
-19.041800 0.000000
-19.011900 0.000000
-18.982000 0.000000
-18.952200 0.000000
-18.922300 0.000000
-18.892400 0.000000
-18.862600 0.000000
-18.832700 0.000000
-18.802800 0.000000
-18.773000 0.000000
-18.743100 0.000000
-18.713300 0.000000
-18.683400 0.000000
-18.653500 0.000000
-18.623700 0.000000
-18.593800 0.000000
-18.563900 0.000000
-18.534100 0.000000
-18.504200 0.000000
-18.474300 0.000000
-18.444500 0.000000
-18.414600 0.000000
-18.384700 0.000000
-18.354900 0.000000
-18.325000 0.000000
-18.295100 0.000000
-18.265300 0.000000
-18.235400 0.000000
-18.205500 0.000000
-18.175700 0.000000
-18.145800 0.000000
-18.116000 0.000000
-18.086100 0.000000
-18.056200 0.000000
-18.026400 0.000000
-17.996500 0.000000
-17.966600 0.000000
-17.936800 0.000000
-17.906900 0.000000
-17.877000 0.000000
-17.847200 0.000000
-17.817300 0.000000
-17.787400 0.000000
-17.757600 0.000000
-17.727700 0.000000
-17.697800 0.000000
-17.668000 0.000000
-17.638100 0.000000
-17.608300 0.000000
-17.578400 0.000000
-17.548500 0.000000
-17.518700 0.000000
-17.488800 0.000000
-17.458900 0.000000
-17.429100 0.000000
-17.399200 0.000000
-17.369300 0.000000
-17.339500 0.000000
-17.309600 0.000000
-17.279700 0.000000
-17.249900 0.000000
-17.220000 0.000000
-17.190100 0.000000
-17.160300 0.000000
-17.130400 0.000000
-17.100500 0.000000
-17.070700 0.000000
-17.040800 0.000000
-17.011000 0.000000
-16.981100 0.000000
-16.951200 0.000000
-16.921400 0.000000
-16.891500 0.000000
-16.861600 0.000000
-16.831800 0.000000
-16.801900 0.000000
-16.772000 0.000000
-16.742200 0.000000
-16.712300 0.000000
-16.682400 0.000000
-16.652600 0.000000
-16.622700 0.000000
-16.592800 0.000000
-16.563000 0.000000
-16.533100 0.000000
-16.503300 0.000000
-16.473400 0.000000
-16.443500 0.000000
-16.413700 0.000000
-16.383800 0.000000
-16.353900 0.000000
-16.324100 0.000000
-16.294200 0.000000
-16.264300 0.000000
-16.234500 0.000000
-16.204600 0.000000
-16.174700 0.000000
-16.144900 0.000000
-16.115000 0.000000
-16.085100 0.000000
-16.055300 0.000000
-16.025400 0.000000
-15.995500 0.000000
-15.965700 0.000000
-15.935800 0.000000
-15.906000 0.000000
-15.876100 0.000000
-15.846200 0.000000
-15.816400 0.000000
-15.786500 0.000000
-15.756600 0.000000
-15.726800 0.000000
-15.696900 0.000000
-15.667000 0.000000
-15.637200 0.000000
-15.607300 0.000000
-15.577400 0.000000
-15.547600 0.000000
-15.517700 0.000000
-15.487800 0.000000
-15.458000 0.000000
-15.428100 0.000000
-15.398300 0.000000
-15.368400 0.000000
-15.338500 0.000000
-15.308700 0.000000
-15.278800 0.000000
-15.248900 0.000000
-15.219100 0.000000
-15.189200 0.000000
-15.159300 0.000000
-15.129500 0.000000
-15.099600 0.000000
-15.069700 0.000000
-15.039900 0.000000
-15.010000 0.000000
-14.980100 0.000000
-14.950300 0.000000
-14.920400 0.000000
-14.890600 0.000000
-14.860700 0.000000
-14.830800 0.000000
-14.801000 0.000000
-14.771100 0.000000
-14.741200 0.000000
-14.711400 0.000000
-14.681500 0.000000
-14.651600 0.000000
-14.621800 0.000000
-14.591900 0.000000
-14.562000 0.000000
-14.532200 0.000000
-14.502300 0.000000
-14.472400 0.000000
-14.442600 0.000000
-14.412700 0.000000
-14.382800 0.000000
-14.353000 0.000000
-14.323100 0.000000
-14.293300 0.000000
-14.263400 0.000000
-14.233500 0.000000
-14.203700 0.000000
-14.173800 0.000000
-14.143900 0.000000
-14.114100 0.000000
-14.084200 0.000000
-14.054300 0.000000
-14.024500 0.000000
-13.994600 0.000000
-13.964700 0.000000
-13.934900 0.000000
-13.905000 0.000000
-13.875100 0.000000
-13.845300 0.000000
-13.815400 0.000000
-13.785600 0.000000
-13.755700 0.000000
-13.725800 0.000000
-13.696000 0.000000
-13.666100 0.000000
-13.636200 0.000000
-13.606400 0.000000
-13.576500 0.000000
-13.546600 0.000000
-13.516800 0.000000
-13.486900 0.000000
-13.457000 0.000000
-13.427200 0.000000
-13.397300 0.000000
-13.367400 0.000000
-13.337600 0.000000
-13.307700 0.000000
-13.277800 0.000000
-13.248000 0.000000
-13.218100 0.000000
-13.188300 0.000000
-13.158400 0.000000
-13.128500 0.000000
-13.098700 0.000000
-13.068800 0.000000
-13.038900 0.000000
-13.009100 0.000000
-12.979200 0.000000
-12.949300 0.000000
-12.919500 0.000000
-12.889600 0.000000
-12.859700 0.000000
-12.829900 0.000000
-12.800000 0.000000
-12.770100 0.000000
-12.740300 0.000000
-12.710400 0.000000
-12.680600 0.000000
-12.650700 0.000000
-12.620800 0.000000
-12.591000 0.000000
-12.561100 0.000000
-12.531200 0.000000
-12.501400 0.000000
-12.471500 0.000000
-12.441600 0.000000
-12.411800 0.000000
-12.381900 0.000000
-12.352000 0.000000
-12.322200 0.000000
-12.292300 0.000000
-12.262400 0.000000
-12.232600 0.000000
-12.202700 0.000000
-12.172800 0.000000
-12.143000 0.000000
-12.113100 0.000000
-12.083300 0.000000
-12.053400 0.000000
-12.023500 0.000000
-11.993700 0.000000
-11.963800 0.000000
-11.933900 0.000000
-11.904100 0.000000
-11.874200 0.000000
-11.844300 0.000000
-11.814500 0.000000
-11.784600 0.000000
-11.754700 0.000000
-11.724900 0.000000
-11.695000 0.000000
-11.665100 0.000000
-11.635300 0.000000
-11.605400 0.000000
-11.575600 0.000000
-11.545700 0.000000
-11.515800 0.000000
-11.486000 0.000000
-11.456100 0.000000
-11.426200 0.000000
-11.396400 0.000000
-11.366500 0.000000
-11.336600 0.000000
-11.306800 0.000000
-11.276900 0.000000
-11.247000 0.000000
-11.217200 0.000000
-11.187300 0.000000
-11.157400 0.000000
-11.127600 0.000000
-11.097700 0.000000
-11.067800 0.000000
-11.038000 0.000000
-11.008100 0.000000
-10.978300 0.000000
-10.948400 0.000000
-10.918500 0.000000
-10.888700 0.000000
-10.858800 0.000000
-10.828900 0.000000
-10.799100 0.000000
-10.769200 0.000000
-10.739300 0.000000
-10.709500 0.000000
-10.679600 0.000000
-10.649700 0.000000
-10.619900 0.000000
-10.590000 0.000000
-10.560100 0.000000
-10.530300 0.000000
-10.500400 0.000000
-10.470600 0.000000
-10.440700 0.000000
-10.410800 0.000000
-10.381000 0.000000
-10.351100 0.000000
-10.321200 0.000000
-10.291400 0.000000
-10.261500 0.000000
-10.231600 0.000000
-10.201800 0.000000
-10.171900 0.000000
-10.142000 0.000000
-10.112200 0.000000
-10.082300 0.000000
-10.052400 0.000000
-10.022600 0.000000
-9.992700 0.000000
-9.962900 0.000000
-9.933000 0.000000
-9.903100 0.000000
-9.873300 0.000000
-9.843400 0.000000
-9.813500 0.000000
-9.783700 0.000000
-9.753800 0.000000
-9.723900 0.000000
-9.694100 0.000000
-9.664200 0.000000
-9.634300 0.000000
-9.604500 0.000000
-9.574600 0.000000
-9.544700 0.000000
-9.514900 0.000000
-9.485000 0.000000
-9.455100 0.000000
-9.425300 0.000000
-9.395400 0.000000
-9.365600 0.000000
-9.335700 0.000000
-9.305800 0.000000
-9.276000 0.000000
-9.246100 0.000000
-9.216200 0.000000
-9.186400 0.000000
-9.156500 0.000000
-9.126600 0.000000
-9.096800 0.000000
-9.066900 0.000000
-9.037000 0.000000
-9.007200 0.000000
-8.977300 0.000000
-8.947400 0.000000
-8.917600 0.000000
-8.887700 0.000000
-8.857900 0.000000
-8.828000 0.000000
-8.798100 0.000000
-8.768300 0.000000
-8.738400 0.000000
-8.708500 0.000000
-8.678700 0.000000
-8.648800 0.000000
-8.618900 0.000000
-8.589100 0.000000
-8.559200 0.000000
-8.529300 0.000000
-8.499500 0.000000
-8.469600 0.000000
-8.439700 0.000000
-8.409900 0.000000
-8.380000 0.000000
-8.350100 0.000000
-8.320300 0.000000
-8.290400 0.000000
-8.260600 0.000000
-8.230700 0.000000
-8.200800 0.000000
-8.171000 0.000000
-8.141100 0.000000
-8.111200 0.000000
-8.081400 0.000000
-8.051500 0.000000
-8.021600 0.000000
-7.991800 0.000000
-7.961900 0.000000
-7.932000 0.000000
-7.902200 0.000000
-7.872300 0.000000
-7.842400 0.000000
-7.812600 0.000000
-7.782700 0.000000
-7.752900 0.000000
-7.723000 0.000000
-7.693100 0.000000
-7.663300 0.000000
-7.633400 0.000000
-7.603500 0.000000
-7.573700 0.000000
-7.543800 0.000000
-7.513900 0.000000
-7.484100 0.000000
-7.454200 0.000000
-7.424300 0.000000
-7.394500 0.000000
-7.364600 0.000000
-7.334700 0.000000
-7.304900 0.000000
-7.275000 0.000000
-7.245100 0.000000
-7.215300 0.000000
-7.185400 0.000000
-7.155600 0.000000
-7.125700 0.000000
-7.095800 0.000000
-7.066000 0.000000
-7.036100 0.000000
-7.006200 0.000000
-6.976400 0.000000
-6.946500 0.000000
-6.916600 0.000000
-6.886800 0.000000
-6.856900 0.000000
-6.827000 0.000000
-6.797200 0.000000
-6.767300 0.000000
-6.737400 0.000000
-6.707600 0.000000
-6.677700 0.000000
-6.647900 0.000000
-6.618000 0.000000
-6.588100 0.000000
-6.558300 0.000000
-6.528400 0.000000
-6.498500 0.000000
-6.468700 0.000000
-6.438800 0.000000
-6.408900 0.000000
-6.379100 0.000000
-6.349200 0.000000
-6.319300 0.000000
-6.289500 0.000000
-6.259600 0.000000
-6.229700 0.000000
-6.199900 0.000000
-6.170000 0.000000
-6.140100 0.000000
-6.110300 0.000000
-6.080400 0.000000
-6.050600 0.000000
-6.020700 0.000000
-5.990800 0.000000
-5.961000 0.000000
-5.931100 0.000000
-5.901200 0.000000
-5.871400 0.000000
-5.841500 0.000000
-5.811600 0.000000
-5.781800 0.000000
-5.751900 0.000000
-5.722000 0.000000
-5.692200 0.000000
-5.662300 0.000000
-5.632400 0.000000
-5.602600 0.000000
-5.572700 0.000000
-5.542900 0.000000
-5.513000 0.000000
-5.483100 0.000000
-5.453300 0.000000
-5.423400 0.000000
-5.393500 0.000000
-5.363700 0.000000
-5.333800 0.000000
-5.303900 0.000000
-5.274100 0.000000
-5.244200 0.000000
-5.214300 0.000000
-5.184500 0.000000
-5.154600 0.000000
-5.124700 0.000000
-5.094900 0.000000
-5.065000 0.000000
-5.035200 0.000000
-5.005300 0.000000
-4.975400 0.000000
-4.945600 0.000000
-4.915700 0.000000
-4.885800 0.000000
-4.856000 0.000000
-4.826100 0.000000
-4.796200 0.000000
-4.766400 0.000000
-4.736500 0.000000
-4.706600 0.000000
-4.676800 0.000000
-4.646900 0.000000
-4.617000 0.000000
-4.587200 0.000000
-4.557300 0.000000
-4.527400 0.000000
-4.497600 0.000000
-4.467700 0.000000
-4.437900 0.000000
-4.408000 0.000000
-4.378100 0.000000
-4.348300 0.000000
-4.318400 0.000000
-4.288500 0.000000
-4.258700 0.000000
-4.228800 0.000000
-4.198900 0.000000
-4.169100 0.000000
-4.139200 0.000000
-4.109300 0.000000
-4.079500 0.000000
-4.049600 0.000000
-4.019700 0.000000
-3.989900 0.000000
-3.960000 0.000000
-3.930200 0.000000
-3.900300 0.000000
-3.870400 0.000000
-3.840600 0.000000
-3.810700 0.000000
-3.780800 0.000000
-3.751000 0.000000
-3.721100 0.000000
-3.691200 0.000000
-3.661400 0.000000
-3.631500 0.000000
-3.601600 0.000000
-3.571800 0.000000
-3.541900 0.000000
-3.512000 0.000000
-3.482200 0.000000
-3.452300 0.000000
-3.422400 0.000000
-3.392600 0.000000
-3.362700 0.000000
-3.332900 0.000000
-3.303000 0.000000
-3.273100 0.000000
-3.243300 0.000000
-3.213400 0.000000
-3.183500 0.000000
-3.153700 0.000000
-3.123800 0.000000
-3.093900 0.000000
-3.064100 0.000000
-3.034200 0.000000
-3.004300 0.000000
-2.974500 0.000000
-2.944600 0.000000
-2.914700 0.000000
-2.884900 0.000000
-2.855000 0.000000
-2.825200 0.000000
-2.795300 0.000000
-2.765400 0.000000
-2.735600 0.000000
-2.705700 0.000000
-2.675800 0.000000
-2.646000 0.000000
-2.616100 0.000000
-2.586200 0.000000
-2.556400 0.000000
-2.526500 0.000000
-2.496600 0.000000
-2.466800 0.000000
-2.436900 0.000000
-2.407000 0.000000
-2.377200 0.000000
-2.347300 0.000000
-2.317400 0.000000
-2.287600 0.000000
-2.257700 0.000000
-2.227900 0.000000
-2.198000 0.000000
-2.168100 0.000000
-2.138300 0.000000
-2.108400 0.000500
-2.078500 0.003600
-2.048700 0.014000
-2.018800 0.031500
-1.988900 0.051600
-1.959100 0.078100
-1.929200 0.125600
-1.899300 0.195100
-1.869500 0.218100
-1.839600 0.152300
-1.809700 0.099700
-1.779900 0.179600
-1.750000 0.449500
-1.720200 1.308800
-1.690300 4.594000
-1.660400 14.214100
-1.630600 33.293200
-1.600700 57.143100
-1.570800 71.744400
-1.541000 66.030100
-1.511100 45.231400
-1.481200 24.544600
-1.451400 11.650000
-1.421500 5.034100
-1.391600 1.920600
-1.361800 0.770900
-1.331900 0.508900
-1.302000 0.517300
-1.272200 0.538900
-1.242300 0.415100
-1.212500 0.222300
-1.182600 0.156200
-1.152700 0.253300
-1.122900 0.425600
-1.093000 0.587400
-1.063100 0.639900
-1.033300 0.548700
-1.003400 0.409100
-0.973500 0.327500
-0.943700 0.349000
-0.913800 0.387700
-0.883900 0.401000
-0.854100 0.458100
-0.824200 0.501400
-0.794300 0.477500
-0.764500 0.530100
-0.734600 0.660900
-0.704700 0.665700
-0.674900 0.537900
-0.645000 0.514100
-0.615200 0.730300
-0.585300 0.952900
-0.555400 0.895800
-0.525600 0.697100
-0.495700 0.536200
-0.465800 0.391600
-0.436000 0.276600
-0.406100 0.225500
-0.376200 0.354600
-0.346400 0.755100
-0.316500 1.137500
-0.286600 1.199600
-0.256800 1.140400
-0.226900 1.054000
-0.197000 0.821300
-0.167200 0.706500
-0.137300 0.799000
-0.107500 0.830500
-0.077600 0.819000
-0.047700 0.861700
-0.017900 0.823000
0.012000 0.875000
0.041900 1.182600
0.071700 1.302800
0.101600 1.037100
0.131500 0.713600
0.161300 0.557300
0.191200 0.714700
0.221100 1.123800
0.250900 1.367600
0.280800 1.326900
0.310700 1.279200
0.340500 1.303400
0.370400 1.483100
0.400300 1.861500
0.430100 2.035600
0.460000 1.842600
0.489800 1.583900
0.519700 1.552500
0.549600 1.655500
0.579400 1.498700
0.609300 1.266600
0.639200 1.383900
0.669000 1.497400
0.698900 1.287800
0.728800 1.170700
0.758600 1.188300
0.788500 0.937000
0.818400 0.477900
0.848200 0.151000
0.878100 0.028700
0.908000 0.003100
0.937800 0.000200
0.967700 0.001000
0.997500 0.007600
1.027400 0.031400
1.057300 0.066400
1.087100 0.072700
1.117000 0.045300
1.146900 0.037800
1.176700 0.074600
1.206600 0.108300
1.236500 0.107200
1.266300 0.126000
1.296200 0.188200
1.326100 0.241600
1.355900 0.218100
1.385800 0.126600
1.415700 0.057700
1.445500 0.039900
1.475400 0.090500
1.505300 0.263600
1.535100 0.471900
1.565000 0.520600
1.594800 0.420700
1.624700 0.351300
1.654600 0.452200
1.684400 0.636900
1.714300 0.673900
1.744200 0.554100
1.774000 0.523200
1.803900 0.785000
1.833800 1.099200
1.863600 1.097700
1.893500 0.991100
1.923400 1.114000
1.953200 1.374000
1.983100 1.444400
2.013000 1.367000
2.042800 1.432400
2.072700 1.504300
2.102500 1.310200
2.132400 1.117200
2.162300 1.246400
2.192100 1.496700
2.222000 1.629700
2.251900 1.795000
2.281700 2.125700
2.311600 2.358600
2.341500 2.255800
2.371300 1.956300
2.401200 1.755500
2.431100 1.744300
2.460900 1.769300
2.490800 1.852300
2.520700 2.106800
2.550500 2.349600
2.580400 2.277300
2.610300 1.906000
2.640100 1.700700
2.670000 1.898200
2.699800 2.138800
2.729700 2.020200
2.759600 1.667300
2.789400 1.329500
2.819300 1.080600
2.849200 1.049100
2.879000 1.236200
2.908900 1.449800
2.938800 1.533100
2.968600 1.580300
2.998500 1.646500
3.028400 1.619800
3.058200 1.659000
3.088100 1.890500
3.118000 2.038900
3.147800 2.002100
3.177700 2.142100
3.207500 2.444400
3.237400 2.449700
3.267300 2.108500
3.297100 1.902900
3.327000 2.080400
3.356900 2.537400
3.386700 2.968600
3.416600 3.127200
3.446500 3.018100
3.476300 2.732700
3.506200 2.607000
3.536100 2.830000
3.565900 2.968200
3.595800 2.839900
3.625700 2.789700
3.655500 3.013900
3.685400 3.346300
3.715200 3.509400
3.745100 3.623400
3.775000 3.592600
3.804800 3.224900
3.834700 2.962800
3.864600 2.954800
3.894400 2.956700
3.924300 3.009000
3.954200 3.280000
3.984000 3.853900
4.013900 4.501800
4.043800 4.883600
4.073600 4.867700
4.103500 4.627000
4.133400 4.566800
4.163200 4.789000
4.193100 5.441100
4.223000 6.678800
4.252800 7.879600
4.282700 8.740500
4.312500 9.500500
4.342400 9.751100
4.372300 8.968600
4.402100 7.464400
4.432000 6.064400
4.461900 5.237100
4.491700 4.829600
4.521600 4.565600
4.551500 4.457000
4.581300 4.589400
4.611200 4.728300
4.641100 4.950200
4.670900 5.526100
4.700800 6.124500
4.730700 6.393800
4.760500 6.294800
4.790400 6.374900
4.820200 7.114300
4.850100 7.947300
4.880000 8.394000
4.909800 8.543400
4.939700 8.229800
4.969600 7.276300
4.999400 6.117500
5.029300 5.180200
5.059200 4.549400
5.089000 4.005300
5.118900 3.413900
5.148800 3.106200
5.178600 3.377400
5.208500 3.664300
5.238400 3.480600
5.268200 3.517300
5.298100 3.898800
5.328000 3.838400
5.357800 3.449600
5.387700 3.282500
5.417500 3.171800
5.447400 2.977900
5.477300 3.017000
5.507100 3.477000
5.537000 4.199500
5.566900 4.839700
5.596700 5.090600
5.626600 4.895900
5.656500 4.543600
5.686300 4.366100
5.716200 4.244600
5.746100 4.292300
5.775900 4.899300
5.805800 5.561800
5.835700 5.723800
5.865500 5.711400
5.895400 5.846300
5.925200 6.078300
5.955100 6.482400
5.985000 6.901100
6.014800 6.859600
6.044700 6.499500
6.074600 6.287100
6.104400 6.239700
6.134300 5.985900
6.164200 5.633500
6.194000 5.375900
6.223900 4.772700
6.253800 4.002700
6.283600 3.645200
6.313500 3.696800
6.343400 3.832600
6.373200 3.872000
6.403100 3.929500
6.433000 3.977200
6.462800 4.028100
6.492700 4.453600
6.522500 5.037300
6.552400 4.919100
6.582300 4.244300
6.612100 3.948400
6.642000 4.007900
6.671900 3.777000
6.701700 3.334600
6.731600 3.023800
6.761500 2.761100
6.791300 2.759500
6.821200 3.367900
6.851100 4.098100
6.880900 4.263800
6.910800 4.105000
6.940700 4.246800
6.970500 4.679900
7.000400 5.090600
7.030200 5.556300
7.060100 5.985800
7.090000 5.943900
7.119800 5.523600
7.149700 5.264100
7.179600 5.229400
7.209400 5.295300
7.239300 5.530600
7.269200 5.554900
7.299000 5.418600
7.328900 5.974100
7.358800 7.122800
7.388600 8.064200
7.418500 8.641700
7.448400 9.287000
7.478200 9.737900
7.508100 9.409900
7.538000 8.708800
7.567800 8.260200
7.597700 7.915400
7.627500 7.523400
7.657400 7.743200
7.687300 8.519800
7.717100 8.831100
7.747000 8.400200
7.776900 7.421000
7.806700 6.150100
7.836600 5.383200
7.866500 5.512800
7.896300 5.702700
7.926200 5.312600
7.956100 4.714900
7.985900 4.469200
8.015800 4.584400
8.045700 4.455300
8.075500 4.089000
8.105400 3.877600
8.135200 3.808600
8.165100 3.668500
8.195000 3.304300
8.224800 3.126000
8.254700 3.494400
8.284600 3.799000
8.314400 3.569900
8.344300 3.262500
8.374200 3.376000
8.404000 3.968000
8.433900 4.812900
8.463800 5.776100
8.493600 6.883800
8.523500 7.881000
8.553400 8.242300
8.583200 7.686500
8.613100 6.733300
8.642900 6.252600
8.672800 6.071600
8.702700 5.934700
8.732500 6.272100
8.762400 6.917700
8.792300 7.169000
8.822100 6.992400
8.852000 6.623500
8.881900 5.894100
8.911700 4.808300
8.941600 3.936000
8.971500 3.593700
9.001300 3.407000
9.031200 3.092900
9.061100 2.822300
9.090900 2.533800
9.120800 2.167000
9.150700 2.129800
9.180500 2.535500
9.210400 2.841000
9.240200 2.646400
9.270100 2.243700
9.300000 2.185500
9.329800 2.223200
9.359700 1.936000
9.389600 1.881600
9.419400 2.294300
9.449300 2.552500
9.479200 2.415300
9.509000 2.200600
9.538900 2.181000
9.568800 2.237500
9.598600 2.114400
9.628500 1.895600
9.658400 1.916200
9.688200 2.085400
9.718100 1.925600
9.747900 1.496900
9.777800 1.386200
9.807700 1.808100
9.837500 2.249300
9.867400 2.221900
9.897300 1.879800
9.927100 1.690300
9.957000 1.734700
9.986900 1.756400
10.016700 1.693600
10.046600 1.635500
10.076500 1.635200
10.106300 1.558000
10.136200 1.332200
10.166100 1.141800
10.195900 0.997600
10.225800 0.878100
10.255700 0.949900
10.285500 1.142400
10.315400 1.190900
10.345200 1.013700
10.375100 0.882900
10.405000 1.106400
10.434800 1.430700
10.464700 1.461400
10.494600 1.250200
10.524400 1.033300
10.554300 1.048800
10.584200 1.335300
10.614000 1.498000
10.643900 1.232600
10.673800 0.875600
10.703600 0.714300
10.733500 0.696200
10.763400 0.936700
10.793200 1.432500
10.823100 1.714000
10.852900 1.653300
10.882800 1.634300
10.912700 1.656500
10.942500 1.497100
10.972400 1.375300
11.002300 1.537100
11.032100 1.842000
11.062000 2.127100
11.091900 2.280300
11.121700 2.346400
11.151600 2.454600
11.181500 2.647500
11.211300 2.800500
11.241200 2.632900
11.271100 2.126100
11.300900 1.666100
11.330800 1.469600
11.360700 1.420700
11.390500 1.413200
11.420400 1.599200
11.450200 1.885000
11.480100 1.811100
11.510000 1.426800
11.539800 1.204100
11.569700 1.280400
11.599600 1.308200
11.629400 1.132100
11.659300 0.998300
11.689200 1.069100
11.719000 1.277400
11.748900 1.384400
11.778800 1.242700
11.808600 1.020500
11.838500 0.950200
11.868400 1.058400
11.898200 1.293100
11.928100 1.490500
11.957900 1.464200
11.987800 1.243000
12.017700 1.053000
12.047500 1.040500
12.077400 1.092300
12.107300 1.045500
12.137100 0.974400
12.167000 0.942400
12.196900 0.826200
12.226700 0.663900
12.256600 0.653900
12.286500 0.801100
12.316300 0.864200
12.346200 0.803600
12.376100 0.908300
12.405900 1.076200
12.435800 0.986800
12.465700 0.760900
12.495500 0.600600
12.525400 0.593900
12.555200 0.728300
12.585100 0.839400
12.615000 0.913800
12.644800 1.050200
12.674700 1.088400
12.704600 1.010300
12.734400 0.988500
12.764300 1.023300
12.794200 1.070900
12.824000 1.132400
12.853900 1.231100
12.883800 1.420700
12.913600 1.608100
12.943500 1.644400
12.973400 1.683200
13.003200 1.881800
13.033100 1.914600
13.062900 1.652100
13.092800 1.502100
13.122700 1.698700
13.152500 2.100800
13.182400 2.262500
13.212300 2.032600
13.242100 1.832200
13.272000 1.798500
13.301900 1.792900
13.331700 1.848100
13.361600 1.852100
13.391500 1.685800
13.421300 1.516800
13.451200 1.693800
13.481100 2.076600
13.510900 2.132700
13.540800 1.998300
13.570600 1.923000
13.600500 1.678100
13.630400 1.401700
13.660200 1.455400
13.690100 1.821600
13.720000 2.148300
13.749800 2.214500
13.779700 2.050800
13.809600 1.840100
13.839400 1.838400
13.869300 2.024100
13.899200 2.257400
13.929000 2.397400
13.958900 2.206800
13.988800 1.756600
14.018600 1.437700
14.048500 1.369500
14.078400 1.380700
14.108200 1.392600
14.138100 1.308900
14.167900 1.163100
14.197800 1.080200
14.227700 1.121400
14.257500 1.372200
14.287400 1.651900
14.317300 1.672700
14.347100 1.628000
14.377000 1.823900
14.406900 1.984400
14.436700 1.876500
14.466600 1.663200
14.496500 1.520400
14.526300 1.582900
14.556200 1.939700
14.586100 2.535300
14.615900 3.035700
14.645800 3.100600
14.675600 2.696100
14.705500 2.076400
14.735400 1.751400
14.765200 2.022200
14.795100 2.562400
14.825000 2.804900
14.854800 2.521800
14.884700 2.021000
14.914600 1.721400
14.944400 1.653100
14.974300 1.684100
15.004200 1.937800
15.034000 2.340300
15.063900 2.426600
15.093800 2.130300
15.123600 1.861000
15.153500 1.855000
15.183400 2.064900
15.213200 2.264700
15.243100 2.239300
15.272900 2.071500
15.302800 2.122800
15.332700 2.318200
15.362500 2.364500
15.392400 2.387900
15.422300 2.480400
15.452100 2.498800
15.482000 2.393500
15.511900 2.111900
15.541700 1.821100
15.571600 1.733600
15.601500 1.797300
15.631300 1.986700
15.661200 2.015700
15.691100 1.775000
15.720900 1.754000
15.750800 2.011900
15.780600 2.309300
15.810500 2.524100
15.840400 2.582600
15.870200 2.521200
15.900100 2.417400
15.930000 2.245600
15.959800 2.054500
15.989700 2.119600
16.019600 2.460100
16.049400 2.763700
16.079300 2.907900
16.109200 3.020500
16.139000 3.151100
16.168900 2.943300
16.198800 2.391600
16.228600 1.962900
16.258500 1.785800
16.288400 1.649800
16.318200 1.435100
16.348100 1.307800
16.377900 1.487800
16.407800 1.768200
16.437700 1.734600
16.467500 1.442500
16.497400 1.228800
16.527300 1.194700
16.557100 1.337700
16.587000 1.618700
16.616900 1.817400
16.646700 1.724600
16.676600 1.577700
16.706500 1.764600
16.736300 2.067200
16.766200 2.164600
16.796100 2.276800
16.825900 2.390100
16.855800 2.274900
16.885600 2.147000
16.915500 2.215000
16.945400 2.283800
16.975200 2.126200
17.005100 1.758500
17.035000 1.546700
17.064800 1.761100
17.094700 2.130900
17.124600 2.199800
17.154400 1.947000
17.184300 1.810300
17.214200 2.103100
17.244000 2.578600
17.273900 2.817100
17.303800 2.824500
17.333600 2.953200
17.363500 3.150700
17.393300 3.078900
17.423200 2.892200
17.453100 2.861800
17.482900 2.874500
17.512800 2.787200
17.542700 2.643100
17.572500 2.623100
17.602400 2.763500
17.632300 2.812100
17.662100 2.754800
17.692000 2.840300
17.721900 2.910200
17.751700 2.603700
17.781600 2.187600
17.811500 1.998200
17.841300 1.885100
17.871200 1.736800
17.901100 1.626600
17.930900 1.686600
17.960800 1.863400
17.990600 1.967000
18.020500 1.981800
18.050400 2.079100
18.080200 2.319000
18.110100 2.389000
18.140000 2.262100
18.169800 2.171000
18.199700 2.069700
18.229600 1.764200
18.259400 1.580600
18.289300 1.847600
18.319200 2.214300
18.349000 2.420600
18.378900 2.431900
18.408800 2.284900
18.438600 2.131300
18.468500 2.051700
18.498300 1.880700
18.528200 1.579700
18.558100 1.552100
18.587900 2.031500
18.617800 2.584600
18.647700 2.701600
18.677500 2.622600
18.707400 2.692000
18.737300 2.656400
18.767100 2.396900
18.797000 2.268300
18.826900 2.378600
18.856700 2.433600
18.886600 2.344800
18.916500 2.229800
18.946300 2.342700
18.976200 2.834400
19.006100 3.350400
19.035900 3.565700
19.065800 3.360900
19.095600 2.877100
19.125500 2.481400
19.155400 2.326500
19.185200 2.392900
19.215100 2.468600
19.245000 2.220900
19.274800 1.770900
19.304700 1.354800
19.334600 1.036100
19.364400 1.037300
19.394300 1.307900
19.424200 1.641700
19.454000 2.085200
19.483900 2.449600
19.513800 2.484100
19.543600 2.347800
19.573500 2.108700
19.603300 1.846700
19.633200 1.756200
19.663100 1.679800
19.692900 1.519900
19.722800 1.539000
19.752700 1.573100
19.782500 1.331100
19.812400 1.142100
19.842300 1.374100
19.872100 1.908000
19.902000 2.273900
19.931900 2.257500
19.961700 2.134900
19.991600 2.139300
20.021500 2.129000
20.051300 1.934800
20.081200 1.808900
20.111100 2.027100
20.140900 2.267900
20.170800 2.298800
20.200600 2.452400
20.230500 2.621800
20.260400 2.477200
20.290200 2.161800
20.320100 1.939600
20.350000 1.951000
20.379800 2.298700
20.409700 2.673400
20.439600 2.668200
20.469400 2.561200
20.499300 2.690500
20.529200 2.860500
20.559000 2.799300
20.588900 2.621100
20.618800 2.533000
20.648600 2.520700
20.678500 2.443200
20.708300 2.222400
20.738200 2.041300
20.768100 2.127300
20.797900 2.251200
20.827800 2.167400
20.857700 2.188300
20.887500 2.567200
20.917400 2.882800
20.947300 2.743300
20.977100 2.286600
21.007000 1.786100
21.036900 1.569800
21.066700 1.703800
21.096600 1.934700
21.126500 2.306400
21.156300 2.792200
21.186200 3.059500
21.216100 2.994600
21.245900 2.658900
21.275800 2.260600
21.305600 2.027100
21.335500 1.914400
21.365400 1.867700
21.395200 1.905800
21.425100 1.960600
21.455000 1.860300
21.484800 1.523500
21.514700 1.308800
21.544600 1.571500
21.574400 2.058500
21.604300 2.253300
21.634200 2.232800
21.664000 2.370200
21.693900 2.523100
21.723800 2.564000
21.753600 2.495500
21.783500 2.205900
21.813300 1.931900
21.843200 1.896900
21.873100 1.944800
21.902900 2.114200
21.932800 2.334900
21.962700 2.410100
21.992500 2.466900
22.022400 2.537000
22.052300 2.362500
22.082100 1.891700
22.112000 1.607100
22.141900 1.917900
22.171700 2.581200
22.201600 3.053200
22.231500 3.035800
22.261300 2.711500
22.291200 2.427400
22.321000 2.234600
22.350900 2.025700
22.380800 1.784100
22.410600 1.684500
22.440500 2.006700
22.470400 2.669800
22.500200 3.234500
22.530100 3.593400
22.560000 3.729500
22.589800 3.554900
22.619700 3.364600
22.649600 3.264800
22.679400 2.816200
22.709300 2.137100
22.739200 1.897700
22.769000 2.097000
22.798900 2.001100
22.828800 1.501900
22.858600 1.333800
22.888500 1.688700
22.918300 2.122900
22.948200 2.419500
22.978100 2.596300
23.007900 2.600200
23.037800 2.273600
23.067700 1.783500
23.097500 1.501800
23.127400 1.399900
23.157300 1.626900
23.187100 2.473600
23.217000 3.408700
23.246900 3.780100
23.276700 3.685300
23.306600 3.448400
23.336500 3.210300
23.366300 2.951800
23.396200 2.807300
23.426000 2.854100
23.455900 3.094900
23.485800 3.314900
23.515600 3.201100
23.545500 2.957300
23.575400 2.879800
23.605200 2.776400
23.635100 2.329100
23.665000 1.733500
23.694800 1.474700
23.724700 1.576700
23.754600 1.797100
23.784400 2.212200
23.814300 2.714500
23.844200 2.908800
23.874000 2.897600
23.903900 2.799700
23.933800 2.566400
23.963600 2.421900
23.993500 2.332000
24.023300 2.260600
24.053200 2.480900
24.083100 2.839200
24.112900 3.004900
24.142800 3.106800
24.172700 3.203200
24.202500 2.976000
24.232400 2.371000
24.262300 1.813000
24.292100 1.597500
24.322000 1.703600
24.351900 1.859700
24.381700 1.939100
24.411600 2.021200
24.441500 1.981600
24.471300 1.697600
24.501200 1.474400
24.531000 1.762700
24.560900 2.347300
24.590800 2.384300
24.620600 1.841400
24.650500 1.591100
24.680400 2.018800
24.710200 2.561200
24.740100 2.500700
24.770000 2.037000
24.799800 1.805700
24.829700 1.756800
24.859600 1.579700
24.889400 1.383300
24.919300 1.408900
24.949200 1.643900
24.979000 1.865500
25.008900 2.042800
25.038800 2.293900
25.068600 2.615500
25.098500 2.913200
25.128300 3.012800
25.158200 2.815400
25.188100 2.394800
25.217900 1.934300
25.247800 1.683100
25.277700 1.673000
25.307500 1.818700
25.337400 2.005700
25.367300 1.987000
25.397100 1.797400
25.427000 1.724900
25.456900 1.879000
25.486700 2.012800
25.516600 1.722300
25.546500 1.172600
25.576300 0.951300
25.606200 1.237700
25.636000 1.737200
25.665900 2.054300
25.695800 1.942600
25.725600 1.523000
25.755500 1.219900
25.785400 1.237000
25.815200 1.286800
25.845100 1.155600
25.875000 0.913900
25.904800 0.653000
25.934700 0.465000
25.964600 0.417800
25.994400 0.447800
26.024300 0.420500
26.054200 0.397100
26.084000 0.481600
26.113900 0.532100
26.143800 0.410700
26.173600 0.217000
26.203500 0.078300
26.233300 0.017900
26.263200 0.003600
26.293100 0.010800
26.322900 0.043300
26.352800 0.090200
26.382700 0.095900
26.412500 0.052000
26.442400 0.014400
26.472300 0.002000
26.502100 0.000100
26.532000 0.000000
26.561900 0.000000
26.591700 0.000000
26.621600 0.000000
26.651500 0.000000
26.681300 0.000000
26.711200 0.000000
26.741000 0.000000
26.770900 0.000000
26.800800 0.000000
26.830600 0.000000
26.860500 0.000000
26.890400 0.000000
26.920200 0.000000
26.950100 0.000000
26.980000 0.000000
27.009800 0.000000
27.039700 0.000000
27.069600 0.000000
27.099400 0.000000
27.129300 0.000000
27.159200 0.000000
27.189000 0.000000
27.218900 0.000000
27.248700 0.000000
27.278600 0.000000
27.308500 0.000000
27.338300 0.000000
27.368200 0.000000
27.398100 0.000000
27.427900 0.000000
27.457800 0.000000
27.487700 0.000000
27.517500 0.000000
27.547400 0.000000
27.577300 0.000000
27.607100 0.000000
27.637000 0.000000
27.666900 0.000000
27.696700 0.000000
27.726600 0.000000
27.756500 0.000000
27.786300 0.000000
27.816200 0.000000
27.846000 0.000000
27.875900 0.000000
27.905800 0.000000
27.935600 0.000000
27.965500 0.000000
27.995400 0.000000
28.025200 0.000000
28.055100 0.000000
28.085000 0.000000
28.114800 0.000000
28.144700 0.000000
28.174600 0.000000
28.204400 0.000000
28.234300 0.000000
28.264200 0.000000
28.294000 0.000000
28.323900 0.000000
28.353700 0.000000
28.383600 0.000000
28.413500 0.000000
28.443300 0.000000
28.473200 0.000000
28.503100 0.000000
28.532900 0.000000
28.562800 0.000000
28.592700 0.000000
28.622500 0.000000
28.652400 0.000000
28.682300 0.000000
28.712100 0.000000
28.742000 0.000000
28.771900 0.000000
28.801700 0.000000
28.831600 0.000000
28.861500 0.000000
28.891300 0.000000
28.921200 0.000000
28.951000 0.000000
28.980900 0.000000
29.010800 0.000000
29.040600 0.000000
29.070500 0.000000
e
