set title 'mp-999133 - Density of States'
set xlabel 'Energy (eV)'
set ylabel 'DOS (states/eV)'
set grid
set xrange [-10:10]
set yrange [0:18.332]
set xzeroaxis lt -1
set terminal png size 800,600
set output 'mp-999133_dos_gnuplot.png'
plot '-' using 1:2 with lines title 'DOS'
-32.959700 0.000000
-32.917300 0.000000
-32.875000 0.000000
-32.832600 0.000000
-32.790300 0.000000
-32.747900 0.000000
-32.705600 0.000000
-32.663200 0.000000
-32.620900 0.000000
-32.578500 0.000000
-32.536200 0.000000
-32.493800 0.000000
-32.451500 0.000000
-32.409100 0.000000
-32.366800 0.000000
-32.324400 0.000000
-32.282100 0.000000
-32.239700 0.000000
-32.197400 0.000000
-32.155000 0.000000
-32.112600 0.000000
-32.070300 0.000000
-32.027900 0.000000
-31.985600 0.000000
-31.943200 0.000000
-31.900900 0.000000
-31.858500 0.000000
-31.816200 0.000000
-31.773800 0.000000
-31.731500 0.000000
-31.689100 0.000000
-31.646800 0.000000
-31.604400 0.000000
-31.562100 0.000000
-31.519700 0.000000
-31.477400 0.000000
-31.435000 0.000000
-31.392700 0.000000
-31.350300 0.000000
-31.308000 0.000000
-31.265600 0.000000
-31.223300 0.000000
-31.180900 0.000000
-31.138600 0.000000
-31.096200 0.000000
-31.053900 0.000000
-31.011500 0.000000
-30.969200 0.000000
-30.926800 0.000000
-30.884400 0.000000
-30.842100 0.000000
-30.799700 0.000000
-30.757400 0.000000
-30.715000 0.000000
-30.672700 0.000000
-30.630300 0.000000
-30.588000 0.000000
-30.545600 0.000000
-30.503300 0.000000
-30.460900 0.000000
-30.418600 0.000000
-30.376200 0.000000
-30.333900 0.000000
-30.291500 0.000000
-30.249200 0.000000
-30.206800 0.000000
-30.164500 0.000000
-30.122100 0.000000
-30.079800 0.000000
-30.037400 0.000000
-29.995100 0.000000
-29.952700 0.000000
-29.910400 0.000000
-29.868000 0.000000
-29.825700 0.000000
-29.783300 0.000000
-29.741000 0.000000
-29.698600 0.000000
-29.656200 0.000000
-29.613900 0.000000
-29.571500 0.000000
-29.529200 0.000000
-29.486800 0.000000
-29.444500 0.000000
-29.402100 0.000000
-29.359800 0.000000
-29.317400 0.000000
-29.275100 0.000000
-29.232700 0.000000
-29.190400 0.000000
-29.148000 0.000000
-29.105700 14.371800
-29.063300 32.567000
-29.021000 7.496900
-28.978600 4.956600
-28.936300 3.469800
-28.893900 14.478900
-28.851600 15.484600
-28.809200 17.401100
-28.766900 12.653300
-28.724500 8.643900
-28.682200 9.357800
-28.639800 40.534200
-28.597500 69.946300
-28.555100 0.000000
-28.512800 0.000000
-28.470400 0.000000
-28.428000 0.000000
-28.385700 0.000000
-28.343300 0.000000
-28.301000 0.000000
-28.258600 0.000000
-28.216300 0.000000
-28.173900 0.000000
-28.131600 0.000000
-28.089200 0.000000
-28.046900 0.000000
-28.004500 0.000000
-27.962200 0.000000
-27.919800 0.000000
-27.877500 0.000000
-27.835100 0.000000
-27.792800 0.000000
-27.750400 0.000000
-27.708100 0.000000
-27.665700 0.000000
-27.623400 0.000000
-27.581000 0.000000
-27.538700 0.000000
-27.496300 0.000000
-27.454000 0.000000
-27.411600 0.000000
-27.369300 0.000000
-27.326900 0.000000
-27.284600 0.000000
-27.242200 0.000000
-27.199800 0.000000
-27.157500 0.000000
-27.115100 0.000000
-27.072800 0.000000
-27.030400 0.000000
-26.988100 0.000000
-26.945700 0.000000
-26.903400 0.000000
-26.861000 0.000000
-26.818700 0.000000
-26.776300 0.000000
-26.734000 0.000000
-26.691600 0.000000
-26.649300 0.000000
-26.606900 0.000000
-26.564600 0.000000
-26.522200 0.000000
-26.479900 0.000000
-26.437500 0.000000
-26.395200 0.000000
-26.352800 0.000000
-26.310500 0.000000
-26.268100 0.000000
-26.225800 0.000000
-26.183400 0.000000
-26.141100 0.000000
-26.098700 0.000000
-26.056400 0.000000
-26.014000 0.000000
-25.971600 0.000000
-25.929300 0.000000
-25.886900 0.000000
-25.844600 0.000000
-25.802200 0.000000
-25.759900 0.000000
-25.717500 0.000000
-25.675200 0.000000
-25.632800 0.000000
-25.590500 0.000000
-25.548100 0.000000
-25.505800 0.000000
-25.463400 0.000000
-25.421100 0.000000
-25.378700 0.000000
-25.336400 0.000000
-25.294000 0.000000
-25.251700 0.000000
-25.209300 0.000000
-25.167000 0.000000
-25.124600 0.000000
-25.082300 0.000000
-25.039900 0.000000
-24.997600 0.000000
-24.955200 0.000000
-24.912900 0.000000
-24.870500 0.000000
-24.828200 0.000000
-24.785800 0.000000
-24.743400 0.000000
-24.701100 0.000000
-24.658700 0.000000
-24.616400 0.000000
-24.574000 0.000000
-24.531700 0.000000
-24.489300 0.000000
-24.447000 0.000000
-24.404600 0.000000
-24.362300 0.000000
-24.319900 0.000000
-24.277600 0.000000
-24.235200 0.000000
-24.192900 0.000000
-24.150500 0.000000
-24.108200 0.000000
-24.065800 0.000000
-24.023500 0.000000
-23.981100 0.000000
-23.938800 0.000000
-23.896400 0.000000
-23.854100 0.000000
-23.811700 0.000000
-23.769400 0.000000
-23.727000 0.000000
-23.684700 0.000000
-23.642300 0.000000
-23.600000 0.000000
-23.557600 0.000000
-23.515200 0.000000
-23.472900 0.000000
-23.430500 0.000000
-23.388200 0.000000
-23.345800 0.000000
-23.303500 0.000000
-23.261100 0.000000
-23.218800 0.000000
-23.176400 0.000000
-23.134100 0.000000
-23.091700 0.000000
-23.049400 0.000000
-23.007000 0.000000
-22.964700 0.000000
-22.922300 0.000000
-22.880000 0.000000
-22.837600 0.000000
-22.795300 0.000000
-22.752900 0.000000
-22.710600 0.000000
-22.668200 0.000000
-22.625900 0.000000
-22.583500 0.000000
-22.541200 0.000000
-22.498800 0.000000
-22.456500 0.000000
-22.414100 0.000000
-22.371800 0.000000
-22.329400 0.000000
-22.287000 0.000000
-22.244700 0.000000
-22.202300 0.000000
-22.160000 0.000000
-22.117600 0.000000
-22.075300 0.000000
-22.032900 0.000000
-21.990600 0.000000
-21.948200 0.000000
-21.905900 0.000000
-21.863500 0.000000
-21.821200 0.000000
-21.778800 0.000000
-21.736500 0.000000
-21.694100 0.000000
-21.651800 0.000000
-21.609400 0.000000
-21.567100 0.000000
-21.524700 0.000000
-21.482400 0.000000
-21.440000 0.000000
-21.397700 0.000000
-21.355300 0.000000
-21.313000 0.000000
-21.270600 0.000000
-21.228300 0.000000
-21.185900 0.000000
-21.143500 0.000000
-21.101200 0.000000
-21.058800 0.000000
-21.016500 0.000000
-20.974100 0.000000
-20.931800 0.000000
-20.889400 0.000000
-20.847100 0.000000
-20.804700 0.000000
-20.762400 0.000000
-20.720000 0.000000
-20.677700 0.000000
-20.635300 0.000000
-20.593000 0.000000
-20.550600 0.000000
-20.508300 0.000000
-20.465900 0.000000
-20.423600 0.000000
-20.381200 0.000000
-20.338900 0.000000
-20.296500 0.000000
-20.254200 0.000000
-20.211800 0.000000
-20.169500 0.000000
-20.127100 0.000000
-20.084800 0.000000
-20.042400 0.000000
-20.000100 0.000000
-19.957700 0.000000
-19.915300 0.000000
-19.873000 0.000000
-19.830600 0.000000
-19.788300 0.000000
-19.745900 0.000000
-19.703600 0.000000
-19.661200 0.000000
-19.618900 0.000000
-19.576500 0.000000
-19.534200 0.000000
-19.491800 0.000000
-19.449500 0.000000
-19.407100 0.000000
-19.364800 0.000000
-19.322400 0.000000
-19.280100 0.000000
-19.237700 0.000000
-19.195400 0.000000
-19.153000 0.000000
-19.110700 0.000000
-19.068300 0.000000
-19.026000 0.000000
-18.983600 0.000000
-18.941300 0.000000
-18.898900 0.000000
-18.856600 0.000000
-18.814200 0.000000
-18.771900 0.000000
-18.729500 0.000000
-18.687100 0.000000
-18.644800 0.000000
-18.602400 0.000000
-18.560100 0.000000
-18.517700 0.000000
-18.475400 0.000000
-18.433000 0.000000
-18.390700 0.000000
-18.348300 0.000000
-18.306000 0.000000
-18.263600 0.000000
-18.221300 0.000000
-18.178900 0.000000
-18.136600 0.000000
-18.094200 0.000000
-18.051900 0.000000
-18.009500 0.000000
-17.967200 0.000000
-17.924800 0.000000
-17.882500 0.000000
-17.840100 0.000000
-17.797800 0.000000
-17.755400 0.000000
-17.713100 0.000000
-17.670700 0.000000
-17.628400 0.000000
-17.586000 0.000000
-17.543700 0.000000
-17.501300 0.000000
-17.458900 0.000000
-17.416600 0.000000
-17.374200 0.000000
-17.331900 0.000000
-17.289500 0.000000
-17.247200 0.000000
-17.204800 0.000000
-17.162500 0.000000
-17.120100 0.000000
-17.077800 0.000000
-17.035400 0.000000
-16.993100 0.000000
-16.950700 0.000000
-16.908400 0.000000
-16.866000 0.000000
-16.823700 0.000000
-16.781300 0.000000
-16.739000 0.000000
-16.696600 0.000000
-16.654300 0.000000
-16.611900 0.000000
-16.569600 0.000000
-16.527200 0.000000
-16.484900 0.000000
-16.442500 0.000000
-16.400200 0.000000
-16.357800 0.000000
-16.315500 0.000000
-16.273100 0.000000
-16.230700 0.000000
-16.188400 0.000000
-16.146000 0.000000
-16.103700 0.000000
-16.061300 0.000000
-16.019000 0.000000
-15.976600 0.000000
-15.934300 0.000000
-15.891900 0.000000
-15.849600 0.000000
-15.807200 0.000000
-15.764900 0.000000
-15.722500 0.000000
-15.680200 0.000000
-15.637800 0.000000
-15.595500 0.000000
-15.553100 0.000000
-15.510800 0.000000
-15.468400 0.000000
-15.426100 0.000000
-15.383700 0.000000
-15.341400 0.000000
-15.299000 0.000000
-15.256700 0.000000
-15.214300 0.000000
-15.172000 0.000000
-15.129600 0.000000
-15.087300 0.000000
-15.044900 0.000000
-15.002500 0.000000
-14.960200 0.000000
-14.917800 0.000000
-14.875500 0.000000
-14.833100 0.000000
-14.790800 0.000000
-14.748400 0.000000
-14.706100 0.000000
-14.663700 0.000000
-14.621400 0.000000
-14.579000 0.000000
-14.536700 0.000000
-14.494300 0.000000
-14.452000 0.000000
-14.409600 0.000000
-14.367300 0.000000
-14.324900 0.000000
-14.282600 0.000000
-14.240200 0.000000
-14.197900 0.000000
-14.155500 0.000000
-14.113200 0.000000
-14.070800 0.000000
-14.028500 0.000000
-13.986100 0.000000
-13.943800 0.000000
-13.901400 0.000000
-13.859100 0.000000
-13.816700 0.000000
-13.774300 0.000000
-13.732000 0.000000
-13.689600 0.000000
-13.647300 0.000000
-13.604900 0.000000
-13.562600 0.000000
-13.520200 0.000000
-13.477900 0.000000
-13.435500 0.000000
-13.393200 0.000000
-13.350800 0.000000
-13.308500 0.000000
-13.266100 0.000000
-13.223800 0.000000
-13.181400 0.000000
-13.139100 0.000000
-13.096700 0.000000
-13.054400 0.000000
-13.012000 0.000000
-12.969700 0.000000
-12.927300 0.000000
-12.885000 0.000000
-12.842600 0.000000
-12.800300 0.000000
-12.757900 0.000000
-12.715600 0.000000
-12.673200 0.000000
-12.630900 0.000000
-12.588500 0.000000
-12.546100 0.000000
-12.503800 0.000000
-12.461400 0.000000
-12.419100 0.000000
-12.376700 0.000000
-12.334400 0.000000
-12.292000 0.000000
-12.249700 0.000000
-12.207300 0.000000
-12.165000 0.000000
-12.122600 0.000000
-12.080300 0.000000
-12.037900 0.000000
-11.995600 0.000000
-11.953200 0.000000
-11.910900 0.000000
-11.868500 0.000000
-11.826200 0.000000
-11.783800 0.000000
-11.741500 0.000000
-11.699100 0.000000
-11.656800 0.000000
-11.614400 0.000000
-11.572100 0.000000
-11.529700 0.000000
-11.487400 0.000000
-11.445000 0.000000
-11.402700 0.000000
-11.360300 0.000000
-11.317900 0.000000
-11.275600 0.000000
-11.233200 0.000000
-11.190900 0.000000
-11.148500 0.000000
-11.106200 0.000000
-11.063800 0.000000
-11.021500 0.000000
-10.979100 0.000000
-10.936800 0.000000
-10.894400 0.000000
-10.852100 0.000000
-10.809700 0.000000
-10.767400 0.000000
-10.725000 0.000000
-10.682700 0.000000
-10.640300 0.000000
-10.598000 0.000000
-10.555600 0.000000
-10.513300 0.000000
-10.470900 0.000000
-10.428600 0.000000
-10.386200 0.000000
-10.343900 0.000000
-10.301500 0.000000
-10.259200 0.000000
-10.216800 0.000000
-10.174500 0.000000
-10.132100 0.000000
-10.089700 0.000000
-10.047400 0.000000
-10.005000 0.000000
-9.962700 0.000000
-9.920300 0.000000
-9.878000 0.000000
-9.835600 0.000000
-9.793300 0.000000
-9.750900 0.000000
-9.708600 0.000000
-9.666200 0.000000
-9.623900 0.000000
-9.581500 0.000000
-9.539200 0.000000
-9.496800 0.000000
-9.454500 0.000000
-9.412100 0.000000
-9.369800 0.000000
-9.327400 0.000000
-9.285100 0.000000
-9.242700 0.000000
-9.200400 0.000000
-9.158000 0.000000
-9.115700 0.000000
-9.073300 0.000000
-9.031000 0.000000
-8.988600 0.000000
-8.946300 0.000000
-8.903900 0.000000
-8.861500 0.000000
-8.819200 0.000000
-8.776800 0.000000
-8.734500 0.000000
-8.692100 0.000000
-8.649800 0.000000
-8.607400 0.000000
-8.565100 0.000000
-8.522700 0.000000
-8.480400 0.000000
-8.438000 0.000000
-8.395700 0.000000
-8.353300 0.000000
-8.311000 0.000000
-8.268600 0.000000
-8.226300 0.000000
-8.183900 0.000000
-8.141600 0.000000
-8.099200 0.000000
-8.056900 0.000000
-8.014500 0.000000
-7.972200 0.000000
-7.929800 0.000000
-7.887500 0.000000
-7.845100 0.000000
-7.802800 0.000000
-7.760400 0.000000
-7.718100 0.000000
-7.675700 0.000000
-7.633300 0.000000
-7.591000 0.000000
-7.548600 0.000000
-7.506300 0.000000
-7.463900 0.000000
-7.421600 0.000000
-7.379200 0.000000
-7.336900 0.000000
-7.294500 0.000000
-7.252200 0.000000
-7.209800 0.000000
-7.167500 0.000000
-7.125100 0.000000
-7.082800 0.000000
-7.040400 0.000000
-6.998100 0.000000
-6.955700 0.000000
-6.913400 0.000000
-6.871000 0.000000
-6.828700 0.000000
-6.786300 0.000000
-6.744000 0.000000
-6.701600 0.000000
-6.659300 0.000000
-6.616900 0.000000
-6.574600 0.000000
-6.532200 0.000000
-6.489900 0.000000
-6.447500 0.000000
-6.405100 0.000000
-6.362800 0.000000
-6.320400 0.000000
-6.278100 0.000000
-6.235700 0.000000
-6.193400 0.000000
-6.151000 0.000000
-6.108700 0.000000
-6.066300 0.000000
-6.024000 0.000000
-5.981600 0.000000
-5.939300 0.000000
-5.896900 0.000000
-5.854600 0.000000
-5.812200 0.000000
-5.769900 0.000000
-5.727500 0.000000
-5.685200 0.000000
-5.642800 0.000000
-5.600500 0.000000
-5.558100 0.000000
-5.515800 0.000000
-5.473400 0.000000
-5.431100 0.000000
-5.388700 0.000000
-5.346400 0.000000
-5.304000 0.000000
-5.261700 0.000000
-5.219300 0.000000
-5.176900 0.000000
-5.134600 0.000000
-5.092200 0.000000
-5.049900 0.000000
-5.007500 0.000000
-4.965200 0.000000
-4.922800 0.000000
-4.880500 0.000000
-4.838100 0.000000
-4.795800 0.000000
-4.753400 0.000000
-4.711100 0.000000
-4.668700 0.000000
-4.626400 0.000000
-4.584000 0.000000
-4.541700 0.000000
-4.499300 0.000000
-4.457000 0.000000
-4.414600 0.000000
-4.372300 0.000000
-4.329900 0.000000
-4.287600 0.000000
-4.245200 0.000000
-4.202900 0.000000
-4.160500 0.000000
-4.118200 0.000000
-4.075800 0.000000
-4.033500 0.000000
-3.991100 0.000000
-3.948700 0.000000
-3.906400 0.000000
-3.864000 0.000000
-3.821700 0.000000
-3.779300 0.000000
-3.737000 0.000000
-3.694600 0.000000
-3.652300 0.000000
-3.609900 0.000000
-3.567600 0.000000
-3.525200 0.000000
-3.482900 0.000000
-3.440500 0.000000
-3.398200 0.000000
-3.355800 0.000000
-3.313500 0.000000
-3.271100 0.000000
-3.228800 0.000000
-3.186400 0.000000
-3.144100 0.000000
-3.101700 0.000000
-3.059400 0.000000
-3.017000 0.000000
-2.974700 0.000000
-2.932300 0.000000
-2.890000 0.000000
-2.847600 0.000000
-2.805300 0.000000
-2.762900 0.000000
-2.720500 0.000000
-2.678200 0.000000
-2.635800 0.000000
-2.593500 0.000000
-2.551100 0.000000
-2.508800 0.000000
-2.466400 0.000000
-2.424100 0.000000
-2.381700 0.000000
-2.339400 0.000000
-2.297000 0.000000
-2.254700 0.000000
-2.212300 0.000000
-2.170000 0.000000
-2.127600 0.000000
-2.085300 0.000000
-2.042900 0.000000
-2.000600 0.000000
-1.958200 0.000000
-1.915900 0.000000
-1.873500 0.000000
-1.831200 0.000000
-1.788800 0.000000
-1.746500 0.000000
-1.704100 0.000000
-1.661800 0.000000
-1.619400 0.000000
-1.577100 0.067700
-1.534700 0.095100
-1.492300 0.126100
-1.450000 0.151000
-1.407600 0.162300
-1.365300 0.178300
-1.322900 0.192800
-1.280600 0.206800
-1.238200 0.225300
-1.195900 0.246800
-1.153500 0.269500
-1.111200 0.293700
-1.068800 0.314200
-1.026500 0.335900
-0.984100 0.360000
-0.941800 0.412600
-0.899400 0.436800
-0.857100 0.456300
-0.814700 0.455000
-0.772400 0.469500
-0.730000 0.483900
-0.687700 0.497200
-0.645300 0.512500
-0.603000 0.534000
-0.560600 0.555500
-0.518300 0.583100
-0.475900 0.610800
-0.433600 0.639800
-0.391200 0.668700
-0.348900 0.711200
-0.306500 0.756600
-0.264100 0.802100
-0.221800 0.931200
-0.179400 1.141600
-0.137100 1.343500
-0.094700 2.089700
-0.052400 2.514200
-0.010000 2.823200
0.032300 3.318300
0.074700 4.174800
0.117000 4.524200
0.159400 5.004100
0.201700 5.100300
0.244100 5.078900
0.286400 5.025200
0.328800 5.195200
0.371100 5.236100
0.413500 5.271000
0.455800 5.221700
0.498200 5.269400
0.540500 5.224900
0.582900 4.536900
0.625200 3.416000
0.667600 3.928300
0.709900 3.976900
0.752300 3.856600
0.794600 10.402600
0.837000 11.153900
0.879300 11.620900
0.921700 13.359500
0.964100 16.665900
1.006400 13.535900
1.048800 12.628900
1.091100 10.039300
1.133500 9.610500
1.175800 9.660800
1.218200 8.466700
1.260500 8.170100
1.302900 8.716900
1.345200 8.587100
1.387600 8.000100
1.429900 8.114400
1.472300 6.812800
1.514600 5.608500
1.557000 4.916900
1.599300 4.568300
1.641700 4.324500
1.684000 4.998500
1.726400 5.299300
1.768700 4.396100
1.811100 4.820900
1.853400 4.266900
1.895800 3.994300
1.938100 4.221100
1.980500 5.492200
2.022800 5.080100
2.065200 5.230800
2.107500 5.632600
2.149900 5.296100
2.192300 5.115600
2.234600 6.462300
2.277000 4.835600
2.319300 4.990500
2.361700 5.489400
2.404000 7.342000
2.446400 8.513100
2.488700 8.803400
2.531100 8.708300
2.573400 9.519000
2.615800 8.608200
2.658100 6.729000
2.700500 5.341900
2.742800 4.395800
2.785200 4.026000
2.827500 4.264900
2.869900 4.351200
2.912200 4.817200
2.954600 3.737100
2.996900 3.676000
3.039300 3.418500
3.081600 3.284700
3.124000 3.459300
3.166300 3.442400
3.208700 7.765100
3.251000 2.387200
3.293400 2.501100
3.335700 2.738300
3.378100 2.814100
3.420500 2.822200
3.462800 2.849600
3.505200 3.108100
3.547500 3.105100
3.589900 3.360900
3.632200 2.608300
3.674600 2.346100
3.716900 3.562300
3.759300 4.001500
3.801600 3.746200
3.844000 3.762800
3.886300 4.163300
3.928700 5.121700
3.971000 4.530800
4.013400 5.284500
4.055700 4.866500
4.098100 4.660500
4.140400 4.309000
4.182800 4.346200
4.225100 3.940800
4.267500 4.425000
4.309800 3.918600
4.352200 3.035400
4.394500 2.499500
4.436900 3.057300
4.479200 3.376100
4.521600 3.597300
4.563900 4.059300
4.606300 4.323200
4.648700 3.964900
4.691000 3.606300
4.733400 3.480900
4.775700 3.325300
4.818100 3.245400
4.860400 3.153400
4.902800 3.088000
4.945100 2.888100
4.987500 2.674500
5.029800 2.468100
5.072200 2.325200
5.114500 2.438500
5.156900 1.836800
5.199200 1.642300
5.241600 1.587800
5.283900 1.652600
5.326300 1.624000
5.368600 1.577600
5.411000 1.492700
5.453300 2.682500
5.495700 1.115000
5.538000 1.221900
5.580400 1.266900
5.622700 1.651500
5.665100 1.559200
5.707400 1.591400
5.749800 1.639700
5.792100 1.660200
5.834500 1.611800
5.876900 1.611400
5.919200 1.595800
5.961600 1.663600
6.003900 1.952200
6.046300 2.364800
6.088600 2.688100
6.131000 3.075500
6.173300 3.500900
6.215700 4.332500
6.258000 4.492200
6.300400 4.288000
6.342700 6.116100
6.385100 6.756200
6.427400 7.081300
6.469800 4.943300
6.512100 4.348100
6.554500 4.252900
6.596800 3.836700
6.639200 4.293700
6.681500 4.772400
6.723900 4.507600
6.766200 3.076400
6.808600 2.499100
6.850900 2.261900
6.893300 2.372600
6.935600 2.564400
6.978000 3.181500
7.020300 3.208000
7.062700 3.737000
7.105100 3.719900
7.147400 3.941900
7.189800 3.424400
7.232100 3.561200
7.274500 3.271800
7.316800 2.924600
7.359200 2.644000
7.401500 2.573100
7.443900 2.534900
7.486200 2.355700
7.528600 2.112600
7.570900 2.137200
7.613300 2.203500
7.655600 2.342800
7.698000 2.417700
7.740300 2.435300
7.782700 2.534400
7.825000 2.728000
7.867400 2.898200
7.909700 2.990100
7.952100 3.114000
7.994400 3.602400
8.036800 4.001800
8.079100 4.756000
8.121500 4.199400
8.163800 4.040400
8.206200 3.955700
8.248500 3.878700
8.290900 3.710700
8.333300 3.777000
8.375600 3.797000
8.418000 4.049600
8.460300 4.740700
8.502700 4.603600
8.545000 4.194400
8.587400 4.012800
8.629700 3.856800
8.672100 4.324800
8.714400 3.831900
8.756800 3.049300
8.799100 2.270000
8.841500 2.105400
8.883800 2.018700
8.926200 1.824600
8.968500 1.493300
9.010900 1.481700
9.053200 1.630500
9.095600 1.828400
9.137900 2.128700
9.180300 2.302500
9.222600 2.158300
9.265000 1.995900
9.307300 1.940900
9.349700 1.898500
9.392000 1.880900
9.434400 2.129200
9.476700 2.316400
9.519100 2.725500
9.561500 3.014400
9.603800 3.510100
9.646200 3.909700
9.688500 3.865700
9.730900 4.101000
9.773200 4.757400
9.815600 4.819200
9.857900 4.630100
9.900300 5.661500
9.942600 3.402800
9.985000 2.773700
10.027300 2.641900
10.069700 2.391800
10.112000 2.780500
10.154400 1.961700
10.196700 1.748800
10.239100 1.838700
10.281400 1.805500
10.323800 1.842800
10.366100 1.749200
10.408500 1.642200
10.450800 1.615800
10.493200 1.626900
10.535500 1.619500
10.577900 1.584500
10.620200 1.518400
10.662600 1.472800
10.704900 1.430800
10.747300 1.419400
10.789700 1.417800
10.832000 1.421000
10.874400 1.418200
10.916700 1.397800
10.959100 1.376900
11.001400 1.357100
11.043800 1.343500
11.086100 1.343500
11.128500 1.321100
11.170800 1.294600
11.213200 1.257400
11.255500 1.311400
11.297900 1.162400
11.340200 1.153600
11.382600 1.145300
11.424900 1.142900
11.467300 1.151000
11.509600 1.158600
11.552000 1.170800
11.594300 1.165100
11.636700 1.184800
11.679000 1.194300
11.721400 1.178000
11.763700 1.173000
11.806100 1.181900
11.848400 1.187200
11.890800 1.200400
11.933100 1.212800
11.975500 1.200500
12.017900 1.173200
12.060200 1.164000
12.102600 1.162600
12.144900 1.168900
12.187300 1.184800
12.229600 1.215900
12.272000 1.250100
12.314300 1.264700
12.356700 1.280800
12.399000 1.222200
12.441400 1.191800
12.483700 1.164300
12.526100 1.139400
12.568400 1.127700
12.610800 1.115700
12.653100 1.100800
12.695500 1.084800
12.737800 1.352700
12.780200 1.070600
12.822500 1.051500
12.864900 1.006500
12.907200 1.033600
12.949600 0.983500
12.991900 1.006400
13.034300 1.021600
13.076600 1.041400
13.119000 1.099500
13.161300 1.074100
13.203700 1.001400
13.246100 0.923100
13.288400 0.926300
13.330800 0.951800
13.373100 0.955100
13.415500 0.902100
13.457800 0.885300
13.500200 0.873700
13.542500 0.827000
13.584900 0.814800
13.627200 0.792300
13.669600 0.772200
13.711900 0.720300
13.754300 0.674700
13.796600 0.616400
13.839000 0.550000
13.881300 0.408900
13.923700 0.285600
13.966000 0.253000
14.008400 0.244600
14.050700 0.251700
14.093100 0.247700
14.135400 0.244400
14.177800 0.241700
14.220100 0.788700
14.262500 0.336700
14.304800 0.360700
14.347200 0.458500
14.389500 0.713200
14.431900 0.737900
14.474300 0.708500
14.516600 0.921300
14.559000 1.070200
14.601300 1.131900
14.643700 1.236500
14.686000 1.168500
14.728400 1.236100
14.770700 1.124700
14.813100 1.084800
14.855400 1.054900
14.897800 1.048900
14.940100 1.065600
14.982500 1.050400
15.024800 1.083100
15.067200 1.117700
15.109500 1.214100
15.151900 1.209600
15.194200 1.291100
15.236600 1.377300
15.278900 1.513700
15.321300 1.646400
15.363600 1.927700
15.406000 1.925400
15.448300 1.912400
15.490700 1.757600
15.533000 1.796700
15.575400 1.858900
15.617700 1.950200
15.660100 1.965800
15.702500 1.974400
15.744800 2.067900
15.787200 2.154500
15.829500 2.203100
15.871900 2.213400
15.914200 2.143800
15.956600 1.989100
15.998900 1.831900
16.041300 1.773400
16.083600 1.738400
16.126000 1.755300
16.168300 1.783600
16.210700 1.820000
16.253000 1.783700
16.295400 1.771500
16.337700 1.760300
16.380100 1.750500
16.422400 1.746800
16.464800 1.768700
16.507100 1.767700
16.549500 1.735700
16.591800 1.706900
16.634200 1.688400
16.676500 1.722900
16.718900 1.749800
16.761200 1.908000
16.803600 1.900500
16.845900 1.709500
16.888300 1.570600
16.930700 1.550500
16.973000 1.557600
17.015400 1.566000
17.057700 1.601400
17.100100 1.602200
17.142400 1.620600
17.184800 1.648200
17.227100 1.699000
17.269500 1.729000
17.311800 1.792100
17.354200 1.871500
17.396500 1.977700
17.438900 2.313700
17.481200 2.499500
17.523600 2.872800
17.565900 2.944900
17.608300 3.390200
17.650600 3.945900
17.693000 4.912800
17.735300 6.348600
17.777700 66.072800
17.820000 5.730400
17.862400 4.313300
17.904700 3.922800
17.947100 3.623900
17.989400 3.551500
18.031800 3.341500
18.074100 3.051700
18.116500 2.840000
18.158900 2.685500
18.201200 2.557600
18.243600 2.486000
18.285900 2.440300
18.328300 2.437300
18.370600 2.406700
18.413000 2.361700
18.455300 2.649500
18.497700 3.052400
18.540000 2.655700
18.582400 2.904600
18.624700 2.616000
18.667100 3.053800
18.709400 2.682900
18.751800 2.757100
18.794100 2.729300
18.836500 2.659400
18.878800 2.636900
18.921200 2.655700
18.963500 2.681400
19.005900 2.792800
19.048200 2.935900
19.090600 2.964600
19.132900 3.034400
19.175300 2.891600
19.217600 2.707500
19.260000 2.831700
19.302300 2.654500
19.344700 2.724500
19.387100 2.840500
19.429400 3.045400
19.471800 3.159400
19.514100 3.016800
19.556500 2.794300
19.598800 2.759500
19.641200 2.541300
19.683500 2.340500
19.725900 2.230400
19.768200 2.132400
19.810600 2.055800
19.852900 2.019200
19.895300 1.989800
19.937600 2.097000
19.980000 2.168000
20.022300 2.457700
20.064700 2.284600
20.107000 2.161000
20.149400 2.063500
20.191700 1.990600
20.234100 1.988500
20.276400 2.031800
20.318800 2.064800
20.361100 2.067800
20.403500 2.228800
20.445800 2.358700
20.488200 2.572200
20.530500 2.625600
20.572900 2.730700
20.615300 2.892700
20.657600 3.222100
20.700000 3.256000
20.742300 3.021400
20.784700 3.002900
20.827000 2.901800
20.869400 2.772500
20.911700 2.559700
20.954100 2.456400
20.996400 2.313100
21.038800 2.252400
21.081100 2.239100
21.123500 2.181400
21.165800 2.006600
21.208200 2.050400
21.250500 2.110400
21.292900 2.121500
21.335200 2.136000
21.377600 2.190200
21.419900 2.118000
21.462300 2.129900
21.504600 2.219900
21.547000 2.366200
21.589300 2.420100
21.631700 2.601900
21.674000 2.825500
21.716400 2.972200
21.758700 3.262800
21.801100 3.180100
21.843500 3.300700
21.885800 3.367800
21.928200 3.539600
21.970500 4.304400
22.012900 3.161200
22.055200 3.018600
22.097600 2.824300
22.139900 2.358000
22.182300 2.335500
22.224600 2.852800
22.267000 3.088400
22.309300 3.299100
22.351700 3.577000
22.394000 3.056000
22.436400 2.783700
22.478700 2.726200
22.521100 2.796100
22.563400 2.814500
22.605800 2.550400
22.648100 2.340600
22.690500 2.114600
22.732800 2.217800
22.775200 2.252300
22.817500 2.118800
22.859900 2.172600
22.902200 2.237800
22.944600 2.295700
22.986900 2.187700
23.029300 2.177300
23.071700 2.318600
23.114000 2.246000
23.156400 2.307400
23.198700 2.357500
23.241100 2.418100
23.283400 2.541900
23.325800 2.550600
23.368100 2.463800
23.410500 2.468800
23.452800 2.526000
23.495200 2.730800
23.537500 2.939200
23.579900 2.727800
23.622200 2.773300
23.664600 2.906100
23.706900 3.096300
23.749300 3.208100
23.791600 2.840900
23.834000 2.818800
23.876300 2.946500
23.918700 2.700500
23.961000 2.691100
24.003400 2.635000
24.045700 2.441500
24.088100 2.343500
24.130400 2.369200
24.172800 2.529800
24.215100 2.740100
24.257500 2.774700
24.299900 2.710000
24.342200 2.482900
24.384600 1.991000
24.426900 2.030700
24.469300 2.089300
24.511600 2.111600
24.554000 2.221700
24.596300 2.314900
24.638700 2.323400
24.681000 2.416700
24.723400 2.481500
24.765700 2.344500
24.808100 2.297900
24.850400 2.241200
24.892800 1.954700
24.935100 1.886100
24.977500 1.982700
25.019800 2.082600
25.062200 2.203300
25.104500 2.350200
25.146900 2.615000
25.189200 3.071700
25.231600 3.304500
25.273900 3.399800
25.316300 3.566000
25.358600 3.752600
25.401000 3.116300
25.443300 3.318700
25.485700 3.239200
25.528100 4.252600
25.570400 4.925900
25.612800 7.243700
25.655100 8.812600
25.697500 8.049000
25.739800 8.329000
25.782200 12.330900
25.824500 18.787500
25.866900 16.501900
25.909200 16.425300
25.951600 23.802100
25.993900 13.733400
26.036300 13.300000
26.078600 15.538000
26.121000 8.962700
26.163300 11.828200
26.205700 9.154000
26.248000 9.354800
26.290400 13.832700
26.332700 18.682600
26.375100 11.709000
26.417400 8.947800
26.459800 8.199300
26.502100 6.443300
26.544500 5.772300
26.586800 4.988800
26.629200 4.507800
26.671500 3.536200
26.713900 3.120200
26.756300 2.980400
26.798600 3.444500
26.841000 4.140500
26.883300 3.157100
26.925700 3.682600
26.968000 3.285300
27.010400 3.221800
27.052700 3.213900
27.095100 3.281100
27.137400 3.224300
27.179800 3.196200
27.222100 3.226300
27.264500 3.272700
27.306800 3.011100
27.349200 2.912900
27.391500 2.850300
27.433900 2.652900
27.476200 2.591400
27.518600 2.595200
27.560900 2.573900
27.603300 2.469000
27.645600 2.450400
27.688000 2.389000
27.730300 2.228900
27.772700 2.205400
27.815000 2.180300
27.857400 2.176200
27.899700 2.198000
27.942100 2.227000
27.984500 2.320000
28.026800 2.204100
28.069200 2.337500
28.111500 2.540500
28.153900 2.541600
28.196200 2.580500
28.238600 2.592300
28.280900 2.653300
28.323300 2.880100
28.365600 3.017500
28.408000 3.412200
28.450300 3.171700
28.492700 2.972500
28.535000 2.662600
28.577400 2.659000
28.619700 2.615700
28.662100 2.560000
28.704400 2.517600
28.746800 2.531700
28.789100 2.410100
28.831500 2.300700
28.873800 2.218300
28.916200 2.202100
28.958500 2.131500
29.000900 2.083200
29.043200 2.059300
29.085600 2.069400
29.127900 2.094600
29.170300 2.223700
29.212700 2.371200
29.255000 2.361100
29.297400 2.389200
29.339700 2.663700
29.382100 2.496400
29.424400 2.635500
29.466800 2.661500
29.509100 2.669800
29.551500 2.743500
29.593800 2.622100
29.636200 2.473800
29.678500 2.347700
29.720900 2.372000
29.763200 2.391100
29.805600 2.418200
29.847900 2.373000
29.890300 2.316900
29.932600 2.345400
29.975000 2.383800
30.017300 2.455400
30.059700 2.567900
30.102000 2.379200
30.144400 2.137300
30.186700 2.056300
30.229100 2.032800
30.271400 2.141700
30.313800 2.227000
30.356100 2.376100
30.398500 2.647500
30.440900 2.463600
30.483200 2.925300
30.525600 3.099100
30.567900 3.187000
30.610300 2.978600
30.652600 3.304100
30.695000 3.170400
30.737300 2.996300
30.779700 2.672600
30.822000 2.916000
30.864400 3.185700
30.906700 3.100700
30.949100 2.909300
30.991400 3.215900
31.033800 3.225400
31.076100 3.592900
31.118500 3.741900
31.160800 3.746800
31.203200 3.437500
31.245500 3.176100
31.287900 3.130300
31.330200 3.113300
31.372600 2.879000
31.414900 2.781600
31.457300 2.773800
31.499600 2.363800
31.542000 2.412000
31.584300 2.501600
31.626700 3.071400
31.669100 3.027400
31.711400 3.186700
31.753800 3.195500
31.796100 3.118800
31.838500 2.956200
31.880800 2.855500
31.923200 2.815500
31.965500 2.905800
32.007900 3.049700
32.050200 2.996900
32.092600 2.860500
32.134900 2.765400
32.177300 2.601800
32.219600 2.489900
32.262000 2.420600
32.304300 2.339800
32.346700 2.304100
32.389000 2.259500
32.431400 2.181100
32.473700 2.146200
32.516100 2.152300
32.558400 2.131700
32.600800 2.294200
32.643100 2.455600
32.685500 2.696700
32.727800 2.617500
32.770200 2.587500
32.812500 2.413000
32.854900 2.636300
32.897300 2.791700
32.939600 2.734300
32.982000 2.985600
33.024300 2.985000
33.066700 3.104500
33.109000 3.369600
33.151400 3.620100
33.193700 3.714500
33.236100 3.644100
33.278400 3.463000
33.320800 3.190700
33.363100 3.091800
33.405500 3.204700
33.447800 3.179800
33.490200 3.080500
33.532500 2.958800
33.574900 3.243200
33.617200 3.152800
33.659600 2.937000
33.701900 2.957400
33.744300 2.873500
33.786600 2.784700
33.829000 2.891900
33.871300 2.766500
33.913700 2.765900
33.956000 2.679200
33.998400 2.625100
34.040700 2.578600
34.083100 2.539600
34.125500 2.545800
34.167800 2.592100
34.210200 2.558200
34.252500 2.606700
34.294900 2.658900
34.337200 2.805800
34.379600 2.980700
34.421900 2.830100
34.464300 2.739600
34.506600 2.671300
34.549000 2.668800
34.591300 2.709900
34.633700 2.648200
34.676000 2.703700
34.718400 3.331300
34.760700 3.348400
34.803100 4.190900
34.845400 3.041900
34.887800 2.896300
34.930100 2.810700
34.972500 2.639400
35.014800 2.515600
35.057200 2.372600
35.099500 2.321900
35.141900 2.319000
35.184200 2.486400
35.226600 2.569800
35.268900 2.614500
35.311300 2.633100
35.353700 2.760400
35.396000 2.938300
35.438400 3.197500
35.480700 3.279100
35.523100 2.598400
35.565400 2.739000
35.607800 2.816000
35.650100 2.697900
35.692500 2.691600
35.734800 2.699600
35.777200 2.693700
35.819500 2.714500
35.861900 2.737400
35.904200 2.447600
35.946600 2.583300
35.988900 2.606400
36.031300 2.651400
36.073600 2.727400
36.116000 2.891500
36.158300 2.983800
36.200700 3.121800
36.243000 3.237100
36.285400 3.263400
36.327700 3.275700
36.370100 3.231400
36.412400 3.331900
36.454800 3.375700
36.497100 3.366900
36.539500 3.273600
36.581900 3.135000
36.624200 3.090400
36.666600 2.882100
36.708900 2.907700
36.751300 2.838100
36.793600 2.830200
36.836000 2.822500
36.878300 2.753400
36.920700 2.647400
36.963000 2.693000
37.005400 2.599800
37.047700 2.558700
37.090100 2.565700
37.132400 2.601000
37.174800 2.665900
37.217100 2.642400
37.259500 2.652400
37.301800 2.710900
37.344200 2.657800
37.386500 2.701400
37.428900 2.750400
37.471200 2.651900
37.513600 2.672600
37.555900 2.469500
37.598300 2.414800
37.640600 2.473600
37.683000 2.807800
37.725300 2.894300
37.767700 2.956000
37.810100 3.262800
37.852400 3.081000
37.894800 2.911100
37.937100 2.878400
37.979500 2.874200
38.021800 2.896100
38.064200 3.130800
38.106500 3.029900
38.148900 2.889100
38.191200 2.647700
38.233600 2.506100
38.275900 2.544100
38.318300 2.493200
38.360600 2.550200
38.403000 2.414700
38.445300 2.982800
38.487700 2.736600
38.530000 2.777200
38.572400 2.799500
38.614700 2.887300
38.657100 2.985500
38.699400 2.857500
38.741800 2.845100
38.784100 2.807200
38.826500 2.959100
38.868800 2.974700
38.911200 3.167600
38.953500 3.021300
38.995900 2.987700
39.038300 2.925600
39.080600 3.087400
39.123000 3.181100
39.165300 2.933900
39.207700 3.061000
39.250000 3.306800
39.292400 3.251800
39.334700 3.460000
39.377100 3.571600
39.419400 3.763600
39.461800 4.093300
39.504100 3.904500
39.546500 3.475200
39.588800 3.343100
39.631200 3.343200
39.673500 3.305900
39.715900 3.323700
39.758200 3.091400
39.800600 3.150400
39.842900 3.249200
39.885300 3.408000
39.927600 3.547000
39.970000 3.644000
40.012300 3.611900
40.054700 3.498900
40.097000 3.547200
40.139400 3.978600
40.181700 4.420100
40.224100 4.123100
40.266500 4.100800
40.308800 4.127800
40.351200 3.961500
40.393500 3.896000
40.435900 3.523800
40.478200 3.442600
40.520600 3.318000
40.562900 3.514300
40.605300 3.151500
40.647600 3.083300
40.690000 3.033400
40.732300 3.009800
40.774700 3.074100
40.817000 3.082500
40.859400 3.159500
40.901700 3.384100
40.944100 3.150800
40.986400 3.150800
41.028800 3.527400
41.071100 3.470100
41.113500 3.516600
41.155800 3.629000
41.198200 3.338100
41.240500 3.236800
41.282900 3.209400
41.325200 2.988300
41.367600 3.197300
41.409900 2.944400
41.452300 2.861700
41.494700 2.720300
41.537000 3.119800
41.579400 3.184300
41.621700 2.766700
41.664100 2.786600
41.706400 2.932600
41.748800 3.426500
41.791100 4.437300
41.833500 3.422500
41.875800 2.946000
41.918200 2.983100
41.960500 3.117400
42.002900 3.275500
42.045200 2.837300
42.087600 2.790800
42.129900 2.675600
42.172300 2.527600
42.214600 2.417200
42.257000 2.559700
42.299300 2.655600
42.341700 2.673000
42.384000 2.467900
42.426400 2.488500
42.468700 2.660100
42.511100 2.956900
42.553400 2.963600
42.595800 2.801100
42.638100 2.897100
42.680500 3.005100
42.722900 2.944600
42.765200 2.864800
42.807600 2.947000
42.849900 2.978100
42.892300 3.179200
42.934600 3.075000
42.977000 3.166700
43.019300 3.342200
43.061700 3.266000
43.104000 3.406800
43.146400 3.339100
43.188700 3.340100
43.231100 3.373900
43.273400 3.320800
43.315800 3.141200
43.358100 3.145700
43.400500 3.179000
43.442800 3.080200
43.485200 2.968300
43.527500 3.056600
43.569900 3.211700
43.612200 3.310100
43.654600 3.513100
43.696900 3.804200
43.739300 4.018900
43.781600 4.172600
43.824000 4.215800
43.866300 4.161900
43.908700 4.182300
43.951100 3.571500
43.993400 3.416000
44.035800 3.226200
44.078100 3.256100
44.120500 3.704200
44.162800 3.765700
44.205200 3.731400
44.247500 3.671600
44.289900 3.691000
44.332200 3.751600
44.374600 3.757400
44.416900 3.838700
44.459300 3.746400
44.501600 4.141100
44.544000 3.606600
44.586300 3.478200
44.628700 3.523300
44.671000 3.388000
44.713400 3.279000
44.755700 3.275000
44.798100 3.184900
44.840400 3.132500
44.882800 3.098000
44.925100 3.112300
44.967500 3.125000
45.009800 3.463100
45.052200 3.364800
45.094500 2.948200
45.136900 2.964800
45.179300 2.814200
45.221600 2.698700
45.264000 2.624200
45.306300 2.856600
45.348700 2.679700
45.391000 2.601800
45.433400 2.681700
45.475700 2.851800
45.518100 2.834200
45.560400 3.061700
45.602800 3.233000
45.645100 2.888500
45.687500 2.688400
45.729800 2.818900
45.772200 3.017300
45.814500 2.895200
45.856900 2.647400
45.899200 2.428500
45.941600 2.091800
45.983900 1.955400
46.026300 1.864200
46.068600 1.744500
46.111000 1.615100
46.153300 1.469200
46.195700 1.338600
46.238000 1.217300
46.280400 1.104400
46.322700 1.004900
46.365100 0.954700
46.407500 0.905100
46.449800 0.880200
46.492200 0.910000
46.534500 0.722800
46.576900 0.701200
46.619200 0.646100
46.661600 0.591400
46.703900 0.566500
46.746300 0.539200
46.788600 0.501200
46.831000 0.469100
46.873300 0.439200
46.915700 0.410100
46.958000 0.381700
47.000400 0.353300
47.042700 0.341900
47.085100 0.315800
47.127400 0.271500
47.169800 0.223800
47.212100 0.198000
47.254500 0.168400
47.296800 0.137100
47.339200 0.119000
47.381500 0.106500
47.423900 0.094700
47.466200 0.083700
47.508600 0.073200
47.550900 0.063500
47.593300 0.054300
47.635700 0.045900
47.678000 0.038100
47.720400 0.030900
47.762700 0.024400
47.805100 0.016000
47.847400 0.001100
47.889800 0.000000
47.932100 0.000000
47.974500 0.000000
48.016800 0.000000
48.059200 0.000000
48.101500 0.000000
48.143900 0.000000
48.186200 0.000000
48.228600 0.000000
48.270900 0.000000
48.313300 0.000000
48.355600 0.000000
48.398000 0.000000
48.440300 0.000000
48.482700 0.000000
48.525000 0.000000
48.567400 0.000000
48.609700 0.000000
48.652100 0.000000
48.694400 0.000000
48.736800 0.000000
48.779100 0.000000
48.821500 0.000000
48.863900 0.000000
48.906200 0.000000
48.948600 0.000000
48.990900 0.000000
49.033300 0.000000
49.075600 0.000000
49.118000 0.000000
49.160300 0.000000
49.202700 0.000000
49.245000 0.000000
49.287400 0.000000
49.329700 0.000000
49.372100 0.000000
49.414400 0.000000
49.456800 0.000000
49.499100 0.000000
49.541500 0.000000
49.583800 0.000000
49.626200 0.000000
49.668500 0.000000
49.710900 0.000000
49.753200 0.000000
49.795600 0.000000
49.837900 0.000000
49.880300 0.000000
49.922600 0.000000
49.965000 0.000000
50.007300 0.000000
50.049700 0.000000
50.092100 0.000000
50.134400 0.000000
50.176800 0.000000
50.219100 0.000000
50.261500 0.000000
50.303800 0.000000
50.346200 0.000000
50.388500 0.000000
50.430900 0.000000
50.473200 0.000000
50.515600 0.000000
50.557900 0.000000
50.600300 0.000000
50.642600 0.000000
50.685000 0.000000
50.727300 0.000000
50.769700 0.000000
50.812000 0.000000
50.854400 0.000000
50.896700 0.000000
50.939100 0.000000
50.981400 0.000000
51.023800 0.000000
51.066100 0.000000
51.108500 0.000000
51.150800 0.000000
51.193200 0.000000
51.235500 0.000000
51.277900 0.000000
51.320300 0.000000
51.362600 0.000000
51.405000 0.000000
51.447300 0.000000
51.489700 0.000000
51.532000 0.000000
51.574400 0.000000
51.616700 0.000000
51.659100 0.000000
51.701400 0.000000
51.743800 0.000000
e
