set title 'mp-1215473 - Density of States'
set xlabel 'Energy (eV)'
set ylabel 'DOS (states/eV)'
set grid
set xrange [-10:10]
set yrange [0:6.784]
set xzeroaxis lt -1
set terminal png size 800,600
set output 'mp-1215473_dos_gnuplot.png'
plot '-' using 1:2 with lines title 'DOS'
-56.012200 0.000000
-55.947500 0.000000
-55.882900 0.000000
-55.818200 0.000000
-55.753600 0.000000
-55.688900 0.000000
-55.624200 0.000000
-55.559600 0.000000
-55.494900 0.000000
-55.430300 0.000000
-55.365600 0.000000
-55.300900 0.000000
-55.236300 0.000000
-55.171600 0.000000
-55.107000 0.000000
-55.042300 0.000000
-54.977600 0.000000
-54.913000 0.000000
-54.848300 0.000000
-54.783700 0.000000
-54.719000 0.000000
-54.654300 0.000000
-54.589700 0.000000
-54.525000 0.000000
-54.460400 0.000000
-54.395700 0.000000
-54.331000 0.000000
-54.266400 0.000000
-54.201700 0.000000
-54.137100 0.000000
-54.072400 0.000000
-54.007700 0.000000
-53.943100 0.000000
-53.878400 0.000000
-53.813800 0.000000
-53.749100 0.000000
-53.684400 0.000000
-53.619800 0.000000
-53.555100 0.000000
-53.490500 0.000000
-53.425800 0.000000
-53.361100 0.000000
-53.296500 0.000000
-53.231800 0.000000
-53.167200 0.000000
-53.102500 0.000000
-53.037800 0.000000
-52.973200 0.000000
-52.908500 0.000000
-52.843900 0.000000
-52.779200 0.000000
-52.714600 0.000000
-52.649900 0.000000
-52.585200 0.000000
-52.520600 0.000000
-52.455900 0.000000
-52.391300 0.000000
-52.326600 0.000000
-52.261900 0.000000
-52.197300 0.000000
-52.132600 0.000000
-52.068000 0.000000
-52.003300 0.000000
-51.938600 0.000000
-51.874000 0.000000
-51.809300 0.000000
-51.744700 0.000000
-51.680000 0.000000
-51.615300 0.000000
-51.550700 0.000000
-51.486000 0.000000
-51.421400 0.000000
-51.356700 0.000000
-51.292000 0.000000
-51.227400 0.000000
-51.162700 0.000000
-51.098100 0.000000
-51.033400 0.000000
-50.968700 0.000000
-50.904100 0.000000
-50.839400 0.000000
-50.774800 0.000000
-50.710100 0.000000
-50.645400 0.000000
-50.580800 0.000000
-50.516100 0.000000
-50.451500 0.000000
-50.386800 0.000000
-50.322100 0.000000
-50.257500 0.000000
-50.192800 0.000000
-50.128200 11.969700
-50.063500 7.425300
-49.998800 8.066500
-49.934200 0.000000
-49.869500 0.000000
-49.804900 0.000000
-49.740200 0.000000
-49.675500 0.000000
-49.610900 0.000000
-49.546200 0.000000
-49.481600 0.000000
-49.416900 0.000000
-49.352300 0.000000
-49.287600 0.000000
-49.222900 0.000000
-49.158300 0.000000
-49.093600 0.000000
-49.029000 0.000000
-48.964300 0.000000
-48.899600 0.000000
-48.835000 0.000000
-48.770300 0.000000
-48.705700 0.000000
-48.641000 0.000000
-48.576300 0.000000
-48.511700 0.000000
-48.447000 0.000000
-48.382400 0.000000
-48.317700 0.000000
-48.253000 0.000000
-48.188400 0.000000
-48.123700 0.000000
-48.059100 0.000000
-47.994400 0.000000
-47.929700 0.000000
-47.865100 0.000000
-47.800400 0.000000
-47.735800 0.000000
-47.671100 0.000000
-47.606400 0.000000
-47.541800 0.000000
-47.477100 0.000000
-47.412500 0.000000
-47.347800 0.000000
-47.283100 0.000000
-47.218500 0.000000
-47.153800 0.000000
-47.089200 0.000000
-47.024500 0.000000
-46.959800 0.000000
-46.895200 0.000000
-46.830500 0.000000
-46.765900 0.000000
-46.701200 0.000000
-46.636500 0.000000
-46.571900 0.000000
-46.507200 0.000000
-46.442600 0.000000
-46.377900 0.000000
-46.313200 0.000000
-46.248600 0.000000
-46.183900 0.000000
-46.119300 0.000000
-46.054600 0.000000
-45.989900 0.000000
-45.925300 0.000000
-45.860600 0.000000
-45.796000 0.000000
-45.731300 0.000000
-45.666700 0.000000
-45.602000 0.000000
-45.537300 0.000000
-45.472700 0.000000
-45.408000 0.000000
-45.343400 0.000000
-45.278700 0.000000
-45.214000 0.000000
-45.149400 0.000000
-45.084700 0.000000
-45.020100 0.000000
-44.955400 0.000000
-44.890700 0.000000
-44.826100 0.000000
-44.761400 0.000000
-44.696800 0.000000
-44.632100 0.000000
-44.567400 0.000000
-44.502800 0.000000
-44.438100 0.000000
-44.373500 0.000000
-44.308800 0.000000
-44.244100 0.000000
-44.179500 0.000000
-44.114800 0.000000
-44.050200 0.000000
-43.985500 0.000000
-43.920800 0.000000
-43.856200 0.000000
-43.791500 0.000000
-43.726900 0.000000
-43.662200 0.000000
-43.597500 0.000000
-43.532900 0.000000
-43.468200 0.000000
-43.403600 0.000000
-43.338900 0.000000
-43.274200 0.000000
-43.209600 0.000000
-43.144900 0.000000
-43.080300 0.000000
-43.015600 0.000000
-42.950900 0.000000
-42.886300 0.000000
-42.821600 0.000000
-42.757000 0.000000
-42.692300 0.000000
-42.627600 0.000000
-42.563000 0.000000
-42.498300 0.000000
-42.433700 0.000000
-42.369000 0.000000
-42.304400 0.000000
-42.239700 0.000000
-42.175000 0.000000
-42.110400 0.000000
-42.045700 0.000000
-41.981100 0.000000
-41.916400 0.000000
-41.851700 0.000000
-41.787100 0.000000
-41.722400 0.000000
-41.657800 0.000000
-41.593100 0.000000
-41.528400 0.000000
-41.463800 0.000000
-41.399100 0.000000
-41.334500 0.000000
-41.269800 0.000000
-41.205100 0.000000
-41.140500 0.000000
-41.075800 0.000000
-41.011200 0.000000
-40.946500 0.000000
-40.881800 0.000000
-40.817200 0.000000
-40.752500 0.000000
-40.687900 0.000000
-40.623200 0.000000
-40.558500 0.000000
-40.493900 0.000000
-40.429200 0.000000
-40.364600 0.000000
-40.299900 0.000000
-40.235200 0.000000
-40.170600 0.000000
-40.105900 0.000000
-40.041300 0.000000
-39.976600 0.000000
-39.911900 0.000000
-39.847300 0.000000
-39.782600 0.000000
-39.718000 0.000000
-39.653300 0.000000
-39.588600 0.000000
-39.524000 0.000000
-39.459300 0.000000
-39.394700 0.000000
-39.330000 0.000000
-39.265300 0.000000
-39.200700 0.000000
-39.136000 0.000000
-39.071400 0.000000
-39.006700 0.000000
-38.942000 0.000000
-38.877400 0.000000
-38.812700 0.000000
-38.748100 0.000000
-38.683400 0.000000
-38.618800 0.000000
-38.554100 0.000000
-38.489400 0.000000
-38.424800 0.000000
-38.360100 0.000000
-38.295500 0.000000
-38.230800 0.000000
-38.166100 0.000000
-38.101500 0.000000
-38.036800 0.000000
-37.972200 0.000000
-37.907500 0.000000
-37.842800 0.000000
-37.778200 0.000000
-37.713500 0.000000
-37.648900 0.000000
-37.584200 0.000000
-37.519500 0.000000
-37.454900 0.000000
-37.390200 0.000000
-37.325600 0.000000
-37.260900 0.000000
-37.196200 0.000000
-37.131600 0.000000
-37.066900 0.000000
-37.002300 0.000000
-36.937600 0.000000
-36.872900 0.000000
-36.808300 0.000000
-36.743600 0.000000
-36.679000 0.000000
-36.614300 0.000000
-36.549600 0.000000
-36.485000 0.000000
-36.420300 0.000000
-36.355700 0.000000
-36.291000 0.000000
-36.226300 0.000000
-36.161700 0.000000
-36.097000 0.000000
-36.032400 0.000000
-35.967700 0.000000
-35.903000 0.000000
-35.838400 0.000000
-35.773700 0.000000
-35.709100 0.000000
-35.644400 0.000000
-35.579700 0.000000
-35.515100 0.000000
-35.450400 0.000000
-35.385800 0.000000
-35.321100 0.000000
-35.256500 0.000000
-35.191800 0.000000
-35.127100 0.000000
-35.062500 0.000000
-34.997800 0.000000
-34.933200 0.000000
-34.868500 0.000000
-34.803800 0.000000
-34.739200 0.000000
-34.674500 0.000000
-34.609900 0.000000
-34.545200 0.000000
-34.480500 0.000000
-34.415900 0.000000
-34.351200 0.000000
-34.286600 0.000000
-34.221900 0.000000
-34.157200 0.000000
-34.092600 0.000000
-34.027900 0.000000
-33.963300 0.000000
-33.898600 0.000000
-33.833900 0.000000
-33.769300 0.000000
-33.704600 0.000000
-33.640000 0.000000
-33.575300 0.000000
-33.510600 0.000000
-33.446000 0.000000
-33.381300 0.000000
-33.316700 0.000000
-33.252000 0.000000
-33.187300 0.000000
-33.122700 0.000000
-33.058000 0.000000
-32.993400 0.000000
-32.928700 0.000000
-32.864000 0.000000
-32.799400 0.000000
-32.734700 0.000000
-32.670100 0.000000
-32.605400 0.000000
-32.540700 0.000000
-32.476100 0.000000
-32.411400 0.000000
-32.346800 0.000000
-32.282100 0.000000
-32.217400 0.000000
-32.152800 0.000000
-32.088100 0.000000
-32.023500 0.000000
-31.958800 0.000000
-31.894200 0.000000
-31.829500 0.000000
-31.764800 0.000000
-31.700200 0.000000
-31.635500 0.000000
-31.570900 0.000000
-31.506200 0.000000
-31.441500 0.000000
-31.376900 0.000000
-31.312200 0.000000
-31.247600 0.000000
-31.182900 0.000000
-31.118200 0.000000
-31.053600 0.000000
-30.988900 0.000000
-30.924300 0.000000
-30.859600 0.000000
-30.794900 0.000000
-30.730300 0.000000
-30.665600 0.000000
-30.601000 0.000000
-30.536300 0.000000
-30.471600 0.000000
-30.407000 0.000000
-30.342300 0.000000
-30.277700 0.000000
-30.213000 0.000000
-30.148300 0.000000
-30.083700 0.000000
-30.019000 0.000000
-29.954400 0.000000
-29.889700 0.000000
-29.825000 0.000000
-29.760400 0.000000
-29.695700 0.000000
-29.631100 0.000000
-29.566400 0.000000
-29.501700 0.000000
-29.437100 0.000000
-29.372400 0.000000
-29.307800 0.000000
-29.243100 0.000000
-29.178400 0.000000
-29.113800 0.000000
-29.049100 0.000000
-28.984500 0.000000
-28.919800 0.000000
-28.855100 0.000000
-28.790500 0.000000
-28.725800 0.000000
-28.661200 0.000000
-28.596500 0.000000
-28.531800 0.000000
-28.467200 0.000000
-28.402500 0.000000
-28.337900 0.000000
-28.273200 0.000000
-28.208600 0.000000
-28.143900 0.000000
-28.079200 0.000000
-28.014600 0.000000
-27.949900 0.000000
-27.885300 0.000000
-27.820600 0.000000
-27.755900 0.000000
-27.691300 0.000000
-27.626600 0.000000
-27.562000 0.000000
-27.497300 0.000000
-27.432600 0.000000
-27.368000 0.000000
-27.303300 0.000000
-27.238700 0.000000
-27.174000 0.000000
-27.109300 0.000000
-27.044700 0.000000
-26.980000 0.000000
-26.915400 0.000000
-26.850700 0.000000
-26.786000 0.000000
-26.721400 0.000000
-26.656700 0.000000
-26.592100 0.000000
-26.527400 0.000000
-26.462700 0.000000
-26.398100 0.000000
-26.333400 0.000000
-26.268800 0.000000
-26.204100 0.000000
-26.139400 0.000000
-26.074800 0.000000
-26.010100 0.000000
-25.945500 0.000000
-25.880800 0.000000
-25.816100 0.000000
-25.751500 0.000000
-25.686800 0.000000
-25.622200 0.000000
-25.557500 0.000000
-25.492800 0.000000
-25.428200 0.000000
-25.363500 0.000000
-25.298900 0.000000
-25.234200 0.000000
-25.169500 0.000000
-25.104900 0.000000
-25.040200 0.000000
-24.975600 0.000000
-24.910900 0.000000
-24.846300 0.000000
-24.781600 0.000000
-24.716900 0.000000
-24.652300 0.000000
-24.587600 0.000000
-24.523000 0.000000
-24.458300 0.000000
-24.393600 0.000000
-24.329000 0.000000
-24.264300 0.000000
-24.199700 0.000000
-24.135000 0.000000
-24.070300 0.000000
-24.005700 0.000000
-23.941000 0.000000
-23.876400 0.000000
-23.811700 0.000000
-23.747000 0.000000
-23.682400 0.000000
-23.617700 0.000000
-23.553100 0.000000
-23.488400 0.000000
-23.423700 0.000000
-23.359100 0.000000
-23.294400 0.000000
-23.229800 0.000000
-23.165100 0.000000
-23.100400 0.000000
-23.035800 0.000000
-22.971100 0.000000
-22.906500 0.000000
-22.841800 0.000000
-22.777100 0.000000
-22.712500 0.000000
-22.647800 0.000000
-22.583200 0.000000
-22.518500 0.000000
-22.453800 0.000000
-22.389200 0.000000
-22.324500 0.000000
-22.259900 0.000000
-22.195200 0.000000
-22.130500 0.000000
-22.065900 0.000000
-22.001200 0.000000
-21.936600 0.000000
-21.871900 0.000000
-21.807200 0.000000
-21.742600 0.000000
-21.677900 0.000000
-21.613300 0.000000
-21.548600 0.000000
-21.483900 0.000000
-21.419300 0.000000
-21.354600 0.000000
-21.290000 0.000000
-21.225300 0.000000
-21.160700 0.000000
-21.096000 0.000000
-21.031300 0.000000
-20.966700 0.000000
-20.902000 0.000000
-20.837400 0.000000
-20.772700 0.000000
-20.708000 0.000000
-20.643400 0.000000
-20.578700 0.000000
-20.514100 0.000000
-20.449400 0.000000
-20.384700 0.000000
-20.320100 0.000000
-20.255400 0.000000
-20.190800 0.000000
-20.126100 0.000000
-20.061400 0.000000
-19.996800 0.000000
-19.932100 0.000000
-19.867500 0.000000
-19.802800 0.000000
-19.738100 0.000000
-19.673500 0.000000
-19.608800 0.000000
-19.544200 0.000000
-19.479500 0.000000
-19.414800 0.000000
-19.350200 0.000000
-19.285500 0.000000
-19.220900 0.000000
-19.156200 0.000000
-19.091500 0.000000
-19.026900 0.000000
-18.962200 0.000000
-18.897600 0.000000
-18.832900 0.000000
-18.768200 0.000000
-18.703600 0.000000
-18.638900 0.000000
-18.574300 0.000000
-18.509600 0.000000
-18.444900 0.000000
-18.380300 0.000000
-18.315600 0.000000
-18.251000 0.000000
-18.186300 0.000000
-18.121600 0.000000
-18.057000 0.000000
-17.992300 0.000000
-17.927700 0.000000
-17.863000 0.000000
-17.798400 0.000000
-17.733700 0.000000
-17.669000 0.000000
-17.604400 0.000000
-17.539700 0.000000
-17.475100 0.000000
-17.410400 0.000000
-17.345700 0.000000
-17.281100 0.000000
-17.216400 0.000000
-17.151800 0.000000
-17.087100 0.000000
-17.022400 0.000000
-16.957800 0.000000
-16.893100 0.000000
-16.828500 0.000000
-16.763800 0.000000
-16.699100 0.000000
-16.634500 0.000000
-16.569800 0.000000
-16.505200 0.000000
-16.440500 0.000000
-16.375800 0.000000
-16.311200 0.000000
-16.246500 0.000000
-16.181900 0.000000
-16.117200 0.000000
-16.052500 0.000000
-15.987900 0.000000
-15.923200 0.000000
-15.858600 0.000000
-15.793900 0.000000
-15.729200 0.000000
-15.664600 0.000000
-15.599900 0.000000
-15.535300 0.000000
-15.470600 0.000000
-15.405900 0.000000
-15.341300 0.000000
-15.276600 0.000000
-15.212000 0.000000
-15.147300 0.000000
-15.082600 0.000000
-15.018000 0.000000
-14.953300 0.000000
-14.888700 0.000000
-14.824000 0.000000
-14.759300 0.000000
-14.694700 0.000000
-14.630000 0.000000
-14.565400 0.000000
-14.500700 0.000000
-14.436000 0.000000
-14.371400 0.000000
-14.306700 0.000000
-14.242100 0.000000
-14.177400 0.000000
-14.112800 0.000000
-14.048100 0.000000
-13.983400 0.000000
-13.918800 0.000000
-13.854100 0.000000
-13.789500 0.000000
-13.724800 0.000000
-13.660100 0.000000
-13.595500 0.000000
-13.530800 0.000000
-13.466200 0.000000
-13.401500 0.000000
-13.336800 0.000000
-13.272200 0.000000
-13.207500 0.000000
-13.142900 0.000000
-13.078200 0.000000
-13.013500 0.000000
-12.948900 0.000000
-12.884200 0.000000
-12.819600 0.000000
-12.754900 0.000000
-12.690200 0.000000
-12.625600 0.000000
-12.560900 0.000000
-12.496300 0.000000
-12.431600 0.000000
-12.366900 0.000000
-12.302300 0.000000
-12.237600 0.000000
-12.173000 0.000000
-12.108300 0.000000
-12.043600 0.000000
-11.979000 0.000000
-11.914300 0.000000
-11.849700 0.000000
-11.785000 0.000000
-11.720300 0.000000
-11.655700 0.000000
-11.591000 0.000000
-11.526400 0.000000
-11.461700 0.000000
-11.397000 0.000000
-11.332400 0.000000
-11.267700 0.000000
-11.203100 0.000000
-11.138400 0.000000
-11.073700 0.000000
-11.009100 0.000000
-10.944400 0.000000
-10.879800 0.000000
-10.815100 0.000000
-10.750500 0.000000
-10.685800 0.000000
-10.621100 0.000000
-10.556500 0.000000
-10.491800 0.000000
-10.427200 0.000000
-10.362500 0.000000
-10.297800 0.000000
-10.233200 0.000000
-10.168500 0.000000
-10.103900 0.000000
-10.039200 0.000000
-9.974500 0.000000
-9.909900 0.000000
-9.845200 0.000000
-9.780600 0.000000
-9.715900 0.000000
-9.651200 0.000000
-9.586600 0.000000
-9.521900 0.000000
-9.457300 0.000000
-9.392600 0.000000
-9.327900 0.000000
-9.263300 0.000000
-9.198600 0.000000
-9.134000 0.000000
-9.069300 0.000000
-9.004600 0.000000
-8.940000 0.000000
-8.875300 0.000000
-8.810700 0.000000
-8.746000 0.000000
-8.681300 0.000000
-8.616700 0.000000
-8.552000 0.000000
-8.487400 0.000000
-8.422700 0.000000
-8.358000 0.000000
-8.293400 0.000000
-8.228700 0.000000
-8.164100 0.000000
-8.099400 0.000000
-8.034700 0.000000
-7.970100 0.000000
-7.905400 0.000000
-7.840800 0.000000
-7.776100 0.000000
-7.711400 0.000000
-7.646800 0.000000
-7.582100 0.000000
-7.517500 0.000000
-7.452800 0.000000
-7.388100 0.000000
-7.323500 0.000000
-7.258800 0.000000
-7.194200 0.000000
-7.129500 0.000000
-7.064900 0.000000
-7.000200 0.000000
-6.935500 0.000000
-6.870900 0.000000
-6.806200 0.000000
-6.741600 0.000000
-6.676900 0.000000
-6.612200 0.000000
-6.547600 0.000000
-6.482900 0.000000
-6.418300 0.000000
-6.353600 0.000000
-6.288900 0.000000
-6.224300 0.000000
-6.159600 0.000000
-6.095000 0.000000
-6.030300 0.000000
-5.965600 0.000000
-5.901000 0.000000
-5.836300 0.000000
-5.771700 0.000000
-5.707000 0.000000
-5.642300 0.001700
-5.577700 0.021100
-5.513000 0.028200
-5.448400 0.035200
-5.383700 0.044900
-5.319000 0.048800
-5.254400 0.053100
-5.189700 0.058600
-5.125100 0.063900
-5.060400 0.070200
-4.995700 0.074500
-4.931100 0.079100
-4.866400 0.083900
-4.801800 0.089100
-4.737100 0.095200
-4.672400 0.101900
-4.607800 0.109400
-4.543100 0.116700
-4.478500 0.125600
-4.413800 0.135600
-4.349100 0.153500
-4.284500 0.174600
-4.219800 0.182700
-4.155200 0.197900
-4.090500 0.213900
-4.025800 0.234700
-3.961200 0.269500
-3.896500 0.425700
-3.831900 0.657100
-3.767200 1.276000
-3.702600 1.878400
-3.637900 2.721400
-3.573200 2.923000
-3.508600 3.813600
-3.443900 3.900200
-3.379300 5.847800
-3.314600 6.167300
-3.249900 2.832400
-3.185300 2.655100
-3.120600 5.096500
-3.056000 3.053200
-2.991300 4.619500
-2.926600 6.038200
-2.862000 5.925600
-2.797300 4.737200
-2.732700 5.862100
-2.668000 4.232800
-2.603300 1.726600
-2.538700 1.496300
-2.474000 0.661600
-2.409400 0.582600
-2.344700 0.517600
-2.280000 0.489800
-2.215400 0.407600
-2.150700 0.209000
-2.086100 0.201500
-2.021400 0.197500
-1.956700 0.195300
-1.892100 0.194100
-1.827400 0.194600
-1.762800 0.195800
-1.698100 0.197000
-1.633400 0.198400
-1.568800 0.200600
-1.504100 0.203000
-1.439500 0.205800
-1.374800 0.209200
-1.310100 0.213900
-1.245500 0.218400
-1.180800 0.223000
-1.116200 0.227700
-1.051500 0.232500
-0.986800 0.237700
-0.922200 0.243700
-0.857500 0.250800
-0.792900 0.258000
-0.728200 0.271000
-0.663500 0.290800
-0.598900 0.292100
-0.534200 0.300200
-0.469600 0.314300
-0.404900 0.325500
-0.340200 0.336500
-0.275600 0.351200
-0.210900 0.366300
-0.146300 0.383100
-0.081600 0.512600
-0.017000 0.431500
0.047700 0.515800
0.112400 0.630200
0.177000 0.863400
0.241700 0.732700
0.306300 0.928100
0.371000 0.455800
0.435700 0.411400
0.500300 0.540700
0.565000 0.716300
0.629600 0.964500
0.694300 1.120400
0.759000 1.168900
0.823600 1.394200
0.888300 1.803300
0.952900 1.687900
1.017600 1.463100
1.082300 1.445400
1.146900 1.640100
1.211600 1.825100
1.276200 1.954900
1.340900 1.995300
1.405600 1.801400
1.470200 1.570900
1.534900 1.595100
1.599500 1.852700
1.664200 2.165000
1.728900 2.379000
1.793500 2.329000
1.858200 2.114400
1.922800 1.547400
1.987500 1.264900
2.052200 1.072300
2.116800 0.918700
2.181500 1.077500
2.246100 1.234200
2.310800 1.549500
2.375500 1.806700
2.440100 2.329300
2.504800 3.226700
2.569400 3.488900
2.634100 3.183700
2.698800 3.614700
2.763400 2.701400
2.828100 1.325300
2.892700 1.153600
2.957400 1.107500
3.022100 1.035800
3.086700 0.954200
3.151400 0.632800
3.216000 0.577800
3.280700 0.546800
3.345300 0.511500
3.410000 0.486900
3.474700 0.468100
3.539300 0.452100
3.604000 0.437000
3.668600 0.423500
3.733300 0.412600
3.798000 0.405500
3.862600 0.380300
3.927300 0.372500
3.991900 0.291800
4.056600 0.286900
4.121300 0.282300
4.185900 0.278400
4.250600 0.274400
4.315200 0.272800
4.379900 0.271900
4.444600 0.270200
4.509200 0.271800
4.573900 0.272700
4.638500 0.276900
4.703200 0.288300
4.767900 0.300500
4.832500 0.354200
4.897200 0.348500
4.961800 0.345200
5.026500 0.332300
5.091200 0.326900
5.155800 0.318700
5.220500 0.312300
5.285100 0.311100
5.349800 0.322500
5.414500 0.307100
5.479100 0.287600
5.543800 0.281100
5.608400 0.274200
5.673100 0.267000
5.737800 0.260600
5.802400 0.257200
5.867100 0.252700
5.931700 0.244900
5.996400 0.238700
6.061100 0.232500
6.125700 0.225700
6.190400 0.218500
6.255000 0.211900
6.319700 0.217500
6.384400 0.223900
6.449000 0.228700
6.513700 0.231900
6.578300 0.227500
6.643000 0.228500
6.707600 0.230600
6.772300 0.234000
6.837000 0.238500
6.901600 0.239200
6.966300 0.245800
7.030900 0.250000
7.095600 0.253500
7.160300 0.254300
7.224900 0.254500
7.289600 0.257800
7.354200 0.274300
7.418900 0.270500
7.483600 0.261300
7.548200 0.257300
7.612900 0.252900
7.677500 0.249200
7.742200 0.245900
7.806900 0.244600
7.871500 0.246600
7.936200 0.247700
8.000800 0.248100
8.065500 0.249500
8.130200 0.274900
8.194800 0.288800
8.259500 0.280100
8.324100 0.274300
8.388800 0.280300
8.453500 0.286500
8.518100 0.290900
8.582800 0.290800
8.647400 0.290800
8.712100 0.288400
8.776800 0.286900
8.841400 0.284700
8.906100 0.281300
8.970700 0.276100
9.035400 0.272500
9.100100 0.270000
9.164700 0.267800
9.229400 0.272200
9.294000 0.280500
9.358700 0.285900
9.423400 0.289800
9.488000 0.293600
9.552700 0.293400
9.617300 0.292700
9.682000 0.291800
9.746700 0.290600
9.811300 0.291700
9.876000 0.293300
9.940600 0.309900
10.005300 0.360700
10.070000 0.304400
10.134600 0.307900
10.199300 0.308400
10.263900 0.313600
10.328600 0.318800
10.393200 0.324700
10.457900 0.351000
10.522600 0.331100
10.587200 0.340000
10.651900 0.348600
10.716500 0.350500
10.781200 0.356100
10.845900 0.363300
10.910500 0.364200
10.975200 0.355600
11.039800 0.353000
11.104500 0.355500
11.169200 0.369700
11.233800 0.371100
11.298500 0.383400
11.363100 0.375100
11.427800 0.373100
11.492500 0.374900
11.557100 0.378600
11.621800 0.367500
11.686400 0.372600
11.751100 0.370200
11.815800 0.377400
11.880400 0.384200
11.945100 0.392500
12.009700 0.383800
12.074400 0.375500
12.139100 0.371700
12.203700 0.366400
12.268400 0.362900
12.333000 0.362400
12.397700 0.365600
12.462400 0.367600
12.527000 0.370600
12.591700 0.360300
12.656300 0.366400
12.721000 0.361700
12.785700 0.360200
12.850300 0.362300
12.915000 0.357500
12.979600 0.352900
13.044300 0.350600
13.109000 0.349800
13.173600 0.350200
13.238300 0.346400
13.302900 0.341800
13.367600 0.348900
13.432300 0.355700
13.496900 0.361600
13.561600 0.369600
13.626200 0.379800
13.690900 0.387600
13.755500 0.376700
13.820200 0.382400
13.884900 0.390200
13.949500 0.394800
14.014200 0.396800
14.078800 0.398700
14.143500 0.434100
14.208200 0.409200
14.272800 0.402100
14.337500 0.397300
14.402100 0.396100
14.466800 0.392700
14.531500 0.390200
14.596100 0.391300
14.660800 0.391300
14.725400 0.394500
14.790100 0.401100
14.854800 0.412500
14.919400 0.421100
14.984100 0.420400
15.048700 0.420600
15.113400 0.422900
15.178100 0.435500
15.242700 0.440100
15.307400 0.459200
15.372000 0.460900
15.436700 0.458100
15.501400 0.452300
15.566000 0.442300
15.630700 0.430800
15.695300 0.432400
15.760000 0.439000
15.824700 0.443800
15.889300 0.452300
15.954000 0.454700
16.018600 0.448600
16.083300 0.441300
16.148000 0.441300
16.212600 0.443500
16.277300 0.449400
16.341900 0.456900
16.406600 0.467100
16.471300 0.474000
16.535900 0.483900
16.600600 0.485000
16.665200 0.476800
16.729900 0.466600
16.794600 0.457500
16.859200 0.454900
16.923900 0.449400
16.988500 0.445300
17.053200 0.439200
17.117900 0.435500
17.182500 0.431900
17.247200 0.428700
17.311800 0.427300
17.376500 0.427500
17.441100 0.432900
17.505800 0.434200
17.570500 0.430800
17.635100 0.428000
17.699800 0.424200
17.764400 0.421800
17.829100 0.411200
17.893800 0.406000
17.958400 0.401700
18.023100 0.400000
18.087700 0.396800
18.152400 0.394300
18.217100 0.393300
18.281700 0.393000
18.346400 0.392400
18.411000 0.392200
18.475700 0.392300
18.540400 0.384600
18.605000 0.381400
18.669700 0.378100
18.734300 0.379200
18.799000 0.377000
18.863700 0.373700
18.928300 0.370000
18.993000 0.366700
19.057600 0.363500
19.122300 0.360500
19.187000 0.356300
19.251600 0.356100
19.316300 0.357200
19.380900 0.354000
19.445600 0.349100
19.510300 0.346100
19.574900 0.347200
19.639600 0.343600
19.704200 0.340000
19.768900 0.340200
19.833600 0.340600
19.898200 0.343800
19.962900 0.340000
20.027500 0.341800
20.092200 0.346600
20.156900 0.348400
20.221500 0.350800
20.286200 0.353800
20.350800 0.350600
20.415500 0.353000
20.480200 0.357300
20.544800 0.361300
20.609500 0.365700
20.674100 0.374100
20.738800 0.378500
20.803400 0.379900
20.868100 0.377600
20.932800 0.382400
20.997400 0.387600
21.062100 0.394900
21.126700 0.399500
21.191400 0.408000
21.256100 0.417500
21.320700 0.431100
21.385400 0.427200
21.450000 0.431200
21.514700 0.438000
21.579400 0.445200
21.644000 0.442400
21.708700 0.446300
21.773300 0.454600
21.838000 0.456200
21.902700 0.458700
21.967300 0.459200
22.032000 0.461400
22.096600 0.464800
22.161300 0.468700
22.226000 0.486000
22.290600 0.479900
22.355300 0.485900
22.419900 0.492400
22.484600 0.488500
22.549300 0.495200
22.613900 0.509000
22.678600 0.516100
22.743200 0.521800
22.807900 0.511000
22.872600 0.506900
22.937200 0.505600
23.001900 0.497800
23.066500 0.497200
23.131200 0.501200
23.195900 0.500500
23.260500 0.502200
23.325200 0.499200
23.389800 0.494100
23.454500 0.498100
23.519200 0.503500
23.583800 0.514900
23.648500 0.530500
23.713100 0.551700
23.777800 0.579900
23.842500 0.596500
23.907100 0.608700
23.971800 0.600600
24.036400 0.598100
24.101100 0.590100
24.165800 0.573300
24.230400 0.544200
24.295100 0.523100
24.359700 0.510900
24.424400 0.503200
24.489000 0.500400
24.553700 0.496500
24.618400 0.491400
24.683000 0.496800
24.747700 0.497200
24.812300 0.496100
24.877000 0.498300
24.941700 0.500700
25.006300 0.494400
25.071000 0.489000
25.135600 0.490000
25.200300 0.490000
25.265000 0.489500
25.329600 0.496800
25.394300 0.509300
25.458900 0.514000
25.523600 0.525800
25.588300 0.513000
25.652900 0.489300
25.717600 0.472500
25.782200 0.459200
25.846900 0.449500
25.911600 0.441300
25.976200 0.434800
26.040900 0.436600
26.105500 0.444300
26.170200 0.469000
26.234900 0.501600
26.299500 0.509600
26.364200 0.497500
26.428800 0.481000
26.493500 0.479100
26.558200 0.480600
26.622800 0.485700
26.687500 0.487500
26.752100 0.485100
26.816800 0.470800
26.881500 0.458900
26.946100 0.446900
27.010800 0.435800
27.075400 0.426700
27.140100 0.423800
27.204800 0.424100
27.269400 0.433400
27.334100 0.450800
27.398700 0.465300
27.463400 0.479500
27.528100 0.470500
27.592700 0.464100
27.657400 0.461700
27.722000 0.460400
27.786700 0.463700
27.851300 0.468100
27.916000 0.478300
27.980700 0.508200
28.045300 0.507900
28.110000 0.507000
28.174600 0.485300
28.239300 0.484300
28.304000 0.482400
28.368600 0.474800
28.433300 0.462700
28.497900 0.456200
28.562600 0.452700
28.627300 0.451900
28.691900 0.446600
28.756600 0.439600
28.821200 0.433800
28.885900 0.428900
28.950600 0.422500
29.015200 0.416300
29.079900 0.414200
29.144500 0.416100
29.209200 0.427800
29.273900 0.435500
29.338500 0.452600
29.403200 0.468000
29.467800 0.476800
29.532500 0.485400
29.597200 0.492600
29.661800 0.494900
29.726500 0.495100
29.791100 0.496300
29.855800 0.494800
29.920500 0.497500
29.985100 0.485600
30.049800 0.480700
30.114400 0.481500
30.179100 0.481500
30.243800 0.479000
30.308400 0.485600
30.373100 0.500900
30.437700 0.514600
30.502400 0.526100
30.567100 0.540600
30.631700 0.567200
30.696400 0.576100
30.761000 0.584000
30.825700 0.590300
30.890400 0.597700
30.955000 0.615100
31.019700 0.628500
31.084300 0.606500
31.149000 0.591100
31.213700 0.582700
31.278300 0.573600
31.343000 0.560700
31.407600 0.548600
31.472300 0.537200
31.536900 0.526500
31.601600 0.519000
31.666300 0.515500
31.730900 0.513600
31.795600 0.509400
31.860200 0.515200
31.924900 0.511200
31.989600 0.502200
32.054200 0.493100
32.118900 0.484400
32.183500 0.470600
32.248200 0.459400
32.312900 0.456700
32.377500 0.467800
32.442200 0.493500
32.506800 0.524000
32.571500 0.538700
32.636200 0.547100
32.700800 0.550500
32.765500 0.547500
32.830100 0.548400
32.894800 0.565200
32.959500 0.568200
33.024100 0.566800
33.088800 0.564100
33.153400 0.559500
33.218100 0.558000
33.282800 0.547500
33.347400 0.533400
33.412100 0.526500
33.476700 0.534600
33.541400 0.525100
33.606100 0.522900
33.670700 0.530300
33.735400 0.542600
33.800000 0.557100
33.864700 0.567100
33.929400 0.581300
33.994000 0.591800
34.058700 0.598800
34.123300 0.596100
34.188000 0.596100
34.252700 0.598200
34.317300 0.592900
34.382000 0.580700
34.446600 0.575600
34.511300 0.570000
34.576000 0.554100
34.640600 0.540400
34.705300 0.532600
34.769900 0.524700
34.834600 0.520500
34.899200 0.520100
34.963900 0.518200
35.028600 0.511200
35.093200 0.496700
35.157900 0.499700
35.222500 0.501100
35.287200 0.501600
35.351900 0.501300
35.416500 0.507900
35.481200 0.518000
35.545800 0.528500
35.610500 0.541200
35.675200 0.575500
35.739800 0.579900
35.804500 0.571700
35.869100 0.582900
35.933800 0.604900
35.998500 0.624900
36.063100 0.644900
36.127800 0.655000
36.192400 0.643300
36.257100 0.622100
36.321800 0.615700
36.386400 0.610200
36.451100 0.592400
36.515700 0.564500
36.580400 0.535600
36.645100 0.511500
36.709700 0.502400
36.774400 0.497400
36.839000 0.499000
36.903700 0.509600
36.968400 0.520300
37.033000 0.533100
37.097700 0.547100
37.162300 0.563600
37.227000 0.573600
37.291700 0.597500
37.356300 0.614700
37.421000 0.618700
37.485600 0.618800
37.550300 0.613100
37.615000 0.609800
37.679600 0.608600
37.744300 0.609000
37.808900 0.617800
37.873600 0.614400
37.938300 0.609500
38.002900 0.604400
38.067600 0.598800
38.132200 0.588600
38.196900 0.577000
38.261600 0.567700
38.326200 0.566200
38.390900 0.570300
38.455500 0.555000
38.520200 0.551300
38.584800 0.555100
38.649500 0.565800
38.714200 0.570700
38.778800 0.577700
38.843500 0.587200
38.908100 0.597700
38.972800 0.599900
39.037500 0.598800
39.102100 0.589500
39.166800 0.577700
39.231400 0.570000
39.296100 0.568500
39.360800 0.566600
39.425400 0.568100
39.490100 0.578300
39.554700 0.598800
39.619400 0.628400
39.684100 0.645500
39.748700 0.657800
39.813400 0.664600
39.878000 0.676900
39.942700 0.686100
40.007400 0.694800
40.072000 0.704200
40.136700 0.719000
40.201300 0.704500
40.266000 0.690200
40.330700 0.678100
40.395300 0.658600
40.460000 0.637800
40.524600 0.617800
40.589300 0.600300
40.654000 0.586200
40.718600 0.573900
40.783300 0.569200
40.847900 0.551400
40.912600 0.537200
40.977300 0.529300
41.041900 0.527700
41.106600 0.537900
41.171200 0.552400
41.235900 0.565700
41.300600 0.574000
41.365200 0.577500
41.429900 0.581000
41.494500 0.600700
41.559200 0.599900
41.623900 0.613600
41.688500 0.642500
41.753200 0.664000
41.817800 0.670200
41.882500 0.678500
41.947100 0.687500
42.011800 0.701300
42.076500 0.708500
42.141100 0.707900
42.205800 0.705000
42.270400 0.701900
42.335100 0.694200
42.399800 0.686400
42.464400 0.672200
42.529100 0.664100
42.593700 0.657300
42.658400 0.647000
42.723100 0.635900
42.787700 0.633300
42.852400 0.621400
42.917000 0.610000
42.981700 0.599700
43.046400 0.593400
43.111000 0.592800
43.175700 0.611800
43.240300 0.600100
43.305000 0.606000
43.369700 0.608200
43.434300 0.616700
43.499000 0.611600
43.563600 0.619100
43.628300 0.627700
43.693000 0.634100
43.757600 0.638600
43.822300 0.641000
43.886900 0.643700
43.951600 0.654100
44.016300 0.667300
44.080900 0.671000
44.145600 0.671300
44.210200 0.673400
44.274900 0.671200
44.339600 0.670500
44.404200 0.662300
44.468900 0.650400
44.533500 0.643700
44.598200 0.644600
44.662900 0.633400
44.727500 0.628600
44.792200 0.624600
44.856800 0.627700
44.921500 0.632300
44.986200 0.640700
45.050800 0.654900
45.115500 0.671300
45.180100 0.669400
45.244800 0.671800
45.309400 0.673200
45.374100 0.671900
45.438800 0.676500
45.503400 0.677800
45.568100 0.673700
45.632700 0.671400
45.697400 0.667300
45.762100 0.670100
45.826700 0.698100
45.891400 0.681700
45.956000 0.697700
46.020700 0.711300
46.085400 0.734900
46.150000 0.756400
46.214700 0.759500
46.279300 0.741300
46.344000 0.712600
46.408700 0.700000
46.473300 0.685500
46.538000 0.671200
46.602600 0.660200
46.667300 0.650800
46.732000 0.644700
46.796600 0.635200
46.861300 0.619000
46.925900 0.600900
46.990600 0.588400
47.055300 0.577600
47.119900 0.570900
47.184600 0.570200
47.249200 0.574700
47.313900 0.576700
47.378600 0.581000
47.443200 0.585000
47.507900 0.583000
47.572500 0.587800
47.637200 0.593400
47.701900 0.594500
47.766500 0.589400
47.831200 0.580100
47.895800 0.586300
47.960500 0.656000
48.025200 0.567900
48.089800 0.565800
48.154500 0.564900
48.219100 0.591200
48.283800 0.596800
48.348500 0.589800
48.413100 0.577000
48.477800 0.564800
48.542400 0.585200
48.607100 0.589500
48.671800 0.590700
48.736400 0.610400
48.801100 0.625700
48.865700 0.637200
48.930400 0.655600
48.995000 0.673000
49.059700 0.695600
49.124400 0.728200
49.189000 0.735500
49.253700 0.727200
49.318300 0.724800
49.383000 0.736800
49.447700 0.751900
49.512300 0.767900
49.577000 0.763700
49.641600 0.757100
49.706300 0.747800
49.771000 0.742500
49.835600 0.742200
49.900300 0.738000
49.964900 0.739700
50.029600 0.734900
50.094300 0.749200
50.158900 0.761700
50.223600 0.783500
50.288200 0.798200
50.352900 0.836300
50.417600 0.876100
50.482200 0.902000
50.546900 0.948700
50.611500 0.971600
50.676200 0.989900
50.740900 1.062100
50.805500 1.144000
50.870200 1.256000
50.934800 1.680000
50.999500 1.669100
51.064200 1.702900
51.128800 1.586500
51.193500 1.553300
51.258100 1.577400
51.322800 1.050500
51.387500 1.013700
51.452100 0.926100
51.516800 0.891600
51.581400 0.875100
51.646100 0.860200
51.710800 0.857900
51.775400 0.857200
51.840100 0.858700
51.904700 0.836200
51.969400 0.806400
52.034100 0.788300
52.098700 0.775000
52.163400 0.756200
52.228000 0.752100
52.292700 0.752700
52.357300 0.749100
52.422000 0.738300
52.486700 0.732700
52.551300 0.723600
52.616000 0.732900
52.680600 0.737600
52.745300 0.764700
52.810000 0.760500
52.874600 0.735600
52.939300 0.735000
53.003900 0.737400
53.068600 0.739100
53.133300 0.736700
53.197900 0.726100
53.262600 0.715900
53.327200 0.703200
53.391900 0.700600
53.456600 0.691700
53.521200 0.679300
53.585900 0.674700
53.650500 0.669600
53.715200 0.675100
53.779900 0.672000
53.844500 0.684600
53.909200 0.690100
53.973800 0.678600
54.038500 0.664800
54.103200 0.659200
54.167800 0.658400
54.232500 0.660900
54.297100 0.649500
54.361800 0.661700
54.426500 0.678100
54.491100 0.642400
54.555800 0.624200
54.620400 0.610000
54.685100 0.608600
54.749800 0.614700
54.814400 0.632800
54.879100 0.647000
54.943700 0.655400
55.008400 0.666900
55.073100 0.683100
55.137700 0.700700
55.202400 0.718800
55.267000 0.737900
55.331700 0.741700
55.396400 0.756100
55.461000 0.745000
55.525700 0.747000
55.590300 0.772200
55.655000 0.744700
55.719700 0.752200
55.784300 0.758300
55.849000 0.755900
55.913600 0.756800
55.978300 0.770400
56.042900 0.801100
56.107600 0.805000
56.172300 0.792700
56.236900 0.796600
56.301600 0.825500
56.366200 0.830200
56.430900 0.841600
56.495600 0.813200
56.560200 0.783200
56.624900 0.757700
56.689500 0.733500
56.754200 0.720500
56.818900 0.714700
56.883500 0.712200
56.948200 0.712000
57.012800 0.716400
57.077500 0.722300
57.142200 0.736700
57.206800 0.749900
57.271500 0.762100
57.336100 0.783000
57.400800 0.786900
57.465500 0.820000
57.530100 0.783100
57.594800 0.778100
57.659400 0.767200
57.724100 0.760700
57.788800 0.756200
57.853400 0.756300
57.918100 0.753900
57.982700 0.757400
58.047400 0.749500
58.112100 0.747400
58.176700 0.754000
58.241400 0.773800
58.306000 0.779300
58.370700 0.783000
58.435400 0.779300
58.500000 0.773600
58.564700 0.765500
58.629300 0.750900
58.694000 0.749500
58.758700 0.749200
58.823300 0.745100
58.888000 0.784200
58.952600 0.727800
59.017300 0.718900
59.082000 0.707900
59.146600 0.707600
59.211300 0.712500
59.275900 0.722100
59.340600 0.725300
59.405200 0.717000
59.469900 0.716900
59.534600 0.728700
59.599200 0.680500
59.663900 0.655200
59.728500 0.643000
59.793200 0.629100
59.857900 0.615400
59.922500 0.605900
59.987200 0.605900
60.051800 0.605300
60.116500 0.620800
60.181200 0.626300
60.245800 0.625900
60.310500 0.630600
60.375100 0.640600
60.439800 0.647400
60.504500 0.651300
60.569100 0.654100
60.633800 0.654800
60.698400 0.665200
60.763100 0.685100
60.827800 0.711200
60.892400 0.716400
60.957100 0.714600
61.021700 0.714000
61.086400 0.723400
61.151100 0.733000
61.215700 0.730600
61.280400 0.726900
61.345000 0.725800
61.409700 0.714500
61.474400 0.703300
61.539000 0.691700
61.603700 0.685800
61.668300 0.680000
61.733000 0.683300
61.797700 0.663400
61.862300 0.634100
61.927000 0.632000
61.991600 0.620200
62.056300 0.610800
62.121000 0.611500
62.185600 0.619000
62.250300 0.624100
62.314900 0.634900
62.379600 0.655200
62.444300 0.674400
62.508900 0.695000
62.573600 0.696400
62.638200 0.708400
62.702900 0.712900
62.767600 0.712800
62.832200 0.701800
62.896900 0.688900
62.961500 0.674000
63.026200 0.657700
63.090800 0.647100
63.155500 0.645300
63.220200 0.651900
63.284800 0.651800
63.349500 0.649800
63.414100 0.653600
63.478800 0.648600
63.543500 0.641500
63.608100 0.640100
63.672800 0.649200
63.737400 0.642600
63.802100 0.632600
63.866800 0.638700
63.931400 0.657800
63.996100 0.690300
64.060700 0.731300
64.125400 0.756000
64.190100 0.763000
64.254700 0.746300
64.319400 0.696800
64.384000 0.643700
64.448700 0.605900
64.513400 0.584900
64.578000 0.565800
64.642700 0.532500
64.707300 0.506600
64.772000 0.486700
64.836700 0.478600
64.901300 0.478300
64.966000 0.485100
65.030600 0.498400
65.095300 0.526800
65.160000 0.530100
65.224600 0.512300
65.289300 0.478200
65.353900 0.438300
65.418600 0.408200
65.483300 0.374900
65.547900 0.340800
65.612600 0.313400
65.677200 0.289300
65.741900 0.268800
65.806600 0.247900
65.871200 0.231300
65.935900 0.213000
66.000500 0.193800
66.065200 0.176400
66.129900 0.161100
66.194500 0.145200
66.259200 0.129800
66.323800 0.112600
66.388500 0.092200
66.453100 0.064600
66.517800 0.047600
66.582500 0.027900
66.647100 0.020800
66.711800 0.016700
66.776400 0.013700
66.841100 0.011200
66.905800 0.009000
66.970400 0.007100
67.035100 0.005700
67.099700 0.003800
67.164400 0.002100
67.229100 0.000400
67.293700 0.000000
67.358400 0.000000
67.423000 0.000000
67.487700 0.000000
67.552400 0.000000
67.617000 0.000000
67.681700 0.000000
67.746300 0.000000
67.811000 0.000000
67.875700 0.000000
67.940300 0.000000
68.005000 0.000000
68.069600 0.000000
68.134300 0.000000
68.199000 0.000000
68.263600 0.000000
68.328300 0.000000
68.392900 0.000000
68.457600 0.000000
68.522300 0.000000
68.586900 0.000000
68.651600 0.000000
68.716200 0.000000
68.780900 0.000000
68.845600 0.000000
68.910200 0.000000
68.974900 0.000000
69.039500 0.000000
69.104200 0.000000
69.168900 0.000000
69.233500 0.000000
69.298200 0.000000
69.362800 0.000000
69.427500 0.000000
69.492200 0.000000
69.556800 0.000000
69.621500 0.000000
69.686100 0.000000
69.750800 0.000000
69.815500 0.000000
69.880100 0.000000
69.944800 0.000000
70.009400 0.000000
70.074100 0.000000
70.138700 0.000000
70.203400 0.000000
70.268100 0.000000
70.332700 0.000000
70.397400 0.000000
70.462000 0.000000
70.526700 0.000000
70.591400 0.000000
70.656000 0.000000
70.720700 0.000000
70.785300 0.000000
70.850000 0.000000
70.914700 0.000000
70.979300 0.000000
71.044000 0.000000
71.108600 0.000000
71.173300 0.000000
71.238000 0.000000
71.302600 0.000000
71.367300 0.000000
71.431900 0.000000
71.496600 0.000000
71.561300 0.000000
71.625900 0.000000
71.690600 0.000000
71.755200 0.000000
71.819900 0.000000
71.884600 0.000000
71.949200 0.000000
72.013900 0.000000
72.078500 0.000000
72.143200 0.000000
72.207900 0.000000
72.272500 0.000000
72.337200 0.000000
72.401800 0.000000
72.466500 0.000000
72.531200 0.000000
72.595800 0.000000
72.660500 0.000000
72.725100 0.000000
72.789800 0.000000
72.854500 0.000000
72.919100 0.000000
72.983800 0.000000
73.048400 0.000000
73.113100 0.000000
73.177800 0.000000
73.242400 0.000000
73.307100 0.000000
e
