set title 'mp-556994 - Density of States'
set xlabel 'Energy (eV)'
set ylabel 'DOS (states/eV)'
set grid
set xrange [-10:10]
set yrange [0:52.665]
set xzeroaxis lt -1
set terminal png size 800,600
set output 'mp-556994_dos_gnuplot.png'
plot '-' using 1:2 with lines title 'DOS'
-21.516300 0.000000
-21.495600 0.000000
-21.474800 0.000000
-21.454000 0.000000
-21.433300 0.000000
-21.412500 0.000000
-21.391700 0.000000
-21.371000 0.000000
-21.350200 0.000000
-21.329400 0.000000
-21.308700 0.000000
-21.287900 0.000000
-21.267100 0.000000
-21.246400 0.000000
-21.225600 0.000000
-21.204800 0.000000
-21.184100 0.000000
-21.163300 0.000000
-21.142500 0.000000
-21.121800 0.000000
-21.101000 0.000000
-21.080200 0.000000
-21.059500 0.000000
-21.038700 0.000000
-21.017900 0.000000
-20.997200 0.000000
-20.976400 0.000000
-20.955600 0.000000
-20.934900 0.000000
-20.914100 0.000000
-20.893300 0.000000
-20.872600 0.000000
-20.851800 0.000000
-20.831000 0.000000
-20.810300 0.000000
-20.789500 0.000000
-20.768700 0.000000
-20.748000 0.000000
-20.727200 0.000000
-20.706400 0.000000
-20.685700 0.000000
-20.664900 0.000000
-20.644100 0.000000
-20.623400 0.000000
-20.602600 0.000000
-20.581800 0.000000
-20.561100 0.000000
-20.540300 0.000000
-20.519500 0.000000
-20.498800 0.000000
-20.478000 0.000000
-20.457200 0.000000
-20.436500 0.000000
-20.415700 0.000000
-20.394900 0.000000
-20.374200 0.000000
-20.353400 0.000000
-20.332600 0.000000
-20.311900 0.000000
-20.291100 0.000000
-20.270300 0.000000
-20.249600 0.000000
-20.228800 0.000000
-20.208000 0.000000
-20.187300 0.000000
-20.166500 0.000000
-20.145700 0.000000
-20.125000 0.000000
-20.104200 0.000000
-20.083400 0.000000
-20.062700 0.000000
-20.041900 0.000000
-20.021100 0.000000
-20.000400 0.000000
-19.979600 0.000000
-19.958800 0.000000
-19.938100 0.000000
-19.917300 0.000000
-19.896500 0.000000
-19.875800 0.000000
-19.855000 0.000000
-19.834200 0.000000
-19.813500 0.000000
-19.792700 0.000000
-19.771900 0.000000
-19.751200 0.000000
-19.730400 0.000000
-19.709600 0.000000
-19.688900 0.000000
-19.668100 0.000000
-19.647300 0.000000
-19.626600 0.001500
-19.605800 0.211600
-19.585000 0.777500
-19.564300 1.605600
-19.543500 2.279200
-19.522700 2.845900
-19.502000 3.349300
-19.481200 4.006800
-19.460400 5.022200
-19.439700 5.770300
-19.418900 6.141300
-19.398100 6.139500
-19.377400 5.916300
-19.356600 5.539700
-19.335800 5.464100
-19.315100 5.044100
-19.294300 4.908600
-19.273500 4.723300
-19.252800 4.521200
-19.232000 4.494500
-19.211200 4.804300
-19.190500 5.424200
-19.169700 4.363200
-19.148900 2.392800
-19.128200 0.535000
-19.107400 0.000000
-19.086600 0.000000
-19.065900 0.000000
-19.045100 0.000000
-19.024300 0.000000
-19.003600 0.000000
-18.982800 0.000400
-18.962000 1.437100
-18.941300 3.240600
-18.920500 5.830600
-18.899700 8.603100
-18.879000 10.232500
-18.858200 9.893300
-18.837400 8.401500
-18.816700 7.243200
-18.795900 6.194800
-18.775100 5.566800
-18.754400 5.292500
-18.733600 5.040800
-18.712800 4.444900
-18.692100 3.657700
-18.671300 3.112800
-18.650500 2.730500
-18.629800 2.346300
-18.609000 2.412100
-18.588200 2.488300
-18.567500 2.369800
-18.546700 2.734000
-18.525900 3.193800
-18.505200 3.360000
-18.484400 3.700500
-18.463600 4.218100
-18.442900 5.226800
-18.422100 6.725600
-18.401300 8.261300
-18.380600 8.454700
-18.359800 7.202600
-18.339000 6.626400
-18.318300 5.499700
-18.297500 5.350600
-18.276700 5.198100
-18.256000 4.972800
-18.235200 4.301200
-18.214400 3.053800
-18.193700 2.293300
-18.172900 1.845900
-18.152100 1.636800
-18.131400 2.043700
-18.110600 3.088700
-18.089800 4.407600
-18.069100 5.714400
-18.048300 5.330600
-18.027500 5.466700
-18.006800 6.048700
-17.986000 6.931100
-17.965200 6.570900
-17.944500 6.193500
-17.923700 5.829200
-17.902900 5.525000
-17.882200 5.206000
-17.861400 5.010300
-17.840600 4.770700
-17.819900 4.439000
-17.799100 4.018900
-17.778300 3.484200
-17.757600 2.730300
-17.736800 1.726000
-17.716000 0.000000
-17.695300 0.000000
-17.674500 2.967600
-17.653700 29.420400
-17.633000 37.715400
-17.612200 25.779800
-17.591400 3.543000
-17.570700 6.758700
-17.549900 86.036000
-17.529100 0.000000
-17.508400 0.000000
-17.487600 0.767800
-17.466800 11.278200
-17.446100 37.169800
-17.425300 16.346600
-17.404500 34.211800
-17.383800 0.000000
-17.363000 0.000000
-17.342200 0.000000
-17.321500 25.531600
-17.300700 47.202600
-17.279900 20.544900
-17.259200 0.000000
-17.238400 0.000000
-17.217600 0.000000
-17.196900 0.000000
-17.176100 0.000000
-17.155300 0.000000
-17.134600 0.000000
-17.113800 0.000000
-17.093000 0.000000
-17.072300 0.000000
-17.051500 0.000000
-17.030700 0.000000
-17.010000 0.000000
-16.989200 0.000000
-16.968400 0.000000
-16.947700 0.000000
-16.926900 0.000000
-16.906100 0.000000
-16.885400 0.000000
-16.864600 0.000000
-16.843800 0.000000
-16.823100 0.000000
-16.802300 0.000000
-16.781500 0.000000
-16.760800 0.000000
-16.740000 0.000000
-16.719200 0.000000
-16.698500 0.000000
-16.677700 0.000000
-16.656900 0.000000
-16.636200 0.000000
-16.615400 0.000000
-16.594600 0.000000
-16.573900 0.000000
-16.553100 0.000000
-16.532300 0.000000
-16.511600 0.000000
-16.490800 0.000000
-16.470000 0.000000
-16.449300 0.000000
-16.428500 0.000000
-16.407700 0.000000
-16.387000 0.000000
-16.366200 0.000000
-16.345400 0.000000
-16.324700 0.000000
-16.303900 0.000000
-16.283100 0.000000
-16.262400 0.000000
-16.241600 0.000000
-16.220800 0.000000
-16.200100 0.000000
-16.179300 0.000000
-16.158500 0.000000
-16.137800 0.000000
-16.117000 0.000000
-16.096200 0.000000
-16.075500 0.000000
-16.054700 0.000000
-16.033900 0.000000
-16.013200 0.000000
-15.992400 0.000000
-15.971600 0.000000
-15.950900 0.000000
-15.930100 0.000000
-15.909300 0.000000
-15.888600 0.000000
-15.867800 0.000000
-15.847000 0.000000
-15.826300 0.000000
-15.805500 0.000000
-15.784700 0.000000
-15.764000 0.000000
-15.743200 0.000000
-15.722400 0.000000
-15.701700 0.000000
-15.680900 0.000000
-15.660100 0.000000
-15.639400 0.000000
-15.618600 0.000000
-15.597800 0.000000
-15.577100 0.000000
-15.556300 0.000000
-15.535500 0.000000
-15.514800 0.000000
-15.494000 0.000000
-15.473200 0.000000
-15.452500 0.000000
-15.431700 0.000000
-15.410900 0.000000
-15.390200 0.000000
-15.369400 0.000000
-15.348600 0.000000
-15.327900 0.000000
-15.307100 0.000000
-15.286300 0.000000
-15.265600 0.000000
-15.244800 0.000000
-15.224000 0.000000
-15.203300 0.000000
-15.182500 0.000000
-15.161700 0.000000
-15.141000 0.000000
-15.120200 0.000000
-15.099400 0.000000
-15.078700 0.000000
-15.057900 0.000000
-15.037100 0.000000
-15.016400 0.000000
-14.995600 0.000000
-14.974800 0.000000
-14.954100 0.000000
-14.933300 0.000000
-14.912500 0.000000
-14.891800 0.000000
-14.871000 0.000000
-14.850200 0.000000
-14.829500 0.000000
-14.808700 0.000000
-14.787900 0.000000
-14.767200 0.000000
-14.746400 0.000000
-14.725600 0.000000
-14.704900 0.000000
-14.684100 0.000000
-14.663300 0.000000
-14.642600 0.000000
-14.621800 0.000000
-14.601000 0.000000
-14.580300 0.000000
-14.559500 0.000000
-14.538700 0.000000
-14.518000 0.000000
-14.497200 0.000000
-14.476400 0.000000
-14.455700 0.000000
-14.434900 0.000000
-14.414100 0.000000
-14.393400 0.000000
-14.372600 0.000000
-14.351800 0.000000
-14.331100 0.000000
-14.310300 0.000000
-14.289500 0.000000
-14.268800 0.000000
-14.248000 0.000000
-14.227200 0.000000
-14.206500 0.000000
-14.185700 0.000000
-14.164900 0.000000
-14.144200 0.000000
-14.123400 0.000000
-14.102600 0.000000
-14.081900 0.000000
-14.061100 0.000000
-14.040300 0.000000
-14.019600 0.000000
-13.998800 0.000000
-13.978000 0.000000
-13.957300 0.000000
-13.936500 0.000000
-13.915700 0.000000
-13.895000 0.000000
-13.874200 0.000000
-13.853400 0.000000
-13.832700 0.000000
-13.811900 0.000000
-13.791100 0.000000
-13.770400 0.000000
-13.749600 0.000000
-13.728800 0.000000
-13.708100 0.000000
-13.687300 0.000000
-13.666500 0.000000
-13.645800 0.000000
-13.625000 0.000000
-13.604200 0.000000
-13.583500 0.000000
-13.562700 0.000000
-13.541900 0.000000
-13.521200 0.000000
-13.500400 0.000000
-13.479600 0.000000
-13.458900 0.000000
-13.438100 0.000000
-13.417300 0.000000
-13.396600 0.000000
-13.375800 0.000000
-13.355000 0.000000
-13.334300 0.000000
-13.313500 0.000000
-13.292800 0.000000
-13.272000 0.000000
-13.251200 0.000000
-13.230500 0.000000
-13.209700 0.000000
-13.188900 0.000000
-13.168200 0.000000
-13.147400 0.000000
-13.126600 0.000000
-13.105900 0.000000
-13.085100 0.000000
-13.064300 0.000000
-13.043600 0.000000
-13.022800 0.000000
-13.002000 0.000000
-12.981300 0.000000
-12.960500 0.000000
-12.939700 0.000000
-12.919000 0.000000
-12.898200 0.000000
-12.877400 0.000000
-12.856700 0.000000
-12.835900 0.000000
-12.815100 0.000000
-12.794400 0.000000
-12.773600 0.000000
-12.752800 0.000000
-12.732100 0.000000
-12.711300 0.000000
-12.690500 0.000000
-12.669800 0.000000
-12.649000 0.000000
-12.628200 0.000000
-12.607500 0.000000
-12.586700 0.000000
-12.565900 0.000000
-12.545200 0.000000
-12.524400 0.000000
-12.503600 0.000000
-12.482900 0.000000
-12.462100 0.000000
-12.441300 0.000000
-12.420600 0.000000
-12.399800 0.000000
-12.379000 0.000000
-12.358300 0.000000
-12.337500 0.000000
-12.316700 0.000000
-12.296000 0.000000
-12.275200 0.000000
-12.254400 0.000000
-12.233700 0.000000
-12.212900 0.000000
-12.192100 0.000000
-12.171400 0.000000
-12.150600 0.000000
-12.129800 0.000000
-12.109100 0.000000
-12.088300 0.000000
-12.067500 0.000000
-12.046800 0.000000
-12.026000 0.000000
-12.005200 0.000000
-11.984500 0.000000
-11.963700 0.000000
-11.942900 0.000000
-11.922200 0.000000
-11.901400 0.000000
-11.880600 0.000000
-11.859900 0.000000
-11.839100 0.000000
-11.818300 0.000000
-11.797600 0.000000
-11.776800 0.000000
-11.756000 0.000000
-11.735300 0.000000
-11.714500 0.000000
-11.693700 0.000000
-11.673000 0.000000
-11.652200 0.000000
-11.631400 0.000000
-11.610700 0.000000
-11.589900 0.000000
-11.569100 0.000000
-11.548400 0.000000
-11.527600 0.000000
-11.506800 0.000000
-11.486100 0.000000
-11.465300 0.000000
-11.444500 0.000000
-11.423800 0.000000
-11.403000 0.000000
-11.382200 0.000000
-11.361500 0.000000
-11.340700 0.000000
-11.319900 0.000000
-11.299200 0.000000
-11.278400 0.000000
-11.257600 0.000000
-11.236900 0.000000
-11.216100 0.000000
-11.195300 0.000000
-11.174600 0.000000
-11.153800 0.000000
-11.133000 0.000000
-11.112300 0.000000
-11.091500 0.000000
-11.070700 0.000000
-11.050000 0.000000
-11.029200 0.000000
-11.008400 0.000000
-10.987700 0.000000
-10.966900 0.000000
-10.946100 0.000000
-10.925400 0.000000
-10.904600 0.000000
-10.883800 0.000000
-10.863100 0.000000
-10.842300 0.000000
-10.821500 0.000000
-10.800800 0.000000
-10.780000 0.000000
-10.759200 0.000000
-10.738500 0.000000
-10.717700 0.000000
-10.696900 0.000000
-10.676200 0.000000
-10.655400 0.000000
-10.634600 0.000000
-10.613900 0.000000
-10.593100 0.000000
-10.572300 0.000000
-10.551600 0.000000
-10.530800 0.000000
-10.510000 0.000000
-10.489300 0.000000
-10.468500 0.000000
-10.447700 0.000000
-10.427000 0.000000
-10.406200 0.000000
-10.385400 0.000000
-10.364700 0.000000
-10.343900 0.000000
-10.323100 0.000000
-10.302400 0.000000
-10.281600 0.000000
-10.260800 0.000000
-10.240100 0.000000
-10.219300 0.000000
-10.198500 0.000000
-10.177800 0.000000
-10.157000 0.000000
-10.136200 0.000000
-10.115500 0.000000
-10.094700 0.000000
-10.073900 0.000000
-10.053200 0.000000
-10.032400 0.000000
-10.011600 0.000000
-9.990900 0.000000
-9.970100 0.000000
-9.949300 0.000000
-9.928600 0.000000
-9.907800 0.000000
-9.887000 0.000000
-9.866300 0.000000
-9.845500 0.000000
-9.824700 0.000000
-9.804000 0.000000
-9.783200 0.000000
-9.762400 0.000000
-9.741700 0.000000
-9.720900 0.000000
-9.700100 0.000000
-9.679400 0.000000
-9.658600 0.000000
-9.637800 0.000000
-9.617100 0.000000
-9.596300 0.000000
-9.575500 0.000000
-9.554800 0.000000
-9.534000 0.000000
-9.513200 0.000000
-9.492500 0.000000
-9.471700 0.000000
-9.450900 0.000000
-9.430200 0.000000
-9.409400 0.000000
-9.388600 0.000000
-9.367900 0.000000
-9.347100 0.000000
-9.326300 0.000000
-9.305600 0.000000
-9.284800 0.000000
-9.264000 0.000000
-9.243300 0.000000
-9.222500 0.000000
-9.201700 0.000000
-9.181000 0.000000
-9.160200 0.000000
-9.139400 0.000000
-9.118700 0.000000
-9.097900 0.000000
-9.077100 0.195000
-9.056400 0.661000
-9.035600 1.111900
-9.014800 1.547600
-8.994100 1.915400
-8.973300 2.100200
-8.952500 2.305000
-8.931800 2.475300
-8.911000 2.609900
-8.890200 2.697200
-8.869500 2.716500
-8.848700 2.758000
-8.827900 2.857000
-8.807200 3.094400
-8.786400 3.325100
-8.765600 3.518000
-8.744900 3.693900
-8.724100 3.760400
-8.703300 3.776600
-8.682600 3.742600
-8.661800 3.661000
-8.641000 3.461300
-8.620300 3.302500
-8.599500 3.165100
-8.578700 2.998500
-8.558000 2.804600
-8.537200 2.648700
-8.516400 2.565300
-8.495700 2.534000
-8.474900 2.421500
-8.454100 2.306500
-8.433400 2.196700
-8.412600 2.094700
-8.391800 1.990900
-8.371100 1.879000
-8.350300 1.719700
-8.329500 1.503800
-8.308800 1.160100
-8.288000 0.773400
-8.267200 0.214000
-8.246500 0.048700
-8.225700 0.001500
-8.204900 0.000000
-8.184200 0.000000
-8.163400 0.000000
-8.142600 0.000000
-8.121900 0.000000
-8.101100 0.122000
-8.080300 0.327900
-8.059600 0.579300
-8.038800 0.876300
-8.018000 1.218800
-7.997300 1.852600
-7.976500 2.214600
-7.955700 2.323000
-7.935000 2.345500
-7.914200 2.404500
-7.893400 2.492700
-7.872700 2.569200
-7.851900 2.638000
-7.831100 2.699000
-7.810400 2.758600
-7.789600 2.828800
-7.768800 2.912900
-7.748100 3.008600
-7.727300 3.120100
-7.706500 3.239100
-7.685800 3.360800
-7.665000 3.475300
-7.644200 3.517700
-7.623500 3.798800
-7.602700 4.268500
-7.581900 4.288200
-7.561200 3.874400
-7.540400 3.300500
-7.519600 2.872900
-7.498900 2.494100
-7.478100 2.157300
-7.457300 2.056600
-7.436600 1.975700
-7.415800 1.902200
-7.395000 1.889600
-7.374300 2.113200
-7.353500 2.458900
-7.332700 2.550100
-7.312000 2.477700
-7.291200 2.171300
-7.270400 1.579900
-7.249700 1.496000
-7.228900 1.686200
-7.208100 1.924900
-7.187400 2.082300
-7.166600 2.241300
-7.145800 2.439100
-7.125100 2.670300
-7.104300 2.857600
-7.083500 3.056600
-7.062800 3.360900
-7.042000 3.825700
-7.021200 4.250300
-7.000500 4.507700
-6.979700 4.585900
-6.958900 4.487400
-6.938200 4.353400
-6.917400 4.522000
-6.896600 4.527100
-6.875900 4.325400
-6.855100 3.827400
-6.834300 3.128100
-6.813600 2.703400
-6.792800 2.403300
-6.772000 2.221600
-6.751300 2.042400
-6.730500 1.694400
-6.709700 1.397600
-6.689000 1.206800
-6.668200 1.100100
-6.647400 1.004200
-6.626700 0.913100
-6.605900 0.827000
-6.585100 0.745700
-6.564400 0.669200
-6.543600 0.597700
-6.522800 0.530700
-6.502100 0.460600
-6.481300 0.379800
-6.460500 0.239100
-6.439800 0.149400
-6.419000 0.146900
-6.398200 0.250100
-6.377500 0.619100
-6.356700 0.881100
-6.335900 1.078300
-6.315200 1.215900
-6.294400 1.327700
-6.273600 1.419700
-6.252900 1.500200
-6.232100 1.595900
-6.211300 1.709700
-6.190600 1.804900
-6.169800 1.840100
-6.149000 2.020200
-6.128300 2.302500
-6.107500 2.627100
-6.086700 2.923000
-6.066000 3.183000
-6.045200 3.478000
-6.024400 3.618600
-6.003700 3.630300
-5.982900 3.605400
-5.962100 3.539200
-5.941400 3.482200
-5.920600 3.443800
-5.899800 3.440400
-5.879100 3.450800
-5.858300 3.495600
-5.837500 3.573600
-5.816800 3.645500
-5.796000 3.608000
-5.775200 3.551700
-5.754500 3.407300
-5.733700 3.229300
-5.712900 3.142900
-5.692200 3.329500
-5.671400 2.698800
-5.650600 1.628400
-5.629900 0.770800
-5.609100 1.515400
-5.588300 4.091800
-5.567600 5.382900
-5.546800 7.174000
-5.526000 9.669600
-5.505300 9.035900
-5.484500 9.199400
-5.463700 9.513800
-5.443000 10.754200
-5.422200 13.203600
-5.401400 9.850800
-5.380700 5.151300
-5.359900 1.604500
-5.339100 0.022800
-5.318400 0.000000
-5.297600 0.000000
-5.276800 0.193900
-5.256100 5.823700
-5.235300 15.143900
-5.214500 20.271400
-5.193800 19.323100
-5.173000 20.824500
-5.152200 13.211600
-5.131500 0.653800
-5.110700 0.000000
-5.089900 1.107900
-5.069200 4.539400
-5.048400 13.729400
-5.027600 20.598900
-5.006900 16.973700
-4.986100 14.532400
-4.965300 11.422000
-4.944600 7.431000
-4.923800 4.328200
-4.903000 2.500000
-4.882300 1.871700
-4.861500 3.554500
-4.840700 7.945900
-4.820000 14.228000
-4.799200 19.248900
-4.778400 21.693800
-4.757700 27.048700
-4.736900 6.075700
-4.716100 1.183900
-4.695400 0.000000
-4.674600 0.000000
-4.653800 0.000000
-4.633100 0.000000
-4.612300 0.000000
-4.591500 0.000000
-4.570800 0.000000
-4.550000 0.000000
-4.529200 0.000000
-4.508500 0.000000
-4.487700 0.000000
-4.466900 0.000000
-4.446200 0.000000
-4.425400 0.000000
-4.404600 0.000000
-4.383900 0.000000
-4.363100 0.000000
-4.342300 0.000000
-4.321600 0.000000
-4.300800 0.000000
-4.280000 0.000000
-4.259300 0.000000
-4.238500 0.000000
-4.217700 0.000000
-4.197000 0.000000
-4.176200 0.000000
-4.155400 6.478400
-4.134700 15.866200
-4.113900 47.877600
-4.093100 30.685700
-4.072400 0.000000
-4.051600 0.000000
-4.030800 0.000000
-4.010100 0.000000
-3.989300 0.000000
-3.968500 0.000000
-3.947800 0.000000
-3.927000 0.000000
-3.906200 0.000000
-3.885500 0.000000
-3.864700 0.000000
-3.843900 0.000000
-3.823200 0.000000
-3.802400 0.000000
-3.781600 0.000000
-3.760900 0.000000
-3.740100 0.000000
-3.719300 0.000000
-3.698600 0.000000
-3.677800 0.000000
-3.657000 0.000000
-3.636300 0.000000
-3.615500 0.000000
-3.594700 0.000000
-3.574000 0.000000
-3.553200 0.133200
-3.532400 0.497800
-3.511700 1.026400
-3.490900 1.846800
-3.470100 3.701200
-3.449400 5.982700
-3.428600 9.507400
-3.407800 10.258700
-3.387100 11.585200
-3.366300 11.655400
-3.345600 10.670800
-3.324800 9.694500
-3.304000 7.797600
-3.283300 5.961400
-3.262500 3.445200
-3.241700 2.035600
-3.221000 0.681200
-3.200200 0.000000
-3.179400 0.000000
-3.158700 0.000000
-3.137900 0.000000
-3.117100 0.000000
-3.096400 0.000000
-3.075600 1.590100
-3.054800 2.960900
-3.034100 4.492100
-3.013300 8.307100
-2.992500 6.686600
-2.971800 6.985400
-2.951000 7.432400
-2.930200 7.977900
-2.909500 7.109700
-2.888700 7.745200
-2.867900 8.383400
-2.847200 9.101900
-2.826400 8.626400
-2.805600 7.358100
-2.784900 6.344500
-2.764100 6.518000
-2.743300 9.173000
-2.722600 12.676600
-2.701800 16.816900
-2.681000 14.203100
-2.660300 12.740700
-2.639500 8.635700
-2.618700 5.536600
-2.598000 3.527000
-2.577200 3.841100
-2.556400 7.681900
-2.535700 13.530000
-2.514900 17.205400
-2.494100 16.561500
-2.473400 11.093700
-2.452600 8.808700
-2.431800 8.055700
-2.411100 9.128000
-2.390300 5.910400
-2.369500 5.209100
-2.348800 6.673400
-2.328000 9.485200
-2.307200 9.342300
-2.286500 10.847000
-2.265700 14.373800
-2.244900 13.079200
-2.224200 9.166400
-2.203400 6.401700
-2.182600 2.823700
-2.161900 2.524800
-2.141100 4.429100
-2.120300 10.098700
-2.099600 13.446200
-2.078800 15.012900
-2.058000 14.436600
-2.037300 12.559100
-2.016500 11.253700
-1.995700 9.343400
-1.975000 4.964500
-1.954200 1.244800
-1.933400 0.032400
-1.912700 1.415200
-1.891900 4.726700
-1.871100 13.636200
-1.850400 17.518700
-1.829600 15.097300
-1.808800 12.562700
-1.788100 13.630500
-1.767300 12.650100
-1.746500 14.173000
-1.725800 16.445300
-1.705000 10.799000
-1.684200 9.286400
-1.663500 14.971300
-1.642700 17.574400
-1.621900 19.622200
-1.601200 16.050400
-1.580400 10.741800
-1.559600 8.127700
-1.538900 9.765100
-1.518100 13.741700
-1.497300 13.396600
-1.476600 11.331500
-1.455800 8.021800
-1.435000 3.087200
-1.414300 1.946400
-1.393500 5.702200
-1.372700 12.643600
-1.352000 17.224600
-1.331200 17.140600
-1.310400 15.743400
-1.289700 16.051300
-1.268900 9.148000
-1.248100 0.985900
-1.227400 0.818600
-1.206600 5.387300
-1.185800 10.701800
-1.165100 17.122100
-1.144300 21.095900
-1.123500 19.466200
-1.102800 17.262900
-1.082000 10.995900
-1.061200 10.621600
-1.040500 13.110300
-1.019700 26.496700
-0.998900 17.005400
-0.978200 11.333000
-0.957400 4.600400
-0.936600 2.217400
-0.915900 2.448200
-0.895100 7.878100
-0.874300 12.238800
-0.853600 10.925200
-0.832800 10.610200
-0.812000 12.087700
-0.791300 10.972100
-0.770500 8.260600
-0.749700 5.690100
-0.729000 9.155500
-0.708200 8.496600
-0.687400 10.046000
-0.666700 7.954200
-0.645900 7.981800
-0.625100 7.411200
-0.604400 7.097000
-0.583600 7.074300
-0.562800 7.049000
-0.542100 6.916800
-0.521300 6.751200
-0.500500 6.276300
-0.479800 5.612400
-0.459000 4.553100
-0.438200 3.641500
-0.417500 2.614800
-0.396700 1.791400
-0.375900 1.053800
-0.355200 0.484700
-0.334400 4.252600
-0.313600 15.648500
-0.292900 17.888800
-0.272100 18.455800
-0.251300 15.082500
-0.230600 9.734700
-0.209800 8.921000
-0.189000 5.200400
-0.168300 2.327400
-0.147500 0.510300
-0.126700 0.000000
-0.106000 0.000000
-0.085200 0.000000
-0.064400 0.000000
-0.043700 0.000000
-0.022900 0.000000
-0.002100 0.000000
0.018600 0.000000
0.039400 0.000000
0.060200 0.000000
0.080900 0.000000
0.101700 0.000000
0.122500 0.000000
0.143200 0.000000
0.164000 0.000000
0.184800 0.000000
0.205500 0.000000
0.226300 0.000000
0.247100 0.000000
0.267800 0.000000
0.288600 0.000000
0.309400 0.000000
0.330100 0.000000
0.350900 0.000000
0.371700 0.000000
0.392400 0.000000
0.413200 0.000000
0.434000 0.000000
0.454700 0.000000
0.475500 0.000000
0.496300 0.000000
0.517000 0.000000
0.537800 0.000000
0.558600 0.000000
0.579300 0.000000
0.600100 0.000000
0.620900 0.000000
0.641600 0.000000
0.662400 0.000000
0.683200 0.000000
0.703900 0.000000
0.724700 0.000000
0.745500 0.000000
0.766200 0.000000
0.787000 0.000000
0.807800 0.000000
0.828500 0.000000
0.849300 0.000000
0.870100 0.000000
0.890800 0.000000
0.911600 0.000000
0.932400 0.000000
0.953100 0.000000
0.973900 0.000000
0.994700 0.000000
1.015400 0.000000
1.036200 0.000000
1.057000 0.000000
1.077700 0.000000
1.098500 0.000000
1.119300 0.000000
1.140000 0.000000
1.160800 0.000000
1.181600 0.000000
1.202300 0.000000
1.223100 0.000000
1.243900 0.000000
1.264600 0.000000
1.285400 0.000000
1.306200 0.000000
1.326900 0.000000
1.347700 0.000000
1.368500 0.000000
1.389200 0.000000
1.410000 0.000000
1.430800 0.000000
1.451500 0.000000
1.472300 0.000000
1.493100 0.000000
1.513800 0.000000
1.534600 0.000000
1.555400 0.000000
1.576100 0.000000
1.596900 0.000000
1.617700 0.000000
1.638400 0.000000
1.659200 0.000000
1.680000 0.000000
1.700700 0.000000
1.721500 0.000000
1.742300 0.000000
1.763000 0.000000
1.783800 0.000000
1.804600 0.000000
1.825300 0.000000
1.846100 0.000000
1.866900 0.000000
1.887600 0.000000
1.908400 0.000000
1.929200 0.000000
1.949900 0.000000
1.970700 0.000000
1.991500 0.000000
2.012200 0.000000
2.033000 0.000000
2.053800 0.000000
2.074500 0.000000
2.095300 0.000000
2.116100 0.000000
2.136800 0.000000
2.157600 0.000000
2.178400 0.000000
2.199100 0.000000
2.219900 0.000000
2.240700 0.000000
2.261400 0.000000
2.282200 0.000000
2.303000 0.000000
2.323700 0.000000
2.344500 0.000000
2.365300 0.000000
2.386000 0.000000
2.406800 0.000000
2.427600 0.000000
2.448300 0.000000
2.469100 0.000000
2.489900 0.000000
2.510600 0.000000
2.531400 0.000000
2.552200 0.000000
2.572900 0.000000
2.593700 0.000000
2.614500 0.000000
2.635200 0.000000
2.656000 0.000000
2.676800 0.000000
2.697500 0.000000
2.718300 0.000000
2.739100 0.000000
2.759800 0.000000
2.780600 0.000000
2.801400 0.000000
2.822100 0.000000
2.842900 0.000000
2.863700 0.000000
2.884400 0.000000
2.905200 0.000000
2.926000 0.000000
2.946700 0.000000
2.967500 0.000000
2.988300 0.000000
3.009000 0.000000
3.029800 0.000000
3.050600 0.000000
3.071300 0.000000
3.092100 0.000000
3.112900 0.000000
3.133600 0.000000
3.154400 0.000000
3.175200 0.000000
3.195900 0.000000
3.216700 0.000000
3.237500 0.000000
3.258200 0.000000
3.279000 0.000000
3.299800 0.000000
3.320500 0.000000
3.341300 0.000000
3.362100 0.000000
3.382800 0.000000
3.403600 0.000000
3.424400 0.000000
3.445100 0.000000
3.465900 0.000000
3.486700 0.000000
3.507400 0.000000
3.528200 0.000000
3.549000 0.000000
3.569700 0.000000
3.590500 0.000000
3.611300 0.000000
3.632000 0.000000
3.652800 0.000000
3.673600 0.000000
3.694300 0.000000
3.715100 0.000000
3.735900 0.000000
3.756600 0.000000
3.777400 0.000000
3.798200 0.000000
3.818900 0.000000
3.839700 0.000000
3.860500 0.000000
3.881200 0.000000
3.902000 0.000000
3.922800 0.000000
3.943500 0.000000
3.964300 0.000000
3.985100 0.000000
4.005800 0.000000
4.026600 0.000000
4.047400 0.000000
4.068100 0.000000
4.088900 0.000000
4.109700 0.000000
4.130400 0.000000
4.151200 0.000000
4.172000 0.000000
4.192700 0.000000
4.213500 0.000000
4.234300 0.000000
4.255000 0.000000
4.275800 0.000000
4.296600 0.000000
4.317300 0.000000
4.338100 0.000000
4.358900 0.000000
4.379600 0.000000
4.400400 0.000000
4.421200 0.000000
4.441900 0.000000
4.462700 0.000000
4.483500 0.000000
4.504200 0.000000
4.525000 0.000000
4.545800 0.000000
4.566500 0.000000
4.587300 0.000000
4.608100 0.000000
4.628800 0.000000
4.649600 0.000000
4.670400 0.000000
4.691100 0.000000
4.711900 0.000000
4.732700 0.000000
4.753400 0.000000
4.774200 0.000000
4.795000 0.000000
4.815700 0.000000
4.836500 0.000000
4.857300 0.000000
4.878000 0.000000
4.898800 0.000000
4.919600 0.000000
4.940300 0.000000
4.961100 0.000000
4.981900 0.000000
5.002600 0.000000
5.023400 0.000000
5.044200 0.000000
5.064900 0.000000
5.085700 0.000000
5.106500 0.000000
5.127200 0.000000
5.148000 0.000000
5.168800 0.000000
5.189500 0.000000
5.210300 0.000000
5.231100 0.000000
5.251800 0.000000
5.272600 0.000600
5.293400 0.002800
5.314100 0.006600
5.334900 0.012000
5.355700 0.019000
5.376400 0.027500
5.397200 0.037700
5.418000 0.049400
5.438700 0.062800
5.459500 0.077700
5.480300 0.094200
5.501000 0.112300
5.521800 0.132000
5.542600 0.153300
5.563300 0.176100
5.584100 0.200600
5.604900 0.226600
5.625600 0.254300
5.646400 0.282100
5.667200 0.306000
5.687900 0.327900
5.708700 0.348100
5.729500 0.366800
5.750200 0.384100
5.771000 0.399800
5.791800 0.414100
5.812500 0.427000
5.833300 0.439200
5.854100 0.450700
5.874800 0.461600
5.895600 0.472600
5.916400 0.483900
5.937100 0.495400
5.957900 0.507200
5.978700 0.519300
5.999400 0.531800
6.020200 0.545500
6.041000 0.559700
6.061700 0.574000
6.082500 0.588700
6.103300 0.603600
6.124000 0.618800
6.144800 0.634200
6.165600 0.650000
6.186300 0.666400
6.207100 0.684600
6.227900 0.704600
6.248600 0.726400
6.269400 0.750000
6.290200 0.775400
6.310900 0.802700
6.331700 0.831700
6.352500 0.862600
6.373200 0.895200
6.394000 0.929000
6.414800 0.961000
6.435500 0.990300
6.456300 1.016900
6.477100 1.041500
6.497800 1.076400
6.518600 1.111800
6.539400 1.141800
6.560100 1.157900
6.580900 1.156100
6.601700 1.133600
6.622400 1.132300
6.643200 1.154800
6.663900 1.182900
6.684700 1.226200
6.705500 1.272200
6.726200 1.315400
6.747000 1.355800
6.767800 1.393400
6.788500 1.428200
6.809300 1.459700
6.830100 1.485400
6.850800 1.505100
6.871600 1.523000
6.892400 1.542800
6.913100 1.564700
6.933900 1.584000
6.954700 1.596300
6.975400 1.675400
6.996200 1.675600
7.017000 1.639500
7.037700 1.609900
7.058500 1.587800
7.079300 1.565200
7.100000 1.539900
7.120800 1.597900
7.141600 1.569900
7.162300 1.515800
7.183100 1.474900
7.203900 1.447200
7.224600 1.432700
7.245400 1.422300
7.266200 1.400000
7.286900 1.384900
7.307700 1.375600
7.328500 1.374900
7.349200 1.388600
7.370000 1.415500
7.390800 1.455500
7.411500 1.507800
7.432300 1.538800
7.453100 1.549300
7.473800 1.559000
7.494600 1.567800
7.515400 1.575100
7.536100 1.584300
7.556900 1.628100
7.577700 1.701800
7.598400 1.824100
7.619200 1.998600
7.640000 2.114300
7.660700 2.197200
7.681500 2.267700
7.702300 3.299600
7.723000 3.276500
7.743800 3.285400
7.764600 3.149900
7.785300 3.041500
7.806100 3.081900
7.826900 3.444800
7.847600 4.101100
7.868400 4.359500
7.889200 4.530000
7.909900 4.632500
7.930700 4.622700
7.951500 4.338800
7.972200 4.121200
7.993000 3.998500
8.013800 3.969000
8.034500 5.046400
8.055300 6.320600
8.076100 2.937700
8.096800 2.799500
8.117600 2.965000
8.138400 2.511300
8.159100 2.869500
8.179900 2.956200
8.200700 3.041700
8.221400 3.098200
8.242200 3.141000
8.263000 3.169400
8.283700 3.182000
8.304500 3.205600
8.325300 3.265100
8.346000 3.329600
8.366800 3.407000
8.387600 3.484900
8.408300 3.541300
8.429100 3.656000
8.449900 3.835200
8.470600 4.078200
8.491400 3.974700
8.512200 4.082000
8.532900 4.041300
8.553700 4.179900
8.574500 4.641900
8.595200 5.235000
8.616000 5.571000
8.636800 5.716400
8.657500 5.588100
8.678300 5.193200
8.699100 5.037100
8.719800 5.594700
8.740600 5.618400
8.761400 5.509800
8.782100 5.742200
8.802900 6.110100
8.823700 6.769700
8.844400 7.442600
8.865200 7.901700
8.886000 7.938300
8.906700 9.141900
8.927500 10.358300
8.948300 9.814200
8.969000 8.211700
8.989800 9.122500
9.010600 8.850400
9.031300 9.784300
9.052100 10.129000
9.072900 8.794000
9.093600 8.096400
9.114400 8.777900
9.135200 9.795900
9.155900 9.246900
9.176700 7.341100
9.197500 6.159700
9.218200 6.499300
9.239000 7.220000
9.259800 10.609300
9.280500 11.155900
9.301300 10.922400
9.322100 9.691700
9.342800 8.167600
9.363600 5.847500
9.384400 3.999200
9.405100 3.055500
9.425900 1.888800
9.446700 0.693200
9.467400 1.469300
9.488200 2.690000
9.509000 4.116800
9.529700 5.604100
9.550500 7.267200
9.571300 11.351700
9.592000 16.300500
9.612800 14.946300
9.633600 13.287900
9.654300 8.298600
9.675100 4.047300
9.695900 3.059400
9.716600 3.839300
9.737400 4.907200
9.758200 6.141100
9.778900 7.445900
9.799700 9.145500
9.820500 9.842700
9.841200 9.819200
9.862000 10.983600
9.882800 10.603600
9.903500 9.178000
9.924300 7.528500
9.945100 5.401700
9.965800 4.211100
9.986600 3.969100
10.007400 5.073700
10.028100 6.901400
10.048900 8.076000
10.069700 10.076100
10.090400 11.975500
10.111200 12.829400
10.132000 12.631300
10.152700 9.752000
10.173500 7.480600
10.194300 5.852800
10.215000 4.927400
10.235800 3.753200
10.256600 3.685800
10.277300 3.950100
10.298100 4.442100
10.318900 4.890200
10.339600 5.421800
10.360400 6.221900
10.381200 7.268000
10.401900 8.027800
10.422700 7.305800
10.443500 6.259800
10.464200 5.530000
10.485000 5.153200
10.505800 5.154100
10.526500 4.973000
10.547300 4.457600
10.568100 4.418400
10.588800 6.101700
10.609600 7.585400
10.630400 6.806700
10.651100 6.632200
10.671900 7.084200
10.692700 7.034300
10.713400 7.430400
10.734200 7.029400
10.755000 7.236400
10.775700 7.381800
10.796500 7.195100
10.817300 6.588800
10.838000 5.899100
10.858800 4.183700
10.879600 5.624100
10.900300 5.550200
10.921100 6.178200
10.941900 8.152600
10.962600 7.269600
10.983400 7.251600
11.004200 8.532200
11.024900 8.871200
11.045700 8.372300
11.066500 8.460100
11.087200 8.359300
11.108000 7.958800
11.128800 8.517900
11.149500 4.489200
11.170300 4.057200
11.191100 5.572700
11.211800 7.354000
11.232600 8.373900
11.253400 9.086800
11.274100 7.743900
11.294900 7.506400
11.315700 8.105300
11.336400 8.308300
11.357200 8.664000
11.378000 9.616100
11.398700 5.997000
11.419500 2.788800
11.440300 1.767700
11.461000 1.511100
11.481800 2.455800
11.502600 3.243900
11.523300 4.012200
11.544100 5.307700
11.564900 7.175900
11.585600 8.606300
11.606400 8.449800
11.627200 8.772900
11.647900 8.078800
11.668700 7.684100
11.689500 7.293900
11.710200 6.582500
11.731000 5.165100
11.751800 4.236100
11.772500 4.398500
11.793300 4.372100
11.814100 4.111500
11.834800 3.761900
11.855600 4.155700
11.876400 5.016300
11.897100 5.978200
11.917900 6.547800
11.938700 6.764000
11.959400 7.081400
11.980200 7.470600
12.001000 8.213300
12.021700 8.180100
12.042500 6.948500
12.063300 8.230800
12.084000 8.738200
12.104800 7.614500
12.125600 7.056200
12.146300 6.960000
12.167100 7.043500
12.187900 6.487600
12.208600 6.021100
12.229400 5.932900
12.250200 5.906200
12.270900 5.811700
12.291700 5.520300
12.312500 4.926500
12.333200 4.865800
12.354000 5.242100
12.374800 6.143200
12.395500 6.110300
12.416300 5.907900
12.437100 7.029400
12.457800 7.483100
12.478600 6.204200
12.499400 5.733500
12.520100 5.344900
12.540900 5.003700
12.561700 4.707500
12.582400 4.536200
12.603200 4.418100
12.624000 4.234800
12.644700 4.465600
12.665500 5.016800
12.686300 5.444300
12.707000 5.785400
12.727800 5.473000
12.748600 5.557600
12.769300 5.744500
12.790100 5.742600
12.810900 5.677700
12.831600 5.502700
12.852400 5.160000
12.873200 4.929300
12.893900 5.075900
12.914700 5.403600
12.935500 5.657600
12.956200 6.350500
12.977000 8.216400
12.997800 8.164500
13.018500 5.642600
13.039300 4.254800
13.060100 4.025100
13.080800 3.965000
13.101600 4.068500
13.122400 4.276200
13.143100 4.492200
13.163900 5.429900
13.184700 5.833700
13.205400 6.651200
13.226200 7.132700
13.247000 7.894400
13.267700 9.194600
13.288500 9.841200
13.309300 8.757600
13.330000 6.881600
13.350800 5.087500
13.371600 3.764600
13.392300 3.227100
13.413100 2.893100
13.433900 2.601300
13.454600 2.489700
13.475400 2.789100
13.496200 3.645800
13.516900 4.426000
13.537700 4.832200
13.558500 4.255300
13.579200 4.580300
13.600000 4.795100
13.620800 4.979000
13.641500 5.149200
13.662300 5.216200
13.683100 5.366900
13.703800 6.367600
13.724600 8.302500
13.745400 8.458200
13.766100 5.357400
13.786900 4.863900
13.807700 4.513400
13.828400 4.220400
13.849200 3.930200
13.870000 3.623000
13.890700 3.396500
13.911500 3.534100
13.932300 3.041200
13.953000 2.648200
13.973800 2.690300
13.994600 3.895400
14.015300 4.660800
14.036100 5.766700
14.056900 6.918900
14.077600 7.338300
14.098400 7.616400
14.119200 7.546200
14.139900 7.469400
14.160700 7.098800
14.181500 6.256900
14.202200 5.745000
14.223000 5.345400
14.243800 4.902700
14.264500 4.856400
14.285300 5.936300
14.306100 5.755100
14.326800 5.464100
14.347600 5.550900
14.368400 5.045300
14.389100 5.166400
14.409900 5.617300
14.430700 6.136900
14.451400 6.683300
14.472200 7.092500
14.493000 7.070400
14.513700 6.921200
14.534500 7.546600
14.555300 7.288300
14.576000 5.474800
14.596800 4.728600
14.617600 2.726200
14.638300 2.219800
14.659100 1.711500
14.679900 1.388800
14.700600 1.752500
14.721400 2.246900
14.742200 2.922200
14.762900 3.463400
14.783700 4.534800
14.804500 5.373900
14.825200 5.815100
14.846000 6.313300
14.866800 6.754900
14.887500 7.183700
14.908300 8.079600
14.929100 9.107700
14.949800 8.656900
14.970600 7.473400
14.991400 5.892300
15.012100 4.667300
15.032900 3.412800
15.053700 2.478800
15.074400 1.992900
15.095200 2.004600
15.116000 2.101000
15.136700 3.014100
15.157500 4.261000
15.178300 5.633400
15.199000 6.818300
15.219800 8.453700
15.240600 9.734900
15.261300 11.497300
15.282100 11.660300
15.302900 9.484900
15.323600 6.298700
15.344400 4.616100
15.365200 3.541400
15.385900 2.725900
15.406700 2.049400
15.427500 1.750400
15.448200 1.874300
15.469000 2.301500
15.489800 3.035300
15.510500 4.228800
15.531300 6.908000
15.552100 8.560700
15.572800 8.213400
15.593600 8.991500
15.614400 8.302400
15.635100 7.905100
15.655900 7.528000
15.676700 7.095400
15.697400 6.645900
15.718200 5.916300
15.739000 4.460600
15.759700 3.049000
15.780500 3.919600
15.801300 4.951600
15.822000 5.768400
15.842800 7.004100
15.863600 7.469500
15.884300 8.961600
15.905100 11.196600
15.925900 11.712200
15.946600 11.943700
15.967400 9.177400
15.988200 5.679600
16.008900 3.560600
16.029700 2.510800
16.050500 1.862400
16.071200 1.354400
16.092000 1.404300
16.112800 2.352800
16.133500 3.432600
16.154300 4.327900
16.175100 5.194200
16.195800 6.850600
16.216600 9.069800
16.237400 12.684200
16.258100 13.533200
16.278900 11.142500
16.299700 9.475900
16.320400 7.236600
16.341200 6.354800
16.362000 6.607700
16.382700 5.942400
16.403500 5.329800
16.424300 5.071500
16.445000 5.601100
16.465800 6.791900
16.486600 7.453400
16.507300 7.702200
16.528100 7.274600
16.548900 6.731700
16.569600 6.262500
16.590400 6.476800
16.611200 4.477500
16.631900 4.462300
16.652700 4.438700
16.673400 5.006600
16.694200 5.575700
16.715000 5.919800
16.735700 6.384600
16.756500 6.887900
16.777300 7.367900
16.798000 7.482300
16.818800 6.628600
16.839600 6.584800
16.860300 7.380800
16.881100 7.569900
16.901900 6.802100
16.922600 5.842500
16.943400 4.933000
16.964200 4.327600
16.984900 4.291300
17.005700 4.263900
17.026500 3.767300
17.047200 3.385100
17.068000 3.753100
17.088800 5.179200
17.109500 6.786200
17.130300 7.927900
17.151100 8.264900
17.171800 7.835000
17.192600 7.437100
17.213400 7.025600
17.234100 7.958400
17.254900 8.834900
17.275700 5.720000
17.296400 3.702700
17.317200 2.507900
17.338000 2.139700
17.358700 1.992600
17.379500 2.952700
17.400300 3.983400
17.421000 6.838700
17.441800 10.379400
17.462600 10.965000
17.483300 11.697800
17.504100 11.768400
17.524900 10.733600
17.545600 9.641100
17.566400 8.179500
17.587200 6.181300
17.607900 4.146900
17.628700 3.032100
17.649500 2.793600
17.670200 2.163700
17.691000 2.410800
17.711800 3.262900
17.732500 4.479100
17.753300 5.855400
17.774100 7.421100
17.794800 8.818900
17.815600 9.348400
17.836400 8.920600
17.857100 7.399800
17.877900 6.594900
17.898700 5.929500
17.919400 4.781600
17.940200 4.303100
17.961000 3.783800
17.981700 2.958600
18.002500 2.278000
18.023300 1.810300
18.044000 0.523100
18.064800 0.298600
18.085600 0.136600
18.106300 0.037200
18.127100 0.000300
18.147900 0.000000
18.168600 0.000000
18.189400 0.000000
18.210200 0.000000
18.230900 0.000000
18.251700 0.000000
18.272500 0.000000
18.293200 0.000000
18.314000 0.000000
18.334800 0.000000
18.355500 0.000000
18.376300 0.000000
18.397100 0.000000
18.417800 0.000000
18.438600 0.000000
18.459400 0.000000
18.480100 0.000000
18.500900 0.000000
18.521700 0.000000
18.542400 0.000000
18.563200 0.000000
18.584000 0.000000
18.604700 0.000000
18.625500 0.000000
18.646300 0.000000
18.667000 0.000000
18.687800 0.000000
18.708600 0.000000
18.729300 0.000000
18.750100 0.000000
18.770900 0.000000
18.791600 0.000000
18.812400 0.000000
18.833200 0.000000
18.853900 0.000000
18.874700 0.000000
18.895500 0.000000
18.916200 0.000000
18.937000 0.000000
18.957800 0.000000
18.978500 0.000000
18.999300 0.000000
19.020100 0.000000
19.040800 0.000000
19.061600 0.000000
19.082400 0.000000
19.103100 0.000000
19.123900 0.000000
19.144700 0.000000
19.165400 0.000000
19.186200 0.000000
19.207000 0.000000
19.227700 0.000000
19.248500 0.000000
19.269300 0.000000
19.290000 0.000000
19.310800 0.000000
19.331600 0.000000
19.352300 0.000000
19.373100 0.000000
19.393900 0.000000
19.414600 0.000000
19.435400 0.000000
19.456200 0.000000
19.476900 0.000000
19.497700 0.000000
19.518500 0.000000
19.539200 0.000000
19.560000 0.000000
19.580800 0.000000
19.601500 0.000000
19.622300 0.000000
19.643100 0.000000
19.663800 0.000000
19.684600 0.000000
19.705400 0.000000
19.726100 0.000000
19.746900 0.000000
19.767700 0.000000
19.788400 0.000000
19.809200 0.000000
19.830000 0.000000
19.850700 0.000000
19.871500 0.000000
19.892300 0.000000
19.913000 0.000000
19.933800 0.000000
19.954600 0.000000
19.975300 0.000000
19.996100 0.000000
20.016900 0.000000
e
