set title 'mp-990 - Density of States'
set xlabel 'Energy (eV)'
set ylabel 'DOS (states/eV)'
set grid
set xrange [-10:10]
set yrange [0:18.847]
set xzeroaxis lt -1
set terminal png size 800,600
set output 'mp-990_dos_gnuplot.png'
plot '-' using 1:2 with lines title 'DOS'
-21.287000 0.000000
-21.267300 0.000000
-21.247500 0.000000
-21.227800 0.000000
-21.208100 0.000000
-21.188400 0.000000
-21.168700 0.000000
-21.148900 0.000000
-21.129200 0.000000
-21.109500 0.000000
-21.089800 0.000000
-21.070100 0.000000
-21.050400 0.000000
-21.030600 0.000000
-21.010900 0.000000
-20.991200 0.000000
-20.971500 0.000000
-20.951800 0.000000
-20.932000 0.000000
-20.912300 0.000000
-20.892600 0.000000
-20.872900 0.000000
-20.853200 0.000000
-20.833400 0.000000
-20.813700 0.000000
-20.794000 0.000000
-20.774300 0.000000
-20.754600 0.000000
-20.734900 0.000000
-20.715100 0.000000
-20.695400 0.000000
-20.675700 0.000000
-20.656000 0.000000
-20.636300 0.000000
-20.616500 0.000000
-20.596800 0.000000
-20.577100 0.000000
-20.557400 0.000000
-20.537700 0.000000
-20.517900 0.000000
-20.498200 0.000000
-20.478500 0.000000
-20.458800 0.000000
-20.439100 0.000000
-20.419400 0.000000
-20.399600 0.000000
-20.379900 0.000000
-20.360200 0.000000
-20.340500 0.000000
-20.320800 0.000000
-20.301000 0.000000
-20.281300 0.000000
-20.261600 0.000000
-20.241900 0.000000
-20.222200 0.000000
-20.202400 0.000000
-20.182700 0.000000
-20.163000 0.000000
-20.143300 0.000000
-20.123600 0.000000
-20.103900 0.000000
-20.084100 0.000000
-20.064400 0.000000
-20.044700 0.000000
-20.025000 0.000000
-20.005300 0.000000
-19.985500 0.000000
-19.965800 0.000000
-19.946100 0.000000
-19.926400 0.000000
-19.906700 0.000000
-19.886900 0.000000
-19.867200 0.000000
-19.847500 0.000000
-19.827800 0.000000
-19.808100 0.000000
-19.788400 0.000000
-19.768600 0.000000
-19.748900 0.000000
-19.729200 0.000000
-19.709500 0.000000
-19.689800 0.000000
-19.670000 0.000000
-19.650300 0.000000
-19.630600 0.000000
-19.610900 0.000000
-19.591200 0.000000
-19.571400 0.000000
-19.551700 0.000000
-19.532000 0.000000
-19.512300 0.000000
-19.492600 14.003900
-19.472900 21.872500
-19.453100 19.811700
-19.433400 14.492300
-19.413700 13.188200
-19.394000 12.238100
-19.374300 34.822400
-19.354500 42.307600
-19.334800 80.308300
-19.315100 15.101900
-19.295400 20.972100
-19.275700 27.241900
-19.255900 0.000000
-19.236200 0.000000
-19.216500 0.000000
-19.196800 0.000000
-19.177100 0.000000
-19.157400 0.000000
-19.137600 0.000000
-19.117900 0.000000
-19.098200 0.000000
-19.078500 0.000000
-19.058800 0.000000
-19.039000 0.000000
-19.019300 0.000000
-18.999600 0.000000
-18.979900 0.000000
-18.960200 0.000000
-18.940400 0.000000
-18.920700 0.000000
-18.901000 0.000000
-18.881300 0.000000
-18.861600 0.000000
-18.841900 0.000000
-18.822100 0.000000
-18.802400 0.000000
-18.782700 0.000000
-18.763000 0.000000
-18.743300 0.000000
-18.723500 0.000000
-18.703800 0.000000
-18.684100 0.000000
-18.664400 0.000000
-18.644700 0.000000
-18.625000 0.000000
-18.605200 0.000000
-18.585500 0.000000
-18.565800 0.000000
-18.546100 0.000000
-18.526400 0.000000
-18.506600 0.000000
-18.486900 0.000000
-18.467200 0.000000
-18.447500 0.000000
-18.427800 0.000000
-18.408000 0.000000
-18.388300 0.000000
-18.368600 0.000000
-18.348900 0.000000
-18.329200 0.000000
-18.309500 0.000000
-18.289700 0.000000
-18.270000 0.000000
-18.250300 0.000000
-18.230600 0.000000
-18.210900 0.000000
-18.191100 0.000000
-18.171400 0.000000
-18.151700 0.000000
-18.132000 0.000000
-18.112300 0.000000
-18.092500 0.000000
-18.072800 0.000000
-18.053100 0.000000
-18.033400 0.000000
-18.013700 0.000000
-17.994000 0.000000
-17.974200 0.000000
-17.954500 0.000000
-17.934800 0.000000
-17.915100 0.000000
-17.895400 0.000000
-17.875600 0.000000
-17.855900 0.000000
-17.836200 0.000000
-17.816500 0.000000
-17.796800 0.000000
-17.777000 0.000000
-17.757300 0.000000
-17.737600 0.000000
-17.717900 0.000000
-17.698200 0.000000
-17.678500 0.000000
-17.658700 0.000000
-17.639000 0.000000
-17.619300 0.000000
-17.599600 0.000000
-17.579900 0.000000
-17.560100 0.000000
-17.540400 0.000000
-17.520700 0.000000
-17.501000 0.000000
-17.481300 0.000000
-17.461500 0.000000
-17.441800 0.000000
-17.422100 0.000000
-17.402400 0.000000
-17.382700 0.000000
-17.363000 0.000000
-17.343200 0.000000
-17.323500 0.000000
-17.303800 0.000000
-17.284100 0.000000
-17.264400 0.000000
-17.244600 0.000000
-17.224900 0.000000
-17.205200 0.000000
-17.185500 0.000000
-17.165800 0.000000
-17.146000 0.000000
-17.126300 0.000000
-17.106600 0.000000
-17.086900 0.000000
-17.067200 0.000000
-17.047500 0.000000
-17.027700 0.000000
-17.008000 0.000000
-16.988300 0.000000
-16.968600 0.000000
-16.948900 0.000000
-16.929100 0.000000
-16.909400 0.000000
-16.889700 0.000000
-16.870000 0.000000
-16.850300 0.000000
-16.830500 0.000000
-16.810800 0.000000
-16.791100 0.000000
-16.771400 0.000000
-16.751700 0.000000
-16.732000 0.000000
-16.712200 0.000000
-16.692500 0.000000
-16.672800 0.000000
-16.653100 0.000000
-16.633400 0.000000
-16.613600 0.000000
-16.593900 0.000000
-16.574200 0.000000
-16.554500 0.000000
-16.534800 0.000000
-16.515000 0.000000
-16.495300 0.000000
-16.475600 0.000000
-16.455900 0.000000
-16.436200 0.000000
-16.416500 0.000000
-16.396700 0.000000
-16.377000 0.000000
-16.357300 0.000000
-16.337600 0.000000
-16.317900 0.000000
-16.298100 0.000000
-16.278400 0.000000
-16.258700 0.000000
-16.239000 0.000000
-16.219300 0.000000
-16.199500 0.000000
-16.179800 0.000000
-16.160100 0.000000
-16.140400 0.000000
-16.120700 0.000000
-16.101000 0.000000
-16.081200 0.000000
-16.061500 0.000000
-16.041800 0.000000
-16.022100 0.000000
-16.002400 0.000000
-15.982600 0.000000
-15.962900 0.000000
-15.943200 0.000000
-15.923500 0.000000
-15.903800 0.000000
-15.884000 0.000000
-15.864300 0.000000
-15.844600 0.000000
-15.824900 0.000000
-15.805200 0.000000
-15.785500 0.000000
-15.765700 0.000000
-15.746000 0.000000
-15.726300 0.000000
-15.706600 0.000000
-15.686900 0.000000
-15.667100 0.000000
-15.647400 0.000000
-15.627700 0.000000
-15.608000 0.000000
-15.588300 0.000000
-15.568500 0.000000
-15.548800 0.000000
-15.529100 0.000000
-15.509400 0.000000
-15.489700 0.000000
-15.470000 0.000000
-15.450200 0.000000
-15.430500 0.000000
-15.410800 0.000000
-15.391100 0.000000
-15.371400 0.000000
-15.351600 0.000000
-15.331900 0.000000
-15.312200 0.000000
-15.292500 0.000000
-15.272800 0.000000
-15.253100 0.000000
-15.233300 0.000000
-15.213600 0.000000
-15.193900 0.000000
-15.174200 0.000000
-15.154500 0.000000
-15.134700 0.000000
-15.115000 0.000000
-15.095300 0.000000
-15.075600 0.000000
-15.055900 0.000000
-15.036100 0.000000
-15.016400 0.000000
-14.996700 0.000000
-14.977000 0.000000
-14.957300 0.000000
-14.937600 0.000000
-14.917800 0.000000
-14.898100 0.000000
-14.878400 0.000000
-14.858700 0.000000
-14.839000 0.000000
-14.819200 0.000000
-14.799500 0.000000
-14.779800 0.000000
-14.760100 0.000000
-14.740400 0.000000
-14.720600 0.000000
-14.700900 0.000000
-14.681200 0.000000
-14.661500 0.000000
-14.641800 0.000000
-14.622100 0.000000
-14.602300 0.000000
-14.582600 0.000000
-14.562900 0.000000
-14.543200 0.000000
-14.523500 0.000000
-14.503700 0.000000
-14.484000 0.000000
-14.464300 0.000000
-14.444600 0.000000
-14.424900 0.000000
-14.405100 0.000000
-14.385400 0.000000
-14.365700 0.000000
-14.346000 0.000000
-14.326300 0.000000
-14.306600 0.000000
-14.286800 0.000000
-14.267100 0.000000
-14.247400 0.000000
-14.227700 0.000000
-14.208000 0.000000
-14.188200 0.000000
-14.168500 0.000000
-14.148800 0.000000
-14.129100 0.000000
-14.109400 0.000000
-14.089600 0.000000
-14.069900 0.000000
-14.050200 0.000000
-14.030500 0.000000
-14.010800 0.000000
-13.991100 0.000000
-13.971300 0.000000
-13.951600 0.000000
-13.931900 0.000000
-13.912200 0.000000
-13.892500 0.000000
-13.872700 0.000000
-13.853000 0.000000
-13.833300 0.000000
-13.813600 0.000000
-13.793900 0.000000
-13.774100 0.000000
-13.754400 0.000000
-13.734700 0.000000
-13.715000 0.000000
-13.695300 0.000000
-13.675600 0.000000
-13.655800 0.000000
-13.636100 0.000000
-13.616400 0.000000
-13.596700 0.000000
-13.577000 0.000000
-13.557200 0.000000
-13.537500 0.000000
-13.517800 0.000000
-13.498100 0.000000
-13.478400 0.000000
-13.458600 0.000000
-13.438900 0.000000
-13.419200 0.000000
-13.399500 0.000000
-13.379800 0.000000
-13.360100 0.000000
-13.340300 0.000000
-13.320600 0.000000
-13.300900 0.000000
-13.281200 0.000000
-13.261500 0.000000
-13.241700 0.000000
-13.222000 0.000000
-13.202300 0.000000
-13.182600 0.000000
-13.162900 0.000000
-13.143100 0.000000
-13.123400 0.000000
-13.103700 0.000000
-13.084000 0.000000
-13.064300 0.000000
-13.044600 0.000000
-13.024800 0.000000
-13.005100 0.000000
-12.985400 0.000000
-12.965700 0.000000
-12.946000 0.000000
-12.926200 0.000000
-12.906500 0.000000
-12.886800 0.000000
-12.867100 0.000000
-12.847400 0.000000
-12.827600 0.000000
-12.807900 0.000000
-12.788200 0.000000
-12.768500 0.000000
-12.748800 0.000000
-12.729100 0.000000
-12.709300 0.000000
-12.689600 0.000000
-12.669900 0.000000
-12.650200 0.000000
-12.630500 0.000000
-12.610700 0.000000
-12.591000 0.000000
-12.571300 0.000000
-12.551600 0.000000
-12.531900 0.000000
-12.512100 0.000000
-12.492400 0.000000
-12.472700 0.000000
-12.453000 0.000000
-12.433300 0.000000
-12.413600 0.000000
-12.393800 0.000000
-12.374100 0.000000
-12.354400 0.000000
-12.334700 0.000000
-12.315000 0.000000
-12.295200 0.000000
-12.275500 0.000000
-12.255800 0.000000
-12.236100 0.000000
-12.216400 0.000000
-12.196600 0.000000
-12.176900 0.000000
-12.157200 0.000000
-12.137500 0.000000
-12.117800 0.000000
-12.098100 0.000000
-12.078300 0.000000
-12.058600 0.000000
-12.038900 0.000000
-12.019200 0.000000
-11.999500 0.000000
-11.979700 0.000000
-11.960000 0.000000
-11.940300 0.000000
-11.920600 0.000000
-11.900900 0.000000
-11.881200 0.000000
-11.861400 0.000000
-11.841700 0.000000
-11.822000 0.000000
-11.802300 0.000000
-11.782600 0.000000
-11.762800 0.000000
-11.743100 0.000000
-11.723400 0.000000
-11.703700 0.000000
-11.684000 0.000000
-11.664200 0.000000
-11.644500 0.000000
-11.624800 0.000000
-11.605100 0.000000
-11.585400 0.000000
-11.565700 0.000000
-11.545900 0.000000
-11.526200 0.000000
-11.506500 0.000000
-11.486800 0.000000
-11.467100 0.000000
-11.447300 0.000000
-11.427600 0.000000
-11.407900 0.000000
-11.388200 0.000000
-11.368500 0.000000
-11.348700 0.000000
-11.329000 0.000000
-11.309300 0.000000
-11.289600 0.000000
-11.269900 0.000000
-11.250200 0.000000
-11.230400 0.000000
-11.210700 0.000000
-11.191000 0.000000
-11.171300 0.000000
-11.151600 0.000000
-11.131800 0.000000
-11.112100 0.000000
-11.092400 0.000000
-11.072700 0.000000
-11.053000 0.000000
-11.033200 0.000000
-11.013500 0.000000
-10.993800 0.000000
-10.974100 0.000000
-10.954400 0.000000
-10.934700 0.000000
-10.914900 0.000000
-10.895200 0.000000
-10.875500 0.000000
-10.855800 0.000000
-10.836100 0.000000
-10.816300 0.000000
-10.796600 0.000000
-10.776900 0.000000
-10.757200 0.000000
-10.737500 0.000000
-10.717700 0.000000
-10.698000 0.000000
-10.678300 0.000000
-10.658600 0.000000
-10.638900 0.000000
-10.619200 0.000000
-10.599400 0.000000
-10.579700 0.000000
-10.560000 0.000000
-10.540300 0.000000
-10.520600 0.000000
-10.500800 0.000000
-10.481100 0.000000
-10.461400 0.000000
-10.441700 0.000000
-10.422000 0.000000
-10.402200 0.000000
-10.382500 0.000000
-10.362800 0.000000
-10.343100 0.000000
-10.323400 0.000000
-10.303700 0.000000
-10.283900 0.000000
-10.264200 0.000000
-10.244500 0.000000
-10.224800 0.000000
-10.205100 0.000000
-10.185300 0.000000
-10.165600 0.000000
-10.145900 0.000000
-10.126200 0.000000
-10.106500 0.000000
-10.086700 0.000000
-10.067000 0.000000
-10.047300 0.000000
-10.027600 0.000000
-10.007900 0.000000
-9.988200 0.000000
-9.968400 0.000000
-9.948700 0.000000
-9.929000 0.000000
-9.909300 0.000000
-9.889600 0.000000
-9.869800 0.000000
-9.850100 0.000000
-9.830400 0.000000
-9.810700 0.000000
-9.791000 0.000000
-9.771200 0.000000
-9.751500 0.000000
-9.731800 0.000000
-9.712100 0.000000
-9.692400 0.000000
-9.672700 0.000000
-9.652900 0.000000
-9.633200 0.000000
-9.613500 0.000000
-9.593800 0.000000
-9.574100 0.000000
-9.554300 0.000000
-9.534600 0.000000
-9.514900 0.000000
-9.495200 0.000000
-9.475500 0.000000
-9.455700 0.000000
-9.436000 0.000000
-9.416300 0.000000
-9.396600 0.000000
-9.376900 0.000000
-9.357200 0.000000
-9.337400 0.000000
-9.317700 0.000000
-9.298000 0.000000
-9.278300 0.000000
-9.258600 0.000000
-9.238800 0.000000
-9.219100 0.000000
-9.199400 0.000000
-9.179700 0.000000
-9.160000 0.000000
-9.140200 0.000000
-9.120500 0.000000
-9.100800 0.000000
-9.081100 0.000000
-9.061400 0.000000
-9.041700 0.000000
-9.021900 0.000000
-9.002200 0.000000
-8.982500 0.000000
-8.962800 0.000000
-8.943100 0.000000
-8.923300 0.000000
-8.903600 0.000000
-8.883900 0.000000
-8.864200 0.000000
-8.844500 0.000000
-8.824700 0.000000
-8.805000 0.000000
-8.785300 0.000000
-8.765600 0.000000
-8.745900 0.000000
-8.726200 0.000000
-8.706400 0.000000
-8.686700 0.000000
-8.667000 0.000000
-8.647300 0.000000
-8.627600 0.000000
-8.607800 0.000000
-8.588100 0.000000
-8.568400 0.000000
-8.548700 0.000000
-8.529000 0.000000
-8.509300 0.000000
-8.489500 0.000000
-8.469800 0.000000
-8.450100 0.000000
-8.430400 0.000000
-8.410700 0.000000
-8.390900 0.000000
-8.371200 0.000000
-8.351500 0.000000
-8.331800 0.000000
-8.312100 0.000000
-8.292300 0.000000
-8.272600 0.000000
-8.252900 0.000000
-8.233200 0.000000
-8.213500 0.000000
-8.193800 0.000000
-8.174000 0.000000
-8.154300 0.000000
-8.134600 0.000000
-8.114900 0.000000
-8.095200 0.000000
-8.075400 0.000000
-8.055700 0.000000
-8.036000 0.000000
-8.016300 0.000000
-7.996600 0.000000
-7.976800 0.000000
-7.957100 0.000000
-7.937400 0.000000
-7.917700 0.000000
-7.898000 0.000000
-7.878300 0.000000
-7.858500 0.000000
-7.838800 0.000000
-7.819100 0.000000
-7.799400 0.000000
-7.779700 0.000000
-7.759900 0.000000
-7.740200 0.000000
-7.720500 0.000000
-7.700800 0.000000
-7.681100 0.000000
-7.661300 0.000000
-7.641600 0.000000
-7.621900 0.000000
-7.602200 0.000000
-7.582500 0.000000
-7.562800 0.000000
-7.543000 0.000000
-7.523300 0.000000
-7.503600 0.000000
-7.483900 0.000000
-7.464200 0.000000
-7.444400 0.000000
-7.424700 0.000000
-7.405000 0.000000
-7.385300 0.000000
-7.365600 0.000000
-7.345800 0.000000
-7.326100 0.000000
-7.306400 0.000000
-7.286700 0.000000
-7.267000 0.000000
-7.247300 0.000000
-7.227500 0.000000
-7.207800 0.000000
-7.188100 0.000000
-7.168400 0.000000
-7.148700 0.000000
-7.128900 0.000000
-7.109200 0.000000
-7.089500 0.000000
-7.069800 0.000000
-7.050100 0.000000
-7.030300 0.000000
-7.010600 0.000000
-6.990900 0.000000
-6.971200 0.000000
-6.951500 0.000000
-6.931800 0.000000
-6.912000 0.000000
-6.892300 0.000000
-6.872600 0.000000
-6.852900 0.000000
-6.833200 0.000000
-6.813400 0.000000
-6.793700 0.000000
-6.774000 0.000000
-6.754300 0.000000
-6.734600 0.000000
-6.714800 0.000000
-6.695100 0.000000
-6.675400 0.000000
-6.655700 0.000000
-6.636000 0.000000
-6.616300 0.000000
-6.596500 0.000000
-6.576800 0.000000
-6.557100 0.000000
-6.537400 0.000000
-6.517700 0.000000
-6.497900 0.000000
-6.478200 0.000000
-6.458500 0.000000
-6.438800 0.000000
-6.419100 0.000000
-6.399300 0.000000
-6.379600 0.000000
-6.359900 0.000000
-6.340200 0.000000
-6.320500 0.000000
-6.300800 0.000000
-6.281000 0.000000
-6.261300 0.000000
-6.241600 0.000000
-6.221900 0.000000
-6.202200 0.000000
-6.182400 0.000000
-6.162700 0.000000
-6.143000 0.000000
-6.123300 0.000000
-6.103600 0.000000
-6.083800 0.000000
-6.064100 0.000000
-6.044400 0.000000
-6.024700 0.000000
-6.005000 0.000000
-5.985300 0.000000
-5.965500 0.000000
-5.945800 0.000000
-5.926100 0.000000
-5.906400 0.000000
-5.886700 0.000000
-5.866900 0.000000
-5.847200 0.000000
-5.827500 0.000000
-5.807800 0.000000
-5.788100 0.000000
-5.768300 0.000000
-5.748600 0.000000
-5.728900 0.000000
-5.709200 0.000000
-5.689500 0.000000
-5.669800 0.000000
-5.650000 0.000000
-5.630300 0.000000
-5.610600 0.000000
-5.590900 0.000000
-5.571200 0.000000
-5.551400 0.000000
-5.531700 0.000000
-5.512000 0.000000
-5.492300 0.000000
-5.472600 0.000000
-5.452800 0.000000
-5.433100 0.000000
-5.413400 0.000000
-5.393700 0.000000
-5.374000 0.000000
-5.354300 0.000000
-5.334500 0.000000
-5.314800 0.000000
-5.295100 0.000000
-5.275400 0.000000
-5.255700 0.000000
-5.235900 0.000000
-5.216200 0.000000
-5.196500 0.000000
-5.176800 0.000000
-5.157100 0.000000
-5.137400 0.000000
-5.117600 0.000000
-5.097900 0.000000
-5.078200 0.000000
-5.058500 0.000000
-5.038800 0.000000
-5.019000 0.000000
-4.999300 0.000000
-4.979600 0.000000
-4.959900 0.000000
-4.940200 0.000000
-4.920400 0.000000
-4.900700 0.000000
-4.881000 0.000000
-4.861300 0.000000
-4.841600 0.000000
-4.821900 0.000000
-4.802100 0.000000
-4.782400 0.000000
-4.762700 0.000000
-4.743000 0.000000
-4.723300 0.000000
-4.703500 0.000000
-4.683800 0.000000
-4.664100 0.000000
-4.644400 0.000000
-4.624700 0.000000
-4.604900 0.000000
-4.585200 0.000000
-4.565500 0.000000
-4.545800 0.000000
-4.526100 0.000000
-4.506400 0.000000
-4.486600 0.000000
-4.466900 0.000000
-4.447200 0.000000
-4.427500 0.000000
-4.407800 0.000000
-4.388000 0.000000
-4.368300 0.000000
-4.348600 0.000000
-4.328900 0.000000
-4.309200 0.000000
-4.289400 0.000000
-4.269700 0.000000
-4.250000 0.000000
-4.230300 0.000000
-4.210600 0.000000
-4.190900 0.000000
-4.171100 0.000000
-4.151400 0.000000
-4.131700 0.000000
-4.112000 0.000000
-4.092300 0.000000
-4.072500 0.000000
-4.052800 0.000000
-4.033100 0.000000
-4.013400 0.000000
-3.993700 0.000000
-3.973900 0.000000
-3.954200 0.000000
-3.934500 0.000000
-3.914800 0.000000
-3.895100 0.000000
-3.875400 0.000000
-3.855600 0.000000
-3.835900 0.000000
-3.816200 0.000000
-3.796500 0.000000
-3.776800 0.000000
-3.757000 0.000000
-3.737300 0.000000
-3.717600 0.000000
-3.697900 0.000000
-3.678200 0.000000
-3.658400 0.000000
-3.638700 0.000000
-3.619000 0.000000
-3.599300 0.000000
-3.579600 0.000000
-3.559900 0.000000
-3.540100 0.000000
-3.520400 0.000000
-3.500700 0.000000
-3.481000 0.000000
-3.461300 0.006100
-3.441500 0.023000
-3.421800 0.050800
-3.402100 0.071400
-3.382400 0.069900
-3.362700 0.076900
-3.342900 0.085600
-3.323200 0.095400
-3.303500 0.106000
-3.283800 0.115300
-3.264100 0.123700
-3.244400 0.128300
-3.224600 0.131200
-3.204900 0.136900
-3.185200 0.142000
-3.165500 0.147400
-3.145800 0.153600
-3.126000 0.159900
-3.106300 0.166400
-3.086600 0.172100
-3.066900 0.177500
-3.047200 0.183500
-3.027400 0.189800
-3.007700 0.195600
-2.988000 0.200300
-2.968300 0.204300
-2.948600 0.208800
-2.928900 0.213400
-2.909100 0.218200
-2.889400 0.223100
-2.869700 0.228000
-2.850000 0.233800
-2.830300 0.239800
-2.810500 0.245200
-2.790800 0.250500
-2.771100 0.255800
-2.751400 0.261300
-2.731700 0.267000
-2.711900 0.272800
-2.692200 0.278500
-2.672500 0.283100
-2.652800 0.288000
-2.633100 0.293200
-2.613400 0.298800
-2.593600 0.304600
-2.573900 0.310600
-2.554200 0.316600
-2.534500 0.322700
-2.514800 0.328700
-2.495000 0.334700
-2.475300 0.340600
-2.455600 0.346600
-2.435900 0.352700
-2.416200 0.358800
-2.396400 0.365700
-2.376700 0.373500
-2.357000 0.380800
-2.337300 0.388100
-2.317600 0.395700
-2.297900 0.403200
-2.278100 0.410700
-2.258400 0.418200
-2.238700 0.425800
-2.219000 0.433700
-2.199300 0.441800
-2.179500 0.450400
-2.159800 0.459600
-2.140100 0.469800
-2.120400 0.480900
-2.100700 0.492100
-2.081000 0.503100
-2.061200 0.514000
-2.041500 0.525200
-2.021800 0.536400
-2.002100 0.547600
-1.982400 0.559000
-1.962600 0.575400
-1.942900 0.589700
-1.923200 0.604300
-1.903500 0.619300
-1.883800 0.635300
-1.864000 0.653300
-1.844300 0.671700
-1.824600 0.693000
-1.804900 0.717900
-1.785200 0.746200
-1.765500 0.778700
-1.745700 0.810400
-1.726000 0.842700
-1.706300 0.893100
-1.686600 0.941300
-1.666900 0.997500
-1.647100 1.072300
-1.627400 1.164600
-1.607700 1.331900
-1.588000 1.633200
-1.568300 1.655400
-1.548500 1.654700
-1.528800 1.680200
-1.509100 1.719000
-1.489400 1.777300
-1.469700 1.871200
-1.450000 1.915900
-1.430200 1.971700
-1.410500 2.053700
-1.390800 2.614100
-1.371100 3.359300
-1.351400 3.102200
-1.331600 3.236500
-1.311900 3.428900
-1.292200 3.504900
-1.272500 3.257400
-1.252800 3.434200
-1.233000 3.955500
-1.213300 4.277800
-1.193600 4.712700
-1.173900 5.312800
-1.154200 5.652900
-1.134500 6.479000
-1.114700 7.512100
-1.095000 7.259200
-1.075300 7.149100
-1.055600 6.867000
-1.035900 6.422400
-1.016100 6.325600
-0.996400 7.060400
-0.976700 7.075800
-0.957000 6.590600
-0.937300 6.238800
-0.917500 6.170900
-0.897800 6.483700
-0.878100 6.237800
-0.858400 6.194000
-0.838700 6.316000
-0.819000 6.501100
-0.799200 6.575200
-0.779500 8.365200
-0.759800 7.764200
-0.740100 8.254400
-0.720400 9.308600
-0.700600 9.870100
-0.680900 11.111800
-0.661200 11.155000
-0.641500 12.799800
-0.621800 11.394600
-0.602000 10.546900
-0.582300 9.635900
-0.562600 9.041400
-0.542900 8.277900
-0.523200 8.241100
-0.503500 8.199300
-0.483700 8.151300
-0.464000 8.794200
-0.444300 10.602200
-0.424600 10.703300
-0.404900 10.670300
-0.385100 10.694800
-0.365400 10.623800
-0.345700 10.562900
-0.326000 10.173100
-0.306300 10.189200
-0.286500 9.441900
-0.266800 8.821400
-0.247100 8.367300
-0.227400 7.831400
-0.207700 6.783800
-0.188000 6.265200
-0.168200 5.716200
-0.148500 5.134400
-0.128800 4.651100
-0.109100 4.434000
-0.089400 4.269600
-0.069600 4.195900
-0.049900 4.174400
-0.030200 4.151600
-0.010500 4.085000
0.009200 3.853600
0.029000 3.702100
0.048700 3.790500
0.068400 3.636700
0.088100 3.344000
0.107800 2.897300
0.127500 2.649900
0.147300 2.669400
0.167000 2.869400
0.186700 3.125200
0.206400 3.850000
0.226100 4.032000
0.245900 4.388700
0.265600 4.414000
0.285300 4.393900
0.305000 4.758700
0.324700 5.424100
0.344500 6.377000
0.364200 7.799400
0.383900 9.899600
0.403600 9.962100
0.423300 10.002800
0.443000 11.485800
0.462800 13.016900
0.482500 14.243800
0.502200 17.133300
0.521900 13.057500
0.541600 10.386600
0.561400 9.433800
0.581100 8.908200
0.600800 8.621300
0.620500 8.403100
0.640200 8.073400
0.660000 7.389800
0.679700 6.805200
0.699400 6.468600
0.719100 6.282200
0.738800 6.184400
0.758500 6.238000
0.778300 6.459200
0.798000 6.740300
0.817700 6.864400
0.837400 7.135800
0.857100 7.352600
0.876900 7.660600
0.896600 8.133600
0.916300 8.726300
0.936000 9.371100
0.955700 8.520700
0.975500 8.177100
0.995200 7.490300
1.014900 9.548900
1.034600 9.164000
1.054300 10.136600
1.074000 9.138600
1.093800 8.522300
1.113500 7.967400
1.133200 7.598400
1.152900 7.522800
1.172600 7.539700
1.192400 6.138300
1.212100 5.866900
1.231800 6.461400
1.251500 6.948400
1.271200 5.390600
1.290900 4.945300
1.310700 4.449900
1.330400 4.336900
1.350100 4.346400
1.369800 4.156300
1.389500 3.097500
1.409300 3.018400
1.429000 3.249500
1.448700 3.119300
1.468400 2.698100
1.488100 2.482700
1.507900 2.331300
1.527600 2.194800
1.547300 2.122700
1.567000 2.064100
1.586700 2.015100
1.606400 1.990700
1.626200 2.010100
1.645900 2.176900
1.665600 2.396100
1.685300 2.676600
1.705000 2.980600
1.724800 3.206200
1.744500 3.562200
1.764200 4.559600
1.783900 4.257200
1.803600 4.268800
1.823400 2.524600
1.843100 2.155800
1.862800 1.873500
1.882500 1.608300
1.902200 1.352900
1.921900 1.169300
1.941700 0.998400
1.961400 0.606600
1.981100 0.523600
2.000800 0.524500
2.020500 0.538400
2.040300 0.553900
2.060000 0.572900
2.079700 0.621400
2.099400 0.729000
2.119100 0.905000
2.138900 1.093500
2.158600 1.316400
2.178300 1.537500
2.198000 1.675200
2.217700 1.766300
2.237400 1.752100
2.257200 1.546400
2.276900 1.400100
2.296600 1.376900
2.316300 1.361700
2.336000 1.347000
2.355800 1.328100
2.375500 1.305000
2.395200 1.282300
2.414900 1.260200
2.434600 1.241200
2.454400 1.230600
2.474100 1.226000
2.493800 1.221700
2.513500 1.217500
2.533200 1.212400
2.552900 1.198800
2.572700 1.183000
2.592400 1.170600
2.612100 1.158700
2.631800 1.139000
2.651500 1.121100
2.671300 1.107600
2.691000 1.095500
2.710700 1.084500
2.730400 1.075400
2.750100 1.066000
2.769900 1.056400
2.789600 1.045900
2.809300 1.035100
2.829000 1.023400
2.848700 1.009400
2.868400 0.994900
2.888200 0.980400
2.907900 0.965600
2.927600 0.954000
2.947300 0.942700
2.967000 0.930100
2.986800 0.917200
3.006500 0.904900
3.026200 0.893300
3.045900 0.882600
3.065600 0.877500
3.085400 0.877400
3.105100 0.875100
3.124800 0.869800
3.144500 0.865200
3.164200 0.861200
3.183900 0.857500
3.203700 0.853400
3.223400 0.848700
3.243100 0.843000
3.262800 0.837000
3.282500 0.833200
3.302300 0.831100
3.322000 0.833800
3.341700 0.846800
3.361400 0.853000
3.381100 0.855700
3.400900 0.857100
3.420600 0.858500
3.440300 0.865200
3.460000 0.881400
3.479700 0.874600
3.499400 0.833200
3.519200 0.801400
3.538900 0.783900
3.558600 0.764900
3.578300 0.748000
3.598000 0.736600
3.617800 0.737000
3.637500 0.740900
3.657200 0.727300
3.676900 0.724300
3.696600 0.726000
3.716400 0.730800
3.736100 0.752400
3.755800 0.776400
3.775500 0.803200
3.795200 0.849700
3.814900 0.932600
3.834700 1.056000
3.854400 1.194800
3.874100 1.293300
3.893800 1.335200
3.913500 1.350100
3.933300 1.332800
3.953000 1.313800
3.972700 1.302800
3.992400 1.301700
4.012100 1.306400
4.031900 1.309700
4.051600 1.315300
4.071300 1.312300
4.091000 1.288600
4.110700 1.264400
4.130400 1.249700
4.150200 1.239100
4.169900 1.221000
4.189600 1.203300
4.209300 1.186400
4.229000 1.175200
4.248800 1.165100
4.268500 1.116500
4.288200 1.076800
4.307900 1.043400
4.327600 1.019300
4.347400 0.999900
4.367100 0.996200
4.386800 0.967400
4.406500 0.962300
4.426200 0.963600
4.445900 0.962800
4.465700 0.960800
4.485400 0.959300
4.505100 0.959000
4.524800 0.964900
4.544500 0.958400
4.564300 0.977000
4.584000 1.015600
4.603700 1.087300
4.623400 1.133200
4.643100 1.162200
4.662800 1.176700
4.682600 1.171700
4.702300 1.173900
4.722000 1.157200
4.741700 1.136600
4.761400 1.114900
4.781200 1.121300
4.800900 1.118000
4.820600 1.125600
4.840300 1.105900
4.860000 1.092700
4.879800 1.080600
4.899500 1.081900
4.919200 1.085200
4.938900 1.102300
4.958600 1.130300
4.978300 1.181600
4.998100 1.219100
5.017800 1.297900
5.037500 1.333300
5.057200 1.232700
5.076900 1.099200
5.096700 1.032600
5.116400 0.966500
5.136100 0.935100
5.155800 0.858000
5.175500 0.794600
5.195300 0.747000
5.215000 0.711500
5.234700 0.681400
5.254400 0.656000
5.274100 0.638200
5.293800 0.628200
5.313600 0.624500
5.333300 0.631300
5.353000 0.641700
5.372700 0.658100
5.392400 0.670400
5.412200 0.680800
5.431900 0.694300
5.451600 0.708800
5.471300 0.734300
5.491000 0.765100
5.510800 0.791800
5.530500 0.764000
5.550200 0.759100
5.569900 0.763700
5.589600 0.764200
5.609300 0.786000
5.629100 0.829400
5.648800 0.879200
5.668500 0.921200
5.688200 0.958500
5.707900 0.993100
5.727700 1.042700
5.747400 1.081100
5.767100 1.122000
5.786800 1.172700
5.806500 1.292000
5.826300 1.359800
5.846000 1.393000
5.865700 1.415100
5.885400 1.486800
5.905100 1.580200
5.924800 1.680100
5.944600 1.711600
5.964300 1.755700
5.984000 1.885600
6.003700 2.127000
6.023400 2.489000
6.043200 2.686300
6.062900 3.424700
6.082600 2.065400
6.102300 2.385100
6.122000 2.636100
6.141800 2.971800
6.161500 2.909200
6.181200 2.672500
6.200900 2.477900
6.220600 2.286100
6.240300 2.077800
6.260100 1.904100
6.279800 1.848200
6.299500 1.823500
6.319200 1.816600
6.338900 1.810800
6.358700 1.799100
6.378400 1.767800
6.398100 1.780700
6.417800 1.812800
6.437500 1.881900
6.457300 1.971300
6.477000 2.051100
6.496700 2.129400
6.516400 2.212100
6.536100 2.350100
6.555800 2.516300
6.575600 2.670700
6.595300 2.640300
6.615000 2.568500
6.634700 2.484400
6.654400 2.408200
6.674200 2.348000
6.693900 2.286200
6.713600 2.175400
6.733300 2.148100
6.753000 2.096400
6.772800 2.004300
6.792500 2.045800
6.812200 1.766500
6.831900 1.601500
6.851600 1.484800
6.871300 1.421900
6.891100 1.403400
6.910800 1.446600
6.930500 1.622700
6.950200 1.810500
6.969900 2.185600
6.989700 2.606300
7.009400 3.015500
7.029100 3.355500
7.048800 3.625500
7.068500 4.081200
7.088300 4.281300
7.108000 4.353700
7.127700 4.397200
7.147400 4.350700
7.167100 4.517400
7.186800 4.643400
7.206600 4.241200
7.226300 3.653500
7.246000 3.570700
7.265700 3.419100
7.285400 3.297300
7.305200 3.151400
7.324900 2.974100
7.344600 2.842900
7.364300 2.797000
7.384000 2.788800
7.403800 2.799500
7.423500 2.849000
7.443200 3.022500
7.462900 3.010800
7.482600 3.048500
7.502300 3.119100
7.522100 3.179600
7.541800 3.267500
7.561500 3.348900
7.581200 3.454300
7.600900 3.592200
7.620700 3.749600
7.640400 3.803200
7.660100 3.839300
7.679800 3.861700
7.699500 3.990000
7.719300 3.862700
7.739000 3.599900
7.758700 3.200600
7.778400 2.872900
7.798100 2.676900
7.817800 2.542100
7.837600 2.456600
7.857300 2.389300
7.877000 2.294300
7.896700 2.213300
7.916400 2.147600
7.936200 2.104200
7.955900 2.059700
7.975600 2.013500
7.995300 1.978000
8.015000 1.965500
8.034700 1.957600
8.054500 1.986300
8.074200 1.936600
8.093900 1.915400
8.113600 1.886800
8.133300 1.572900
8.153100 1.577800
8.172800 1.627800
8.192500 1.661600
8.212200 1.684600
8.231900 1.700000
8.251700 1.710900
8.271400 1.733800
8.291100 1.734500
8.310800 1.692600
8.330500 1.615500
8.350200 1.573200
8.370000 1.530900
8.389700 1.513500
8.409400 1.609800
8.429100 1.532300
8.448800 1.533500
8.468600 1.571700
8.488300 1.621200
8.508000 1.664600
8.527700 1.721200
8.547400 1.752300
8.567200 1.772200
8.586900 1.855400
8.606600 1.948700
8.626300 2.059600
8.646000 2.244900
8.665700 2.433900
8.685500 2.521900
8.705200 2.604200
8.724900 2.785300
8.744600 2.802800
8.764300 2.584800
8.784100 2.487800
8.803800 2.429400
8.823500 2.354100
8.843200 2.280400
8.862900 2.249900
8.882700 2.221200
8.902400 2.229700
8.922100 2.235300
8.941800 2.245700
8.961500 2.295700
8.981200 2.271200
9.001000 2.239300
9.020700 2.101900
9.040400 2.031800
9.060100 2.051700
9.079800 2.128100
9.099600 2.467800
9.119300 2.132100
9.139000 1.528900
9.158700 0.697600
9.178400 0.694800
9.198200 0.693200
9.217900 0.685200
9.237600 0.604700
9.257300 0.524100
9.277000 0.447600
9.296700 0.422400
9.316500 0.420200
9.336200 0.425500
9.355900 0.431500
9.375600 0.436900
9.395300 0.442800
9.415100 0.451700
9.434800 0.461700
9.454500 0.472300
9.474200 0.484100
9.493900 0.496400
9.513700 0.509600
9.533400 0.524000
9.553100 0.538500
9.572800 0.552300
9.592500 0.565500
9.612200 0.580300
9.632000 0.600000
9.651700 0.617700
9.671400 0.635400
9.691100 0.654000
9.710800 0.679900
9.730600 0.717800
9.750300 0.772700
9.770000 0.831400
9.789700 0.916700
9.809400 1.020000
9.829200 1.094700
9.848900 1.150000
9.868600 1.197900
9.888300 1.257700
9.908000 1.336700
9.927700 1.417700
9.947500 1.470100
9.967200 1.519500
9.986900 1.567100
10.006600 1.634600
10.026300 1.726700
10.046100 1.850800
10.065800 2.073400
10.085500 2.413300
10.105200 2.606400
10.124900 2.361500
10.144700 2.132600
10.164400 2.088200
10.184100 2.003700
10.203800 2.022400
10.223500 1.974100
10.243200 1.920800
10.263000 1.905800
10.282700 1.838600
10.302400 1.715400
10.322100 1.626500
10.341800 1.539200
10.361600 1.485000
10.381300 1.440500
10.401000 1.407200
10.420700 1.379900
10.440400 1.354600
10.460200 1.329000
10.479900 1.303400
10.499600 1.279100
10.519300 1.259600
10.539000 1.246400
10.558700 1.237700
10.578500 1.231900
10.598200 1.216300
10.617900 1.204500
10.637600 1.204600
10.657300 1.212900
10.677100 1.224100
10.696800 1.234700
10.716500 1.244900
10.736200 1.251700
10.755900 1.250200
10.775700 1.256700
10.795400 1.262600
10.815100 1.279200
10.834800 1.324800
10.854500 1.347200
10.874200 1.367700
10.894000 1.385100
10.913700 1.396600
10.933400 1.397300
10.953100 1.394400
10.972800 1.381000
10.992600 1.473000
11.012300 1.433400
11.032000 1.420200
11.051700 1.431300
11.071400 1.385200
11.091200 1.378500
11.110900 1.380900
11.130600 1.411200
11.150300 1.419000
11.170000 1.457300
11.189700 1.456100
11.209500 1.458900
11.229200 1.474000
11.248900 1.489300
11.268600 1.513300
11.288300 1.552300
11.308100 1.651000
11.327800 1.724000
11.347500 1.756500
11.367200 1.773600
11.386900 1.772000
11.406600 1.761500
11.426400 1.760300
11.446100 1.751400
11.465800 1.714700
11.485500 1.674700
11.505200 1.634000
11.525000 1.576600
11.544700 1.501400
11.564400 1.476600
11.584100 1.475300
11.603800 1.451700
11.623600 1.438200
11.643300 1.437900
11.663000 1.450500
11.682700 1.420700
11.702400 1.372700
11.722100 1.322500
11.741900 1.279100
11.761600 1.241900
11.781300 1.212600
11.801000 1.184900
11.820700 1.161200
11.840500 1.139900
11.860200 1.121800
11.879900 1.105400
11.899600 1.093100
11.919300 1.093600
11.939100 1.081400
11.958800 1.070000
11.978500 1.105800
11.998200 1.107700
12.017900 1.080800
12.037600 1.070700
12.057400 1.063600
12.077100 1.059200
12.096800 1.067500
12.116500 1.075300
12.136200 1.062400
12.156000 1.061300
12.175700 1.061800
12.195400 1.064600
12.215100 1.073200
12.234800 1.082100
12.254600 1.088600
12.274300 1.094900
12.294000 1.108500
12.313700 1.109000
12.333400 1.121500
12.353100 1.143600
12.372900 1.187100
12.392600 1.243200
12.412300 1.316300
12.432000 1.380900
12.451700 1.410100
12.471500 1.429500
12.491200 1.478000
12.510900 1.511400
12.530600 1.548100
12.550300 1.573500
12.570100 1.594000
12.589800 1.613800
12.609500 1.674400
12.629200 1.752200
12.648900 1.805900
12.668600 1.880100
12.688400 1.985300
12.708100 2.070500
12.727800 2.023300
12.747500 1.947400
12.767200 1.836800
12.787000 1.818400
12.806700 1.823000
12.826400 1.580600
12.846100 1.543400
12.865800 1.563100
12.885600 1.606000
12.905300 1.700700
12.925000 1.743100
12.944700 1.815400
12.964400 1.983100
12.984100 2.172800
13.003900 2.224300
13.023600 2.379300
13.043300 2.396400
13.063000 2.371600
13.082700 2.326000
13.102500 2.302800
13.122200 2.292000
13.141900 2.282300
13.161600 2.261000
13.181300 2.138000
13.201100 2.034700
13.220800 1.955100
13.240500 1.887100
13.260200 1.830300
13.279900 1.781700
13.299600 1.714500
13.319400 1.663500
13.339100 1.622300
13.358800 1.578400
13.378500 1.532100
13.398200 1.504400
13.418000 1.491500
13.437700 1.471300
13.457400 1.441000
13.477100 1.378000
13.496800 1.337400
13.516600 1.284300
13.536300 1.278500
13.556000 1.251500
13.575700 1.220700
13.595400 1.194900
13.615100 1.179000
13.634900 1.167200
13.654600 1.163100
13.674300 1.162500
13.694000 1.169200
13.713700 1.183000
13.733500 1.199100
13.753200 1.213400
13.772900 1.228400
13.792600 1.244200
13.812300 1.264100
13.832100 1.286100
13.851800 1.309500
13.871500 1.334000
13.891200 1.352300
13.910900 1.368200
13.930600 1.385700
13.950400 1.410700
13.970100 1.438700
13.989800 1.468700
14.009500 1.508100
14.029200 1.556500
14.049000 1.613900
14.068700 1.710300
14.088400 1.924900
14.108100 2.065100
14.127800 2.148600
14.147600 2.163500
14.167300 2.160800
14.187000 1.905600
14.206700 1.770100
14.226400 1.639800
14.246100 1.539500
14.265900 1.467500
14.285600 1.407500
14.305300 1.345900
14.325000 1.264600
14.344700 1.185200
14.364500 1.109100
14.384200 1.040500
14.403900 0.969100
14.423600 0.922900
14.443300 0.882400
14.463100 0.817500
14.482800 0.789400
14.502500 0.766100
14.522200 0.746400
14.541900 0.730500
14.561600 0.717700
14.581400 0.715800
14.601100 0.688400
14.620800 0.638400
14.640500 0.620000
14.660200 0.606500
14.680000 0.593700
14.699700 0.581300
14.719400 0.569200
14.739100 0.554900
14.758800 0.542400
14.778500 0.530200
14.798300 0.519500
14.818000 0.508700
14.837700 0.496600
14.857400 0.483200
14.877100 0.469300
14.896900 0.457400
14.916600 0.446700
14.936300 0.436900
14.956000 0.428000
14.975700 0.419700
14.995500 0.411900
15.015200 0.404400
15.034900 0.397100
15.054600 0.389800
15.074300 0.382800
15.094000 0.375400
15.113800 0.368000
15.133500 0.360900
15.153200 0.355800
15.172900 0.351100
15.192600 0.347000
15.212400 0.343900
15.232100 0.341500
15.251800 0.340100
15.271500 0.339400
15.291200 0.339200
15.311000 0.339500
15.330700 0.340000
15.350400 0.340700
15.370100 0.341800
15.389800 0.343200
15.409500 0.345000
15.429300 0.347500
15.449000 0.350700
15.468700 0.354200
15.488400 0.358400
15.508100 0.363000
15.527900 0.366600
15.547600 0.369200
15.567300 0.372000
15.587000 0.369800
15.606700 0.359100
15.626500 0.347700
15.646200 0.335700
15.665900 0.325300
15.685600 0.315300
15.705300 0.305700
15.725000 0.291900
15.744800 0.287000
15.764500 0.262900
15.784200 0.234800
15.803900 0.210200
15.823600 0.185300
15.843400 0.179900
15.863100 0.160300
15.882800 0.125600
15.902500 0.096400
15.922200 0.076800
15.942000 0.063500
15.961700 0.052600
15.981400 0.043800
16.001100 0.031600
16.020800 0.025300
16.040500 0.019900
16.060300 0.015400
16.080000 0.011600
16.099700 0.008600
16.119400 0.006200
16.139100 0.004500
16.158900 0.003300
16.178600 0.002500
16.198300 0.001900
16.218000 0.001500
16.237700 0.001100
16.257500 0.000800
16.277200 0.000500
16.296900 0.000300
16.316600 0.000100
16.336300 0.000000
16.356000 0.000000
16.375800 0.000000
16.395500 0.000000
16.415200 0.000000
16.434900 0.000000
16.454600 0.000000
16.474400 0.000000
16.494100 0.000000
16.513800 0.000000
16.533500 0.000000
16.553200 0.000000
16.573000 0.000000
16.592700 0.000000
16.612400 0.000000
16.632100 0.000000
16.651800 0.000000
16.671500 0.000000
16.691300 0.000000
16.711000 0.000000
16.730700 0.000000
16.750400 0.000000
16.770100 0.000000
16.789900 0.000000
16.809600 0.000000
16.829300 0.000000
16.849000 0.000000
16.868700 0.000000
16.888500 0.000000
16.908200 0.000000
16.927900 0.000000
16.947600 0.000000
16.967300 0.000000
16.987000 0.000000
17.006800 0.000000
17.026500 0.000000
17.046200 0.000000
17.065900 0.000000
17.085600 0.000000
17.105400 0.000000
17.125100 0.000000
17.144800 0.000000
17.164500 0.000000
17.184200 0.000000
17.204000 0.000000
17.223700 0.000000
17.243400 0.000000
17.263100 0.000000
17.282800 0.000000
17.302500 0.000000
17.322300 0.000000
17.342000 0.000000
17.361700 0.000000
17.381400 0.000000
17.401100 0.000000
17.420900 0.000000
17.440600 0.000000
17.460300 0.000000
17.480000 0.000000
17.499700 0.000000
17.519500 0.000000
17.539200 0.000000
17.558900 0.000000
17.578600 0.000000
17.598300 0.000000
17.618000 0.000000
17.637800 0.000000
17.657500 0.000000
17.677200 0.000000
17.696900 0.000000
17.716600 0.000000
17.736400 0.000000
17.756100 0.000000
17.775800 0.000000
17.795500 0.000000
17.815200 0.000000
17.835000 0.000000
17.854700 0.000000
17.874400 0.000000
17.894100 0.000000
17.913800 0.000000
17.933500 0.000000
17.953300 0.000000
17.973000 0.000000
17.992700 0.000000
18.012400 0.000000
18.032100 0.000000
18.051900 0.000000
18.071600 0.000000
18.091300 0.000000
18.111000 0.000000
18.130700 0.000000
18.150400 0.000000
e
