set title 'mp-1216400 - Density of States'
set xlabel 'Energy (eV)'
set ylabel 'DOS (states/eV)'
set grid
set xrange [-10:10]
set yrange [0:10.732]
set xzeroaxis lt -1
set terminal png size 800,600
set output 'mp-1216400_dos_gnuplot.png'
plot '-' using 1:2 with lines title 'DOS'
-36.698300 0.000000
-36.655600 0.000000
-36.612800 0.000000
-36.570000 0.000000
-36.527200 0.000000
-36.484500 0.000000
-36.441700 0.000000
-36.398900 0.000000
-36.356100 0.000000
-36.313300 0.000000
-36.270600 0.000000
-36.227800 0.000000
-36.185000 0.000000
-36.142200 0.000000
-36.099500 0.000000
-36.056700 0.000000
-36.013900 0.000000
-35.971100 0.000000
-35.928300 0.000000
-35.885600 0.000000
-35.842800 0.000000
-35.800000 0.000000
-35.757200 0.000000
-35.714500 0.000000
-35.671700 0.000000
-35.628900 0.000000
-35.586100 0.000000
-35.543400 0.000000
-35.500600 0.000000
-35.457800 0.000000
-35.415000 0.000000
-35.372200 0.000000
-35.329500 0.000000
-35.286700 0.000000
-35.243900 0.000000
-35.201100 0.000000
-35.158400 0.000000
-35.115600 0.000000
-35.072800 0.000000
-35.030000 0.000000
-34.987200 0.000000
-34.944500 0.000000
-34.901700 0.000000
-34.858900 0.000000
-34.816100 0.000000
-34.773400 0.000000
-34.730600 0.000000
-34.687800 0.000000
-34.645000 0.000000
-34.602200 0.000000
-34.559500 0.000000
-34.516700 0.000000
-34.473900 0.000000
-34.431100 0.000000
-34.388400 0.000000
-34.345600 0.000000
-34.302800 0.000000
-34.260000 0.000000
-34.217300 0.000000
-34.174500 0.000000
-34.131700 0.000000
-34.088900 0.000000
-34.046100 0.000000
-34.003400 0.000000
-33.960600 0.000000
-33.917800 0.000000
-33.875000 0.000000
-33.832300 0.000000
-33.789500 0.000000
-33.746700 0.000000
-33.703900 0.000000
-33.661100 0.000000
-33.618400 0.000000
-33.575600 0.000000
-33.532800 0.000000
-33.490000 0.000000
-33.447300 0.000000
-33.404500 0.000000
-33.361700 0.000000
-33.318900 0.000000
-33.276100 0.000000
-33.233400 0.000000
-33.190600 0.000000
-33.147800 0.000000
-33.105000 0.000000
-33.062300 0.000000
-33.019500 0.000000
-32.976700 0.000000
-32.933900 0.000000
-32.891200 0.000000
-32.848400 0.000000
-32.805600 0.000000
-32.762800 0.000000
-32.720000 0.000000
-32.677300 0.000000
-32.634500 0.000000
-32.591700 0.000000
-32.548900 1.436100
-32.506200 1.641400
-32.463400 1.843200
-32.420600 2.239800
-32.377800 2.945700
-32.335000 1.891700
-32.292300 1.187000
-32.249500 0.962600
-32.206700 0.896200
-32.163900 0.988900
-32.121200 1.239400
-32.078400 3.789300
-32.035600 3.017500
-31.992800 3.376500
-31.950000 8.284500
-31.907300 3.490100
-31.864500 2.430200
-31.821700 1.828400
-31.778900 1.974800
-31.736200 2.270300
-31.693400 4.160800
-31.650600 2.658500
-31.607800 2.346700
-31.565100 1.902900
-31.522300 1.887600
-31.479500 1.955800
-31.436700 0.948300
-31.393900 0.000000
-31.351200 0.000000
-31.308400 0.000000
-31.265600 0.000000
-31.222800 0.000000
-31.180100 0.000000
-31.137300 0.000000
-31.094500 0.000000
-31.051700 0.000000
-31.008900 0.000000
-30.966200 0.000000
-30.923400 0.000000
-30.880600 0.000000
-30.837800 0.000000
-30.795100 0.000000
-30.752300 0.000000
-30.709500 0.000000
-30.666700 0.000000
-30.623900 0.000000
-30.581200 0.000000
-30.538400 0.000000
-30.495600 0.000000
-30.452800 0.000000
-30.410100 0.000000
-30.367300 0.000000
-30.324500 0.000000
-30.281700 0.000000
-30.239000 0.000000
-30.196200 0.000000
-30.153400 0.000000
-30.110600 0.000000
-30.067800 0.000000
-30.025100 0.000000
-29.982300 0.000000
-29.939500 0.000000
-29.896700 0.000000
-29.854000 0.000000
-29.811200 0.000000
-29.768400 0.000000
-29.725600 0.000000
-29.682800 0.000000
-29.640100 0.000000
-29.597300 0.000000
-29.554500 0.000000
-29.511700 0.000000
-29.469000 0.000000
-29.426200 0.000000
-29.383400 0.000000
-29.340600 0.000000
-29.297800 0.000000
-29.255100 0.000000
-29.212300 0.000000
-29.169500 0.000000
-29.126700 0.000000
-29.084000 0.000000
-29.041200 0.000000
-28.998400 0.000000
-28.955600 0.000000
-28.912900 0.000000
-28.870100 0.000000
-28.827300 0.000000
-28.784500 0.000000
-28.741700 0.000000
-28.699000 0.000000
-28.656200 0.000000
-28.613400 0.000000
-28.570600 0.000000
-28.527900 0.000000
-28.485100 0.000000
-28.442300 0.000000
-28.399500 0.000000
-28.356700 0.000000
-28.314000 0.000000
-28.271200 0.000000
-28.228400 0.000000
-28.185600 0.000000
-28.142900 0.000000
-28.100100 0.000000
-28.057300 0.000000
-28.014500 0.000000
-27.971700 0.000000
-27.929000 0.000000
-27.886200 0.000000
-27.843400 0.000000
-27.800600 0.000000
-27.757900 0.000000
-27.715100 0.000000
-27.672300 0.000000
-27.629500 0.000000
-27.586800 0.000000
-27.544000 0.000000
-27.501200 0.000000
-27.458400 0.000000
-27.415600 0.000000
-27.372900 0.000000
-27.330100 0.000000
-27.287300 0.000000
-27.244500 0.000000
-27.201800 0.000000
-27.159000 0.000000
-27.116200 0.000000
-27.073400 0.000000
-27.030600 0.000000
-26.987900 0.000000
-26.945100 0.000000
-26.902300 0.000000
-26.859500 0.000000
-26.816800 0.000000
-26.774000 0.000000
-26.731200 0.000000
-26.688400 0.000000
-26.645600 0.000000
-26.602900 0.000000
-26.560100 0.000000
-26.517300 0.000000
-26.474500 0.000000
-26.431800 0.000000
-26.389000 0.000000
-26.346200 0.000000
-26.303400 0.000000
-26.260700 0.000000
-26.217900 0.000000
-26.175100 0.000000
-26.132300 0.000000
-26.089500 0.000000
-26.046800 0.000000
-26.004000 0.000000
-25.961200 0.000000
-25.918400 0.000000
-25.875700 0.000000
-25.832900 0.000000
-25.790100 0.000000
-25.747300 0.000000
-25.704500 0.000000
-25.661800 0.000000
-25.619000 0.000000
-25.576200 0.000000
-25.533400 0.000000
-25.490700 0.000000
-25.447900 0.000000
-25.405100 0.000000
-25.362300 0.000000
-25.319600 0.000000
-25.276800 0.000000
-25.234000 0.000000
-25.191200 0.000000
-25.148400 0.000000
-25.105700 0.000000
-25.062900 0.000000
-25.020100 0.000000
-24.977300 0.000000
-24.934600 0.000000
-24.891800 0.000000
-24.849000 0.000000
-24.806200 0.000000
-24.763400 0.000000
-24.720700 0.000000
-24.677900 0.000000
-24.635100 0.000000
-24.592300 0.000000
-24.549600 0.000000
-24.506800 0.000000
-24.464000 0.000000
-24.421200 0.000000
-24.378400 0.000000
-24.335700 0.000000
-24.292900 0.000000
-24.250100 0.000000
-24.207300 0.000000
-24.164600 0.000000
-24.121800 0.000000
-24.079000 0.000000
-24.036200 0.000000
-23.993500 0.000000
-23.950700 0.000000
-23.907900 0.000000
-23.865100 0.000000
-23.822300 0.000000
-23.779600 0.000000
-23.736800 0.000000
-23.694000 0.000000
-23.651200 0.000000
-23.608500 0.000000
-23.565700 0.000000
-23.522900 0.000000
-23.480100 0.000000
-23.437300 0.000000
-23.394600 0.000000
-23.351800 0.000000
-23.309000 0.000000
-23.266200 0.000000
-23.223500 0.000000
-23.180700 0.000000
-23.137900 0.000000
-23.095100 0.000000
-23.052300 0.000000
-23.009600 0.000000
-22.966800 0.000000
-22.924000 0.000000
-22.881200 0.000000
-22.838500 0.000000
-22.795700 0.000000
-22.752900 0.000000
-22.710100 0.000000
-22.667400 0.000000
-22.624600 0.000000
-22.581800 0.000000
-22.539000 0.000000
-22.496200 0.000000
-22.453500 0.000000
-22.410700 0.000000
-22.367900 0.000000
-22.325100 0.000000
-22.282400 0.000000
-22.239600 0.000000
-22.196800 0.000000
-22.154000 0.000000
-22.111200 0.000000
-22.068500 0.000000
-22.025700 0.000000
-21.982900 0.000000
-21.940100 0.000000
-21.897400 0.000000
-21.854600 0.000000
-21.811800 0.000000
-21.769000 0.000000
-21.726200 0.000000
-21.683500 0.000000
-21.640700 0.000000
-21.597900 0.000000
-21.555100 0.000000
-21.512400 0.000000
-21.469600 0.000000
-21.426800 0.000000
-21.384000 0.000000
-21.341300 0.000000
-21.298500 0.000000
-21.255700 0.000000
-21.212900 0.000000
-21.170100 0.000000
-21.127400 0.000000
-21.084600 0.000000
-21.041800 0.000000
-20.999000 0.000000
-20.956300 0.000000
-20.913500 0.000000
-20.870700 0.000000
-20.827900 0.000000
-20.785100 0.000000
-20.742400 0.000000
-20.699600 0.000000
-20.656800 0.000000
-20.614000 0.000000
-20.571300 0.000000
-20.528500 0.000000
-20.485700 0.000000
-20.442900 0.000000
-20.400100 0.000000
-20.357400 0.000000
-20.314600 0.000000
-20.271800 0.000000
-20.229000 0.000000
-20.186300 0.000000
-20.143500 0.000000
-20.100700 0.000000
-20.057900 0.000000
-20.015200 0.000000
-19.972400 0.000000
-19.929600 0.000000
-19.886800 0.000000
-19.844000 0.000000
-19.801300 0.000000
-19.758500 0.000000
-19.715700 0.000000
-19.672900 0.000000
-19.630200 0.000000
-19.587400 0.000000
-19.544600 0.000000
-19.501800 0.000000
-19.459000 0.000000
-19.416300 0.000000
-19.373500 0.000000
-19.330700 0.000000
-19.287900 0.000000
-19.245200 0.000000
-19.202400 0.000000
-19.159600 0.000000
-19.116800 0.000000
-19.074000 0.000000
-19.031300 0.000000
-18.988500 0.000000
-18.945700 0.000000
-18.902900 0.000000
-18.860200 0.000000
-18.817400 0.000000
-18.774600 0.000000
-18.731800 0.000000
-18.689100 0.000000
-18.646300 0.000000
-18.603500 0.000000
-18.560700 0.000000
-18.517900 0.000000
-18.475200 0.000000
-18.432400 0.000000
-18.389600 0.000000
-18.346800 0.000000
-18.304100 0.000000
-18.261300 0.000000
-18.218500 0.000000
-18.175700 0.000000
-18.132900 0.000000
-18.090200 0.000000
-18.047400 0.000000
-18.004600 0.000000
-17.961800 0.000000
-17.919100 0.000000
-17.876300 0.000000
-17.833500 0.000000
-17.790700 0.000000
-17.747900 0.000000
-17.705200 0.000000
-17.662400 0.000000
-17.619600 0.000000
-17.576800 0.000000
-17.534100 0.000000
-17.491300 0.000000
-17.448500 0.000000
-17.405700 0.000000
-17.363000 0.000000
-17.320200 0.000000
-17.277400 0.000000
-17.234600 0.000000
-17.191800 0.000000
-17.149100 0.000000
-17.106300 0.000000
-17.063500 0.000000
-17.020700 0.000000
-16.978000 0.000000
-16.935200 0.000000
-16.892400 0.000000
-16.849600 0.000000
-16.806800 0.000000
-16.764100 0.000000
-16.721300 0.000000
-16.678500 0.000000
-16.635700 0.000000
-16.593000 0.000000
-16.550200 0.000000
-16.507400 0.000000
-16.464600 0.000000
-16.421800 0.000000
-16.379100 0.000000
-16.336300 0.000000
-16.293500 0.000000
-16.250700 0.000000
-16.208000 0.000000
-16.165200 0.000000
-16.122400 0.000000
-16.079600 0.000000
-16.036900 0.000000
-15.994100 0.000000
-15.951300 0.000000
-15.908500 0.000000
-15.865700 0.000000
-15.823000 0.000000
-15.780200 0.000000
-15.737400 0.000000
-15.694600 0.000000
-15.651900 0.000000
-15.609100 0.000000
-15.566300 0.000000
-15.523500 0.000000
-15.480700 0.000000
-15.438000 0.000000
-15.395200 0.000000
-15.352400 0.000000
-15.309600 0.000000
-15.266900 0.000000
-15.224100 0.000000
-15.181300 0.000000
-15.138500 0.000000
-15.095700 0.000000
-15.053000 0.000000
-15.010200 0.000000
-14.967400 0.000000
-14.924600 0.000000
-14.881900 0.000000
-14.839100 0.000000
-14.796300 0.000000
-14.753500 0.000000
-14.710800 0.000000
-14.668000 0.000000
-14.625200 0.000000
-14.582400 0.000000
-14.539600 0.000000
-14.496900 0.000000
-14.454100 0.000000
-14.411300 0.000000
-14.368500 0.000000
-14.325800 0.000000
-14.283000 0.000000
-14.240200 0.000000
-14.197400 0.000000
-14.154600 0.000000
-14.111900 0.000000
-14.069100 0.000000
-14.026300 0.000000
-13.983500 0.000000
-13.940800 0.000000
-13.898000 0.000000
-13.855200 0.000000
-13.812400 0.000000
-13.769600 0.000000
-13.726900 0.000000
-13.684100 0.000000
-13.641300 0.000000
-13.598500 0.000000
-13.555800 0.000000
-13.513000 0.000000
-13.470200 0.000000
-13.427400 0.000000
-13.384700 0.000000
-13.341900 0.000000
-13.299100 0.000000
-13.256300 0.000000
-13.213500 0.000000
-13.170800 0.000000
-13.128000 0.000000
-13.085200 0.000000
-13.042400 0.000000
-12.999700 0.000000
-12.956900 0.000000
-12.914100 0.000000
-12.871300 0.000000
-12.828500 0.000000
-12.785800 0.000000
-12.743000 0.000000
-12.700200 0.000000
-12.657400 0.000000
-12.614700 0.000000
-12.571900 0.000000
-12.529100 0.000000
-12.486300 0.000000
-12.443600 0.000000
-12.400800 0.000000
-12.358000 0.000000
-12.315200 0.000000
-12.272400 0.000000
-12.229700 0.000000
-12.186900 0.000000
-12.144100 0.000000
-12.101300 0.000000
-12.058600 0.000000
-12.015800 0.000000
-11.973000 0.000000
-11.930200 0.000000
-11.887400 0.000000
-11.844700 0.000000
-11.801900 0.000000
-11.759100 0.000000
-11.716300 0.000000
-11.673600 0.000000
-11.630800 0.000000
-11.588000 0.000000
-11.545200 0.000000
-11.502400 0.000000
-11.459700 0.000000
-11.416900 0.000000
-11.374100 0.000000
-11.331300 0.000000
-11.288600 0.000000
-11.245800 0.000000
-11.203000 0.000000
-11.160200 0.000000
-11.117500 0.000000
-11.074700 0.000000
-11.031900 0.000000
-10.989100 0.000000
-10.946300 0.000000
-10.903600 0.000000
-10.860800 0.000000
-10.818000 0.000000
-10.775200 0.000000
-10.732500 0.000000
-10.689700 0.000000
-10.646900 0.000000
-10.604100 0.000000
-10.561300 0.000000
-10.518600 0.000000
-10.475800 0.000000
-10.433000 0.000000
-10.390200 0.000000
-10.347500 0.000000
-10.304700 0.000000
-10.261900 0.000000
-10.219100 0.000000
-10.176300 0.000000
-10.133600 0.000000
-10.090800 0.000000
-10.048000 0.000000
-10.005200 0.000000
-9.962500 0.000000
-9.919700 0.000000
-9.876900 0.000000
-9.834100 0.000000
-9.791400 0.000000
-9.748600 0.000000
-9.705800 0.000000
-9.663000 0.000000
-9.620200 0.000000
-9.577500 0.000000
-9.534700 0.000000
-9.491900 0.000000
-9.449100 0.000000
-9.406400 0.000000
-9.363600 0.000000
-9.320800 0.000000
-9.278000 0.000000
-9.235200 0.000000
-9.192500 0.000000
-9.149700 0.000000
-9.106900 0.000000
-9.064100 0.000000
-9.021400 0.000000
-8.978600 0.000000
-8.935800 0.000000
-8.893000 0.000000
-8.850200 0.000000
-8.807500 0.000000
-8.764700 0.000000
-8.721900 0.000000
-8.679100 0.000000
-8.636400 0.000000
-8.593600 0.000000
-8.550800 0.000000
-8.508000 0.000000
-8.465300 0.000000
-8.422500 0.000000
-8.379700 0.000000
-8.336900 0.000000
-8.294100 0.000000
-8.251400 0.000000
-8.208600 0.000000
-8.165800 0.000000
-8.123000 0.000000
-8.080300 0.000000
-8.037500 0.000000
-7.994700 0.000000
-7.951900 0.000000
-7.909100 0.000000
-7.866400 0.000000
-7.823600 0.000000
-7.780800 0.000000
-7.738000 0.000000
-7.695300 0.000000
-7.652500 0.000000
-7.609700 0.000000
-7.566900 0.000000
-7.524100 0.000000
-7.481400 0.000000
-7.438600 0.000000
-7.395800 0.000000
-7.353000 0.000000
-7.310300 0.000000
-7.267500 0.000000
-7.224700 0.000000
-7.181900 0.000000
-7.139200 0.000000
-7.096400 0.000000
-7.053600 0.000000
-7.010800 0.000000
-6.968000 0.000000
-6.925300 0.000000
-6.882500 0.000000
-6.839700 0.000000
-6.796900 0.000000
-6.754200 0.000000
-6.711400 0.000000
-6.668600 0.000000
-6.625800 0.000000
-6.583000 0.000000
-6.540300 0.000000
-6.497500 0.000000
-6.454700 0.000000
-6.411900 0.000000
-6.369200 0.000000
-6.326400 0.000000
-6.283600 0.000000
-6.240800 0.000000
-6.198000 0.000000
-6.155300 0.000000
-6.112500 0.000000
-6.069700 0.000000
-6.026900 0.000000
-5.984200 0.000000
-5.941400 0.000000
-5.898600 0.000000
-5.855800 0.000000
-5.813100 0.000000
-5.770300 0.000000
-5.727500 0.000000
-5.684700 0.000000
-5.641900 0.000000
-5.599200 0.000000
-5.556400 0.000000
-5.513600 0.000000
-5.470800 0.000000
-5.428100 0.000000
-5.385300 0.000000
-5.342500 0.000000
-5.299700 0.000000
-5.256900 0.000000
-5.214200 0.000000
-5.171400 0.000000
-5.128600 0.000000
-5.085800 0.000000
-5.043100 0.000000
-5.000300 0.000000
-4.957500 0.000000
-4.914700 0.000000
-4.871900 0.000000
-4.829200 0.000000
-4.786400 0.000000
-4.743600 0.000000
-4.700800 0.000000
-4.658100 0.000000
-4.615300 0.000000
-4.572500 0.000000
-4.529700 0.000000
-4.487000 0.000000
-4.444200 0.000000
-4.401400 0.000000
-4.358600 0.000000
-4.315800 0.000000
-4.273100 0.000000
-4.230300 0.000000
-4.187500 0.000000
-4.144700 0.000000
-4.102000 0.000000
-4.059200 0.000000
-4.016400 0.000000
-3.973600 0.000000
-3.930800 0.000000
-3.888100 0.000000
-3.845300 0.000000
-3.802500 0.000000
-3.759700 0.000000
-3.717000 0.000000
-3.674200 0.000000
-3.631400 0.000000
-3.588600 0.000000
-3.545800 0.000000
-3.503100 0.000000
-3.460300 0.000000
-3.417500 0.000000
-3.374700 0.000000
-3.332000 0.000000
-3.289200 0.000000
-3.246400 0.000000
-3.203600 0.000000
-3.160900 0.000000
-3.118100 0.000000
-3.075300 0.000000
-3.032500 0.000000
-2.989700 0.000000
-2.947000 0.000000
-2.904200 0.001400
-2.861400 0.012000
-2.818600 0.028500
-2.775900 0.049900
-2.733100 0.077600
-2.690300 0.109400
-2.647500 0.109000
-2.604700 0.112900
-2.562000 0.114300
-2.519200 0.107100
-2.476400 0.099600
-2.433600 0.102600
-2.390900 0.105600
-2.348100 0.108600
-2.305300 0.111600
-2.262500 0.114600
-2.219700 0.117500
-2.177000 0.119400
-2.134200 0.123300
-2.091400 0.130000
-2.048600 0.137800
-2.005900 0.146700
-1.963100 0.157900
-1.920300 0.161600
-1.877500 0.164300
-1.834800 0.169800
-1.792000 0.176300
-1.749200 0.183300
-1.706400 0.190400
-1.663600 0.197800
-1.620900 0.206000
-1.578100 0.214900
-1.535300 0.225800
-1.492500 0.236400
-1.449800 0.245200
-1.407000 0.251700
-1.364200 0.252500
-1.321400 0.245800
-1.278600 0.247100
-1.235900 0.248300
-1.193100 0.250100
-1.150300 0.252600
-1.107500 0.255100
-1.064800 0.257500
-1.022000 0.259900
-0.979200 0.264600
-0.936400 0.272100
-0.893600 0.281100
-0.850900 0.292200
-0.808100 0.304700
-0.765300 0.309800
-0.722500 0.316400
-0.679800 0.324400
-0.637000 0.332400
-0.594200 0.340700
-0.551400 0.349300
-0.508700 0.358200
-0.465900 0.367300
-0.423100 0.376800
-0.380300 0.386800
-0.337500 0.397600
-0.294800 0.409700
-0.252000 0.422700
-0.209200 0.436800
-0.166400 0.452100
-0.123700 0.468100
-0.080900 0.486900
-0.038100 0.505400
0.004700 0.522600
0.047500 0.535900
0.090200 0.541400
0.133000 0.553600
0.175800 0.568500
0.218600 0.584200
0.261300 0.609100
0.304100 0.640100
0.346900 0.678600
0.389700 0.723900
0.432400 0.763500
0.475200 0.816400
0.518000 0.878600
0.560800 0.956000
0.603600 1.056500
0.646300 1.368600
0.689100 1.793500
0.731900 2.122800
0.774700 2.572000
0.817400 2.571000
0.860200 2.051200
0.903000 1.768900
0.945800 1.873900
0.988600 2.146500
1.031300 2.412100
1.074100 2.667400
1.116900 2.695200
1.159700 2.725900
1.202400 2.617100
1.245200 2.415600
1.288000 3.267500
1.330800 4.084200
1.373600 4.289800
1.416300 4.221900
1.459100 4.274500
1.501900 4.051400
1.544700 3.728500
1.587400 3.430000
1.630200 3.445200
1.673000 4.096300
1.715800 4.351600
1.758500 3.729600
1.801300 4.269500
1.844100 6.392800
1.886900 4.994800
1.929700 3.777300
1.972400 3.772600
2.015200 4.128800
2.058000 3.313600
2.100800 2.774400
2.143500 4.764300
2.186300 5.374400
2.229100 2.211000
2.271900 1.773700
2.314700 2.755800
2.357400 3.971500
2.400200 5.501100
2.443000 7.176800
2.485800 5.526400
2.528500 3.487600
2.571300 3.757500
2.614100 3.940800
2.656900 4.194900
2.699700 4.926100
2.742400 5.997800
2.785200 7.109800
2.828000 4.940100
2.870800 5.674700
2.913500 5.853300
2.956300 6.030400
2.999100 6.507400
3.041900 7.203500
3.084600 6.081100
3.127400 5.815800
3.170200 7.180900
3.213000 9.631200
3.255800 6.216400
3.298500 6.546200
3.341300 4.090600
3.384100 3.481300
3.426900 4.199600
3.469600 4.786700
3.512400 5.441800
3.555200 5.532600
3.598000 6.780300
3.640800 6.045300
3.683500 3.622800
3.726300 4.601200
3.769100 5.694300
3.811900 4.191400
3.854600 3.834700
3.897400 4.059700
3.940200 6.179600
3.983000 5.560100
4.025800 5.153600
4.068500 5.648300
4.111300 6.797700
4.154100 8.320100
4.196900 8.812100
4.239600 6.944400
4.282400 5.552600
4.325200 4.995700
4.368000 4.643500
4.410700 4.691600
4.453500 4.830600
4.496300 5.840700
4.539100 6.034100
4.581900 5.691300
4.624600 5.568500
4.667400 6.001000
4.710200 9.014400
4.753000 4.731500
4.795700 7.958800
4.838500 9.756500
4.881300 4.626900
4.924100 4.946300
4.966900 4.121500
5.009600 2.975500
5.052400 2.684200
5.095200 2.475000
5.138000 2.333300
5.180700 2.058700
5.223500 2.223100
5.266300 1.519200
5.309100 1.552300
5.351900 1.700100
5.394600 1.691800
5.437400 1.717700
5.480200 1.803900
5.523000 1.841200
5.565700 1.890200
5.608500 1.910400
5.651300 1.805800
5.694100 1.748100
5.736800 1.800700
5.779600 1.837100
5.822400 1.822300
5.865200 2.270200
5.908000 1.509100
5.950700 1.781900
5.993500 1.944900
6.036300 1.423000
6.079100 1.332700
6.121800 1.426900
6.164600 1.604300
6.207400 1.761700
6.250200 2.025000
6.293000 1.921800
6.335700 1.658300
6.378500 1.699500
6.421300 1.828000
6.464100 2.072200
6.506800 1.747200
6.549600 1.582100
6.592400 1.485000
6.635200 1.416500
6.678000 1.362700
6.720700 1.323900
6.763500 1.315300
6.806300 1.312300
6.849100 1.240000
6.891800 1.235600
6.934600 1.273800
6.977400 1.345100
7.020200 1.439000
7.062900 1.560800
7.105700 1.688200
7.148500 1.569300
7.191300 1.428300
7.234100 1.362200
7.276800 1.288800
7.319600 1.251300
7.362400 1.291800
7.405200 1.562500
7.447900 1.359000
7.490700 1.286300
7.533500 1.274800
7.576300 1.483500
7.619100 1.585700
7.661800 1.767800
7.704600 1.790800
7.747400 1.863900
7.790200 1.909900
7.832900 1.584700
7.875700 1.232700
7.918500 1.010000
7.961300 0.926100
8.004100 0.834600
8.046800 0.803300
8.089600 1.478600
8.132400 1.667100
8.175200 1.808100
8.217900 2.304200
8.260700 1.684000
8.303500 1.486700
8.346300 0.967000
8.389000 1.031700
8.431800 1.090800
8.474600 1.062400
8.517400 1.013400
8.560200 0.958700
8.602900 0.897900
8.645700 0.864500
8.688500 0.842500
8.731300 0.823900
8.774000 0.808100
8.816800 0.806700
8.859600 0.811600
8.902400 0.815200
8.945200 0.817200
8.987900 0.820000
9.030700 0.833500
9.073500 0.862100
9.116300 0.841100
9.159000 0.891700
9.201800 0.921800
9.244600 0.962600
9.287400 1.014900
9.330200 1.107700
9.372900 0.938000
9.415700 0.796000
9.458500 0.797400
9.501300 0.791600
9.544000 0.785300
9.586800 0.779400
9.629600 0.777400
9.672400 0.802100
9.715100 0.809600
9.757900 0.813500
9.800700 0.812600
9.843500 0.804600
9.886300 0.776300
9.929000 0.715500
9.971800 0.678400
10.014600 0.666400
10.057400 0.666200
10.100100 0.652400
10.142900 0.639000
10.185700 0.626200
10.228500 0.614000
10.271300 0.602500
10.314000 0.592900
10.356800 0.585200
10.399600 0.577800
10.442400 0.570800
10.485100 0.564000
10.527900 0.570300
10.570700 0.580900
10.613500 0.588000
10.656300 0.600500
10.699000 0.635200
10.741800 0.643700
10.784600 0.648200
10.827400 0.667400
10.870100 0.647500
10.912900 0.641300
10.955700 0.475000
10.998500 0.473000
11.041200 0.471000
11.084000 0.469100
11.126800 0.469000
11.169600 0.477800
11.212400 0.493000
11.255100 0.514100
11.297900 0.521600
11.340700 0.517400
11.383500 0.503900
11.426200 0.487300
11.469000 0.501400
11.511800 0.468500
11.554600 0.359500
11.597400 0.282900
11.640100 0.282700
11.682900 0.284200
11.725700 0.286800
11.768500 0.290400
11.811200 0.294700
11.854000 0.299700
11.896800 0.304600
11.939600 0.309400
11.982300 0.314000
12.025100 0.319300
12.067900 0.340100
12.110700 0.372600
12.153500 0.428700
12.196200 0.513800
12.239000 0.625900
12.281800 0.724200
12.324600 0.740000
12.367300 0.681800
12.410100 0.612100
12.452900 0.578100
12.495700 0.565600
12.538500 0.547600
12.581200 0.548300
12.624000 0.550200
12.666800 0.507000
12.709600 0.490100
12.752300 0.553100
12.795100 0.776800
12.837900 0.710300
12.880700 0.640700
12.923500 0.605200
12.966200 0.586400
13.009000 0.569900
13.051800 0.543800
13.094600 0.519000
13.137300 0.485200
13.180100 0.448600
13.222900 0.456700
13.265700 0.497600
13.308400 0.530400
13.351200 0.557200
13.394000 0.577500
13.436800 0.585200
13.479600 0.582700
13.522300 0.630200
13.565100 0.754400
13.607900 0.833200
13.650700 0.819700
13.693400 0.807500
13.736200 0.810900
13.779000 0.823000
13.821800 0.859600
13.864600 0.953400
13.907300 0.995300
13.950100 0.929200
13.992900 0.870900
14.035700 0.804500
14.078400 0.763100
14.121200 0.720400
14.164000 0.674200
14.206800 0.627900
14.249600 0.591400
14.292300 0.566400
14.335100 0.549000
14.377900 0.536300
14.420700 0.527200
14.463400 0.519200
14.506200 0.511200
14.549000 0.503100
14.591800 0.630200
14.634500 0.757500
14.677300 0.793500
14.720100 0.715400
14.762900 0.621200
14.805700 0.522700
14.848400 0.512200
14.891200 0.504600
14.934000 0.497500
14.976800 0.490600
15.019500 0.483500
15.062300 0.467200
15.105100 0.472100
15.147900 0.487800
15.190700 0.520300
15.233400 0.552500
15.276200 0.586100
15.319000 0.663000
15.361800 0.686500
15.404500 0.716300
15.447300 0.756200
15.490100 0.780000
15.532900 0.788000
15.575700 0.777800
15.618400 0.743600
15.661200 0.697100
15.704000 0.676400
15.746800 0.661900
15.789500 0.656900
15.832300 0.650800
15.875100 0.614200
15.917900 0.607000
15.960600 0.601000
16.003400 0.603200
16.046200 0.613900
16.089000 0.698400
16.131800 0.890600
16.174500 1.090600
16.217300 1.038400
16.260100 1.059700
16.302900 1.115700
16.345600 1.019100
16.388400 0.931300
16.431200 0.910100
16.474000 0.877300
16.516800 0.833300
16.559500 0.783000
16.602300 0.733600
16.645100 0.711200
16.687900 0.700200
16.730600 0.729500
16.773400 0.820000
16.816200 0.805200
16.859000 0.831000
16.901800 0.850100
16.944500 0.877700
16.987300 0.894600
17.030100 0.893600
17.072900 0.882900
17.115600 0.850600
17.158400 0.844100
17.201200 0.884900
17.244000 0.869600
17.286700 0.807300
17.329500 0.835100
17.372300 0.886100
17.415100 0.952600
17.457900 1.006600
17.500600 1.018600
17.543400 1.000600
17.586200 1.005000
17.629000 1.003600
17.671700 1.000100
17.714500 1.007400
17.757300 0.950500
17.800100 0.923200
17.842900 0.912400
17.885600 0.909700
17.928400 0.905700
17.971200 0.902700
18.014000 0.897900
18.056700 0.901700
18.099500 0.913400
18.142300 0.918000
18.185100 0.935600
18.227900 0.957300
18.270600 0.942800
18.313400 0.937300
18.356200 0.942000
18.399000 0.931700
18.441700 0.931600
18.484500 0.929800
18.527300 0.930500
18.570100 0.925300
18.612800 0.921300
18.655600 0.926600
18.698400 0.934000
18.741200 0.947400
18.784000 0.976700
18.826700 1.007900
18.869500 1.060900
18.912300 1.030000
18.955100 1.014300
18.997800 0.993900
19.040600 0.983700
19.083400 0.984200
19.126200 1.051000
19.169000 0.996600
19.211700 0.991400
19.254500 0.991000
19.297300 0.997800
19.340100 1.013400
19.382800 1.040700
19.425600 1.071000
19.468400 1.131200
19.511200 1.169600
19.554000 1.171200
19.596700 1.161400
19.639500 1.161600
19.682300 1.158000
19.725100 1.145100
19.767800 1.129000
19.810600 1.100600
19.853400 1.066900
19.896200 1.050100
19.938900 1.042500
19.981700 1.042400
20.024500 1.047700
20.067300 1.058000
20.110100 1.070300
20.152800 1.053800
20.195600 1.030700
20.238400 1.027900
20.281200 1.041800
20.323900 1.063900
20.366700 1.070700
20.409500 1.087500
20.452300 1.116000
20.495100 1.153500
20.537800 1.179700
20.580600 1.195400
20.623400 1.228900
20.666200 1.301300
20.708900 1.199000
20.751700 1.160000
20.794500 1.130700
20.837300 1.114900
20.880100 1.108400
20.922800 1.095600
20.965600 1.078700
21.008400 1.081300
21.051200 1.081600
21.093900 1.078600
21.136700 1.071800
21.179500 1.085800
21.222300 1.125500
21.265000 1.134100
21.307800 1.127600
21.350600 1.129900
21.393400 1.137700
21.436200 1.150300
21.478900 1.163000
21.521700 1.167900
21.564500 1.178500
21.607300 1.193200
21.650000 1.200100
21.692800 1.207300
21.735600 1.220800
21.778400 1.244400
21.821200 1.236800
21.863900 1.209500
21.906700 1.181900
21.949500 1.164400
21.992300 1.150700
22.035000 1.127300
22.077800 1.112400
22.120600 1.091300
22.163400 1.072500
22.206200 1.058600
22.248900 1.049400
22.291700 1.040400
22.334500 1.033700
22.377300 1.037300
22.420000 1.039300
22.462800 1.044500
22.505600 1.045900
22.548400 1.042000
22.591100 1.035400
22.633900 1.031800
22.676700 1.037400
22.719500 1.038800
22.762300 1.035600
22.805000 1.037800
22.847800 1.037300
22.890600 1.040500
22.933400 1.035500
22.976100 1.020100
23.018900 1.000200
23.061700 0.986100
23.104500 0.971300
23.147300 0.957300
23.190000 0.946400
23.232800 0.943700
23.275600 0.967100
23.318400 0.970100
23.361100 0.966700
23.403900 0.960000
23.446700 0.952800
23.489500 0.943200
23.532300 0.937000
23.575000 0.933100
23.617800 0.947200
23.660600 0.965700
23.703400 0.974300
23.746100 0.980900
23.788900 0.990900
23.831700 1.005900
23.874500 1.016800
23.917200 1.019200
23.960000 1.019500
24.002800 1.019800
24.045600 1.018500
24.088400 1.016500
24.131100 1.016400
24.173900 1.017500
24.216700 1.014800
24.259500 1.013000
24.302200 1.012500
24.345000 1.010700
24.387800 1.008500
24.430600 1.005200
24.473400 0.999600
24.516100 0.992200
24.558900 0.982400
24.601700 0.970400
24.644500 0.963300
24.687200 0.960500
24.730000 0.960800
24.772800 0.963800
24.815600 0.965800
24.858300 0.965800
24.901100 0.963600
24.943900 0.960300
24.986700 0.955600
25.029500 0.946100
25.072200 0.931600
25.115000 0.915900
25.157800 0.901200
25.200600 0.890000
25.243300 0.887700
25.286100 0.893700
25.328900 0.931100
25.371700 0.988500
25.414500 1.011800
25.457200 1.001900
25.500000 0.991100
25.542800 0.979900
25.585600 0.972900
25.628300 0.965000
25.671100 0.958200
25.713900 0.967000
25.756700 0.959900
25.799500 0.939600
25.842200 0.918500
25.885000 0.917100
25.927800 0.944300
25.970600 0.986700
26.013300 1.029500
26.056100 1.040400
26.098900 0.976200
26.141700 0.957500
26.184400 0.950000
26.227200 0.976700
26.270000 0.977500
26.312800 0.998000
26.355600 0.989200
26.398300 0.948000
26.441100 0.925500
26.483900 0.914100
26.526700 0.899500
26.569400 0.882900
26.612200 0.878400
26.655000 0.893800
26.697800 0.916800
26.740600 1.018000
26.783300 1.059700
26.826100 1.119400
26.868900 1.183600
26.911700 1.135900
26.954400 1.110900
26.997200 1.095000
27.040000 1.088800
27.082800 1.072800
27.125600 1.054500
27.168300 1.038400
27.211100 1.022300
27.253900 1.004500
27.296700 0.987300
27.339400 0.963600
27.382200 0.933600
27.425000 0.936900
27.467800 0.985200
27.510500 1.010600
27.553300 1.047000
27.596100 1.081400
27.638900 1.101700
27.681700 1.120200
27.724400 1.144200
27.767200 1.168800
27.810000 1.192600
27.852800 1.239500
27.895500 1.237100
27.938300 1.209200
27.981100 1.216400
28.023900 1.234500
28.066700 1.258500
28.109400 1.281400
28.152200 1.299300
28.195000 1.322000
28.237800 1.341500
28.280500 1.356700
28.323300 1.359200
28.366100 1.387200
28.408900 1.398900
28.451700 1.399500
28.494400 1.379100
28.537200 1.370600
28.580000 1.366500
28.622800 1.345700
28.665500 1.307200
28.708300 1.268900
28.751100 1.254800
28.793900 1.248800
28.836600 1.249000
28.879400 1.260700
28.922200 1.272900
28.965000 1.270100
29.007800 1.264700
29.050500 1.258900
29.093300 1.257500
29.136100 1.271200
29.178900 1.283000
29.221600 1.291900
29.264400 1.298100
29.307200 1.300900
29.350000 1.306900
29.392800 1.325700
29.435500 1.531400
29.478300 1.365100
29.521100 1.354100
29.563900 1.363200
29.606600 1.384300
29.649400 1.404200
29.692200 1.394300
29.735000 1.386200
29.777800 1.426300
29.820500 1.449900
29.863300 1.382700
29.906100 1.347000
29.948900 1.331900
29.991600 1.315800
30.034400 1.326200
30.077200 1.268500
30.120000 1.211900
30.162700 1.183100
30.205500 1.167600
30.248300 1.160800
30.291100 1.189200
30.333900 1.191300
30.376600 1.204300
30.419400 1.189900
30.462200 1.190500
30.505000 1.206500
30.547700 1.213600
30.590500 1.214500
30.633300 1.202400
30.676100 1.193600
30.718900 1.207300
30.761600 1.235100
30.804400 1.250300
30.847200 1.168100
30.890000 1.154400
30.932700 1.124400
30.975500 1.081200
31.018300 1.060500
31.061100 1.062500
31.103900 1.075700
31.146600 1.100600
31.189400 1.113800
31.232200 1.141200
31.275000 1.148500
31.317700 1.115300
31.360500 1.091900
31.403300 1.082800
31.446100 1.078200
31.488800 1.056300
31.531600 1.020700
31.574400 1.051800
31.617200 1.062200
31.660000 1.077000
31.702700 1.093300
31.745500 1.110400
31.788300 1.126400
31.831100 1.117100
31.873800 1.109100
31.916600 1.112100
31.959400 1.097200
32.002200 1.078700
32.045000 1.056400
32.087700 1.048900
32.130500 1.045400
32.173300 1.028300
32.216100 0.980600
32.258800 0.971900
32.301600 0.916600
32.344400 0.861800
32.387200 0.832200
32.430000 0.858500
32.472700 0.900100
32.515500 0.944100
32.558300 0.943600
32.601100 0.909900
32.643800 0.887100
32.686600 0.870900
32.729400 0.847000
32.772200 0.820200
32.814900 0.796600
32.857700 0.768200
32.900500 0.747600
32.943300 0.735800
32.986100 0.736100
33.028800 0.736900
33.071600 0.742100
33.114400 0.744300
33.157200 0.739900
33.199900 0.746200
33.242700 0.747500
33.285500 0.741800
33.328300 0.732900
33.371100 0.721700
33.413800 0.714900
33.456600 0.713900
33.499400 0.816100
33.542200 0.666000
33.584900 0.665000
33.627700 0.684400
33.670500 0.706200
33.713300 0.742700
33.756100 0.763300
33.798800 0.792000
33.841600 0.833700
33.884400 0.882700
33.927200 0.933400
33.969900 0.984200
34.012700 1.037300
34.055500 1.090700
34.098300 1.135100
34.141000 1.145800
34.183800 1.183100
34.226600 1.091400
34.269400 1.103200
34.312200 1.115800
34.354900 1.144900
34.397700 1.205500
34.440500 1.300800
34.483300 1.499300
34.526000 1.583200
34.568800 1.612700
34.611600 1.629100
34.654400 1.688400
34.697200 1.669600
34.739900 1.620700
34.782700 1.571600
34.825500 1.580100
34.868300 1.603400
34.911000 1.745000
34.953800 1.686100
34.996600 1.846900
35.039400 1.963800
35.082200 2.090500
35.124900 2.152100
35.167700 2.108000
35.210500 2.050600
35.253300 2.015100
35.296000 2.065400
35.338800 2.105100
35.381600 2.252800
35.424400 2.558000
35.467100 4.320700
35.509900 3.144300
35.552700 2.451700
35.595500 2.153000
35.638300 1.995600
35.681000 1.881900
35.723800 1.792200
35.766600 1.663800
35.809400 1.596400
35.852100 1.569300
35.894900 1.613800
35.937700 1.631900
35.980500 1.594800
36.023300 1.585800
36.066000 1.568200
36.108800 1.543000
36.151600 1.475600
36.194400 1.504900
36.237100 1.492700
36.279900 1.404900
36.322700 1.370100
36.365500 1.341600
36.408200 1.314800
36.451000 1.272900
36.493800 1.310600
36.536600 1.299400
36.579400 1.240200
36.622100 1.222100
36.664900 1.228300
36.707700 1.215100
36.750500 1.202900
36.793200 1.187700
36.836000 1.181500
36.878800 1.183800
36.921600 1.176200
36.964400 1.150300
37.007100 1.122200
37.049900 1.127200
37.092700 1.148100
37.135500 1.155200
37.178200 1.198100
37.221000 1.209800
37.263800 1.215600
37.306600 1.260700
37.349400 1.307200
37.392100 1.359400
37.434900 1.476300
37.477700 1.379200
37.520500 1.354800
37.563200 1.336500
37.606000 1.298300
37.648800 1.257200
37.691600 1.214200
37.734300 1.188400
37.777100 1.171500
37.819900 1.147900
37.862700 1.119600
37.905500 1.091300
37.948200 1.067200
37.991000 1.049400
38.033800 1.035500
38.076600 1.023700
38.119300 1.021400
38.162100 1.025300
38.204900 1.021200
38.247700 1.020800
38.290500 1.037600
38.333200 1.044100
38.376000 1.038300
38.418800 1.015400
38.461600 1.000700
38.504300 0.982900
38.547100 0.964800
38.589900 0.967300
38.632700 0.974500
38.675500 0.989400
38.718200 1.024500
38.761000 1.049100
38.803800 1.060500
38.846600 1.055500
38.889300 1.053000
38.932100 1.096500
38.974900 1.107500
39.017700 1.108600
39.060400 1.091800
39.103200 1.043500
39.146000 1.001000
39.188800 0.967800
39.231600 0.981400
39.274300 0.970200
39.317100 0.967400
39.359900 0.971900
39.402700 0.983500
39.445400 0.991700
39.488200 1.016000
39.531000 1.076000
39.573800 1.117100
39.616600 1.130800
39.659300 1.132000
39.702100 1.129700
39.744900 1.106800
39.787700 1.089200
39.830400 1.077500
39.873200 1.075900
39.916000 1.084900
39.958800 1.047000
40.001600 1.032400
40.044300 1.029300
40.087100 1.023300
40.129900 1.011900
40.172700 0.997400
40.215400 0.982300
40.258200 0.964600
40.301000 0.945700
40.343800 0.925900
40.386500 0.899900
40.429300 0.870300
40.472100 0.859700
40.514900 0.851900
40.557700 0.840400
40.600400 0.829300
40.643200 0.822900
40.686000 0.803800
40.728800 0.785900
40.771500 0.784900
40.814300 0.777900
40.857100 0.761400
40.899900 0.746200
40.942700 0.745600
40.985400 0.745000
41.028200 0.744600
41.071000 0.737200
41.113800 0.721000
41.156500 0.711700
41.199300 0.710000
41.242100 0.708100
41.284900 0.686900
41.327700 0.676500
41.370400 0.672100
41.413200 0.664800
41.456000 0.652200
41.498800 0.621700
41.541500 0.616400
41.584300 0.589600
41.627100 0.542100
41.669900 0.504200
41.712600 0.496300
41.755400 0.509500
41.798200 0.516000
41.841000 0.489000
41.883800 0.462300
41.926500 0.427900
41.969300 0.413800
42.012100 0.417400
42.054900 0.430800
42.097600 0.445300
42.140400 0.447200
42.183200 0.439500
42.226000 0.419500
42.268800 0.374300
42.311500 0.332400
42.354300 0.288900
42.397100 0.237000
42.439900 0.184100
42.482600 0.149100
42.525400 0.129000
42.568200 0.115300
42.611000 0.105300
42.653800 0.096900
42.696500 0.089500
42.739300 0.082800
42.782100 0.076900
42.824900 0.071900
42.867600 0.067600
42.910400 0.063600
42.953200 0.059800
42.996000 0.056300
43.038700 0.053000
43.081500 0.049900
43.124300 0.047000
43.167100 0.044200
43.209900 0.041400
43.252600 0.038900
43.295400 0.036400
43.338200 0.034000
43.381000 0.031800
43.423700 0.029600
43.466500 0.027600
43.509300 0.025700
43.552100 0.024000
43.594900 0.022300
43.637600 0.020700
43.680400 0.019200
43.723200 0.017700
43.766000 0.016400
43.808700 0.015100
43.851500 0.013900
43.894300 0.012700
43.937100 0.011700
43.979900 0.010700
44.022600 0.009800
44.065400 0.009000
44.108200 0.008200
44.151000 0.007400
44.193700 0.006600
44.236500 0.006000
44.279300 0.005300
44.322100 0.004700
44.364800 0.004100
44.407600 0.003600
44.450400 0.003100
44.493200 0.002700
44.536000 0.002300
44.578700 0.001900
44.621500 0.001500
44.664300 0.001200
44.707100 0.000900
44.749800 0.000600
44.792600 0.000400
44.835400 0.000200
44.878200 0.000000
44.921000 0.000000
44.963700 0.000000
45.006500 0.000000
45.049300 0.000000
45.092100 0.000000
45.134800 0.000000
45.177600 0.000000
45.220400 0.000000
45.263200 0.000000
45.306000 0.000000
45.348700 0.000000
45.391500 0.000000
45.434300 0.000000
45.477100 0.000000
45.519800 0.000000
45.562600 0.000000
45.605400 0.000000
45.648200 0.000000
45.690900 0.000000
45.733700 0.000000
45.776500 0.000000
45.819300 0.000000
45.862100 0.000000
45.904800 0.000000
45.947600 0.000000
45.990400 0.000000
46.033200 0.000000
46.075900 0.000000
46.118700 0.000000
46.161500 0.000000
46.204300 0.000000
46.247100 0.000000
46.289800 0.000000
46.332600 0.000000
46.375400 0.000000
46.418200 0.000000
46.460900 0.000000
46.503700 0.000000
46.546500 0.000000
46.589300 0.000000
46.632100 0.000000
46.674800 0.000000
46.717600 0.000000
46.760400 0.000000
46.803200 0.000000
46.845900 0.000000
46.888700 0.000000
46.931500 0.000000
46.974300 0.000000
47.017000 0.000000
47.059800 0.000000
47.102600 0.000000
47.145400 0.000000
47.188200 0.000000
47.230900 0.000000
47.273700 0.000000
47.316500 0.000000
47.359300 0.000000
47.402000 0.000000
47.444800 0.000000
47.487600 0.000000
47.530400 0.000000
47.573200 0.000000
47.615900 0.000000
47.658700 0.000000
47.701500 0.000000
47.744300 0.000000
47.787000 0.000000
47.829800 0.000000
47.872600 0.000000
47.915400 0.000000
47.958200 0.000000
48.000900 0.000000
48.043700 0.000000
48.086500 0.000000
48.129300 0.000000
48.172000 0.000000
48.214800 0.000000
48.257600 0.000000
48.300400 0.000000
48.343100 0.000000
48.385900 0.000000
48.428700 0.000000
48.471500 0.000000
48.514300 0.000000
48.557000 0.000000
48.599800 0.000000
48.642600 0.000000
48.685400 0.000000
48.728100 0.000000
48.770900 0.000000
48.813700 0.000000
48.856500 0.000000
e
