set title 'mp-1018722 - Density of States'
set xlabel 'Energy (eV)'
set ylabel 'DOS (states/eV)'
set grid
set xrange [-10:10]
set yrange [0:129.988]
set xzeroaxis lt -1
set terminal png size 800,600
set output 'mp-1018722_dos_gnuplot.png'
plot '-' using 1:2 with lines title 'DOS'
-13.010700 0.000000
-12.998100 0.000000
-12.985500 0.000000
-12.972900 0.000000
-12.960300 0.000000
-12.947700 0.000000
-12.935100 0.000000
-12.922500 0.000000
-12.909900 0.000000
-12.897300 0.000000
-12.884800 0.000000
-12.872200 0.000000
-12.859600 0.000000
-12.847000 0.000000
-12.834400 0.000000
-12.821800 0.000000
-12.809200 0.000000
-12.796600 0.000000
-12.784000 0.000000
-12.771500 0.000000
-12.758900 0.000000
-12.746300 0.000000
-12.733700 0.000000
-12.721100 0.000000
-12.708500 0.000000
-12.695900 0.000000
-12.683300 0.000000
-12.670700 0.000000
-12.658100 0.000000
-12.645600 0.000000
-12.633000 0.000000
-12.620400 0.000000
-12.607800 0.000000
-12.595200 0.000000
-12.582600 0.000000
-12.570000 0.000000
-12.557400 0.000000
-12.544800 0.000000
-12.532300 0.000000
-12.519700 0.000000
-12.507100 0.000000
-12.494500 0.000000
-12.481900 0.000000
-12.469300 0.000000
-12.456700 0.000000
-12.444100 0.000000
-12.431500 0.000000
-12.419000 0.000000
-12.406400 0.000000
-12.393800 0.000000
-12.381200 0.000000
-12.368600 0.000000
-12.356000 0.000000
-12.343400 0.000000
-12.330800 0.000000
-12.318200 0.000000
-12.305600 0.000000
-12.293100 0.000000
-12.280500 0.000000
-12.267900 0.000000
-12.255300 0.000000
-12.242700 0.000000
-12.230100 0.000000
-12.217500 0.000000
-12.204900 0.000000
-12.192300 0.000000
-12.179800 0.000000
-12.167200 0.000000
-12.154600 0.000000
-12.142000 0.000000
-12.129400 0.000000
-12.116800 0.000000
-12.104200 0.000000
-12.091600 0.000000
-12.079000 0.000000
-12.066400 0.000000
-12.053900 0.000000
-12.041300 0.000000
-12.028700 0.000000
-12.016100 0.000000
-12.003500 0.000000
-11.990900 0.000000
-11.978300 0.000000
-11.965700 0.000000
-11.953100 0.000000
-11.940600 0.000000
-11.928000 0.000000
-11.915400 0.000000
-11.902800 0.000000
-11.890200 0.000000
-11.877600 0.000000
-11.865000 0.002100
-11.852400 0.305700
-11.839800 0.719000
-11.827300 0.884300
-11.814700 1.091600
-11.802100 1.258200
-11.789500 1.392600
-11.776900 1.577700
-11.764300 1.770900
-11.751700 1.906900
-11.739100 2.033100
-11.726500 2.181200
-11.713900 2.346500
-11.701400 2.522700
-11.688800 2.703900
-11.676200 2.884600
-11.663600 3.106100
-11.651000 3.306400
-11.638400 3.491800
-11.625800 3.672600
-11.613200 3.869600
-11.600600 4.129400
-11.588100 4.411500
-11.575500 4.697800
-11.562900 4.992000
-11.550300 5.301700
-11.537700 5.711600
-11.525100 6.257900
-11.512500 6.860400
-11.499900 7.551700
-11.487300 8.473200
-11.474700 9.785400
-11.462200 12.640700
-11.449600 12.157300
-11.437000 12.816500
-11.424400 11.776300
-11.411800 9.472300
-11.399200 7.161300
-11.386600 6.161300
-11.374000 5.398800
-11.361400 5.091800
-11.348900 5.014900
-11.336300 5.201500
-11.323700 6.301900
-11.311100 8.619500
-11.298500 10.153400
-11.285900 9.448700
-11.273300 8.504900
-11.260700 7.887900
-11.248100 8.029700
-11.235600 8.292600
-11.223000 8.947600
-11.210400 11.016500
-11.197800 10.957900
-11.185200 8.367100
-11.172600 5.806300
-11.160000 1.262300
-11.147400 0.512800
-11.134800 0.667000
-11.122200 1.092300
-11.109700 2.276800
-11.097100 5.131800
-11.084500 8.318800
-11.071900 11.755100
-11.059300 14.852600
-11.046700 12.760000
-11.034100 13.069500
-11.021500 16.259000
-11.008900 16.875600
-10.996400 11.563200
-10.983800 9.007000
-10.971200 7.403600
-10.958600 6.208200
-10.946000 5.289800
-10.933400 4.507400
-10.920800 3.834900
-10.908200 3.269300
-10.895600 2.463400
-10.883000 1.455400
-10.870500 0.558900
-10.857900 0.000000
-10.845300 0.000000
-10.832700 0.000000
-10.820100 0.000000
-10.807500 0.000000
-10.794900 0.000000
-10.782300 0.000000
-10.769700 0.000000
-10.757200 0.000000
-10.744600 0.000000
-10.732000 0.000000
-10.719400 0.000000
-10.706800 0.000000
-10.694200 0.000000
-10.681600 0.000000
-10.669000 0.000000
-10.656400 0.000000
-10.643900 0.000000
-10.631300 0.000000
-10.618700 0.000000
-10.606100 0.000000
-10.593500 0.000000
-10.580900 0.000000
-10.568300 0.000000
-10.555700 0.000000
-10.543100 0.000000
-10.530500 0.000000
-10.518000 0.000000
-10.505400 0.000000
-10.492800 0.000000
-10.480200 0.000000
-10.467600 0.000000
-10.455000 0.000000
-10.442400 0.000000
-10.429800 0.000000
-10.417200 0.000000
-10.404700 0.000000
-10.392100 0.000000
-10.379500 0.000000
-10.366900 0.000000
-10.354300 0.000000
-10.341700 0.000000
-10.329100 0.000000
-10.316500 0.000000
-10.303900 0.000000
-10.291300 0.000000
-10.278800 0.000000
-10.266200 0.000000
-10.253600 0.000000
-10.241000 0.000000
-10.228400 0.000000
-10.215800 0.000000
-10.203200 0.000000
-10.190600 0.000000
-10.178000 0.000000
-10.165500 0.000000
-10.152900 0.000000
-10.140300 0.000000
-10.127700 0.000000
-10.115100 0.000000
-10.102500 0.000000
-10.089900 0.000000
-10.077300 0.000000
-10.064700 0.000000
-10.052100 0.000000
-10.039600 0.000000
-10.027000 0.000000
-10.014400 0.000000
-10.001800 0.000000
-9.989200 0.000000
-9.976600 0.000000
-9.964000 0.000000
-9.951400 0.000000
-9.938800 0.000000
-9.926300 0.000000
-9.913700 0.000000
-9.901100 0.000000
-9.888500 0.000000
-9.875900 0.000000
-9.863300 0.000000
-9.850700 0.000000
-9.838100 0.000000
-9.825500 0.000000
-9.813000 0.000000
-9.800400 0.000000
-9.787800 0.000000
-9.775200 0.000000
-9.762600 0.000000
-9.750000 0.000000
-9.737400 0.000000
-9.724800 0.000000
-9.712200 0.000000
-9.699600 0.000000
-9.687100 0.000000
-9.674500 0.000000
-9.661900 0.000000
-9.649300 0.000000
-9.636700 0.000000
-9.624100 0.000000
-9.611500 0.000000
-9.598900 0.000000
-9.586300 0.000000
-9.573800 0.000000
-9.561200 0.000000
-9.548600 0.000000
-9.536000 0.000000
-9.523400 0.000000
-9.510800 0.000000
-9.498200 0.000000
-9.485600 0.000000
-9.473000 0.000000
-9.460400 0.000000
-9.447900 0.000000
-9.435300 0.000000
-9.422700 0.000000
-9.410100 0.000000
-9.397500 0.000000
-9.384900 0.000000
-9.372300 0.000000
-9.359700 0.000000
-9.347100 0.000000
-9.334600 0.000000
-9.322000 0.000000
-9.309400 0.000000
-9.296800 0.000000
-9.284200 0.000000
-9.271600 0.000000
-9.259000 0.000000
-9.246400 0.000000
-9.233800 0.000000
-9.221300 0.000000
-9.208700 0.000000
-9.196100 0.000000
-9.183500 0.000000
-9.170900 0.000000
-9.158300 0.000000
-9.145700 0.000000
-9.133100 0.000000
-9.120500 0.000000
-9.107900 0.000000
-9.095400 0.000000
-9.082800 0.000000
-9.070200 0.000000
-9.057600 0.000000
-9.045000 0.000000
-9.032400 0.000000
-9.019800 0.000000
-9.007200 0.000000
-8.994600 0.000000
-8.982100 0.000000
-8.969500 0.000000
-8.956900 0.000000
-8.944300 0.000000
-8.931700 0.000000
-8.919100 0.000000
-8.906500 0.000000
-8.893900 0.000000
-8.881300 0.000000
-8.868700 0.000000
-8.856200 0.000000
-8.843600 0.000000
-8.831000 0.000000
-8.818400 0.000000
-8.805800 0.000000
-8.793200 0.000000
-8.780600 0.000000
-8.768000 0.000000
-8.755400 0.000000
-8.742900 0.000000
-8.730300 0.000000
-8.717700 0.000000
-8.705100 0.000000
-8.692500 0.000000
-8.679900 0.000000
-8.667300 0.000000
-8.654700 0.000000
-8.642100 0.000000
-8.629600 0.000000
-8.617000 0.000000
-8.604400 0.000000
-8.591800 0.000000
-8.579200 0.000000
-8.566600 0.000000
-8.554000 0.000000
-8.541400 0.000000
-8.528800 0.000000
-8.516200 0.000000
-8.503700 0.000000
-8.491100 0.000000
-8.478500 0.000000
-8.465900 0.000000
-8.453300 0.000000
-8.440700 0.000000
-8.428100 0.000000
-8.415500 0.000000
-8.402900 0.000000
-8.390400 0.000000
-8.377800 0.000000
-8.365200 0.000000
-8.352600 0.000000
-8.340000 0.000000
-8.327400 0.000000
-8.314800 0.000000
-8.302200 0.000000
-8.289600 0.000000
-8.277000 0.000000
-8.264500 0.000000
-8.251900 0.000000
-8.239300 0.000000
-8.226700 0.000000
-8.214100 0.000000
-8.201500 0.000000
-8.188900 0.000000
-8.176300 0.000000
-8.163700 0.000000
-8.151200 0.000000
-8.138600 0.000000
-8.126000 0.000000
-8.113400 0.000000
-8.100800 0.000000
-8.088200 0.000000
-8.075600 0.000000
-8.063000 0.000000
-8.050400 0.000000
-8.037900 0.000000
-8.025300 0.000000
-8.012700 0.000000
-8.000100 0.000000
-7.987500 0.000000
-7.974900 0.000000
-7.962300 0.000000
-7.949700 0.000000
-7.937100 0.000000
-7.924500 0.000000
-7.912000 0.000000
-7.899400 0.000000
-7.886800 0.000000
-7.874200 0.000000
-7.861600 0.000000
-7.849000 0.000000
-7.836400 0.000000
-7.823800 0.000000
-7.811200 0.000000
-7.798700 0.000000
-7.786100 0.000000
-7.773500 0.000000
-7.760900 0.000000
-7.748300 0.000000
-7.735700 0.000000
-7.723100 0.000000
-7.710500 0.000000
-7.697900 0.000000
-7.685300 0.000000
-7.672800 0.000000
-7.660200 0.000000
-7.647600 0.000000
-7.635000 0.000000
-7.622400 0.000000
-7.609800 0.000000
-7.597200 0.000000
-7.584600 0.000000
-7.572000 0.000000
-7.559500 0.000000
-7.546900 0.000000
-7.534300 0.000000
-7.521700 0.000000
-7.509100 0.000000
-7.496500 0.000000
-7.483900 0.000000
-7.471300 0.000000
-7.458700 0.000000
-7.446200 0.000000
-7.433600 0.000000
-7.421000 0.000000
-7.408400 0.000000
-7.395800 0.000000
-7.383200 0.000000
-7.370600 0.000000
-7.358000 0.000000
-7.345400 0.000000
-7.332800 0.000000
-7.320300 0.000000
-7.307700 0.000000
-7.295100 0.000000
-7.282500 0.000000
-7.269900 0.000000
-7.257300 0.000000
-7.244700 0.000000
-7.232100 0.000000
-7.219500 0.000000
-7.207000 0.000000
-7.194400 0.000000
-7.181800 0.000000
-7.169200 0.000000
-7.156600 0.000000
-7.144000 0.000000
-7.131400 0.000000
-7.118800 0.000000
-7.106200 0.000000
-7.093600 0.000000
-7.081100 0.000000
-7.068500 0.000000
-7.055900 0.000000
-7.043300 0.000000
-7.030700 0.000000
-7.018100 0.000000
-7.005500 0.000000
-6.992900 0.000000
-6.980300 0.000000
-6.967800 0.000000
-6.955200 0.000000
-6.942600 0.000000
-6.930000 0.000000
-6.917400 0.000000
-6.904800 0.000000
-6.892200 0.000000
-6.879600 0.000000
-6.867000 0.000000
-6.854400 0.000000
-6.841900 0.000000
-6.829300 0.000000
-6.816700 0.000000
-6.804100 0.000000
-6.791500 0.000000
-6.778900 0.000000
-6.766300 0.000000
-6.753700 0.000000
-6.741100 0.000000
-6.728600 0.000000
-6.716000 0.000000
-6.703400 0.000000
-6.690800 0.000000
-6.678200 0.000000
-6.665600 0.000000
-6.653000 0.000000
-6.640400 0.000000
-6.627800 0.000000
-6.615300 0.000000
-6.602700 0.000000
-6.590100 0.000000
-6.577500 0.000000
-6.564900 0.000000
-6.552300 0.000000
-6.539700 0.000000
-6.527100 0.000000
-6.514500 0.000000
-6.501900 0.000000
-6.489400 0.000000
-6.476800 0.000000
-6.464200 0.000000
-6.451600 0.000000
-6.439000 0.000000
-6.426400 0.000000
-6.413800 0.000000
-6.401200 0.000000
-6.388600 0.000000
-6.376100 0.000000
-6.363500 0.000000
-6.350900 0.000000
-6.338300 0.000000
-6.325700 0.117600
-6.313100 0.699800
-6.300500 1.408300
-6.287900 2.292200
-6.275300 3.350300
-6.262700 4.314300
-6.250200 5.675000
-6.237600 7.952000
-6.225000 12.975200
-6.212400 13.492200
-6.199800 10.959600
-6.187200 6.539100
-6.174600 6.438900
-6.162000 6.440500
-6.149400 6.442200
-6.136900 6.346000
-6.124300 6.097900
-6.111700 5.825200
-6.099100 5.380400
-6.086500 4.837100
-6.073900 4.837200
-6.061300 4.837300
-6.048700 4.837400
-6.036100 4.837600
-6.023600 4.837800
-6.011000 4.838100
-5.998400 4.838400
-5.985800 4.838700
-5.973200 2.399800
-5.960600 1.154300
-5.948000 1.622300
-5.935400 3.088900
-5.922800 4.053600
-5.910200 4.319300
-5.897700 4.319300
-5.885100 4.319300
-5.872500 4.319400
-5.859900 4.319400
-5.847300 4.319500
-5.834700 4.319500
-5.822100 4.319600
-5.809500 4.659100
-5.796900 4.812700
-5.784400 4.909600
-5.771800 5.068300
-5.759200 5.156300
-5.746600 5.154400
-5.734000 5.152800
-5.721400 5.348000
-5.708800 5.760000
-5.696200 6.346000
-5.683600 6.988200
-5.671000 7.266600
-5.658500 8.031100
-5.645900 10.725800
-5.633300 11.222800
-5.620700 7.971300
-5.608100 6.668300
-5.595500 6.141800
-5.582900 6.392100
-5.570300 6.716500
-5.557700 12.784100
-5.545200 19.573300
-5.532600 21.411700
-5.520000 40.526000
-5.507400 32.893100
-5.494800 18.422800
-5.482200 19.153800
-5.469600 22.032900
-5.457000 55.488200
-5.444400 41.338700
-5.431900 27.077100
-5.419300 24.199800
-5.406700 68.024100
-5.394100 21.658500
-5.381500 13.619200
-5.368900 11.134600
-5.356300 16.756800
-5.343700 46.565100
-5.331100 41.092100
-5.318500 34.919800
-5.306000 33.487600
-5.293400 18.393900
-5.280800 8.882500
-5.268200 14.099500
-5.255600 17.483800
-5.243000 24.821900
-5.230400 28.861200
-5.217800 32.454400
-5.205200 40.602300
-5.192700 46.643400
-5.180100 43.903500
-5.167500 42.781600
-5.154900 49.670000
-5.142300 56.688700
-5.129700 21.966500
-5.117100 17.660200
-5.104500 9.820000
-5.091900 5.333200
-5.079300 4.089600
-5.066800 2.472100
-5.054200 1.949500
-5.041600 60.172700
-5.029000 43.570900
-5.016400 70.914800
-5.003800 86.257300
-4.991200 57.958500
-4.978600 59.371600
-4.966000 91.299600
-4.953500 45.514100
-4.940900 56.710700
-4.928300 114.283300
-4.915700 118.170700
-4.903100 20.382400
-4.890500 11.198500
-4.877900 11.904300
-4.865300 13.630500
-4.852700 13.677000
-4.840200 10.049700
-4.827600 8.726300
-4.815000 8.184100
-4.802400 7.236700
-4.789800 5.467500
-4.777200 4.323700
-4.764600 3.471200
-4.752000 2.756200
-4.739400 2.305000
-4.726800 1.863500
-4.714300 1.569500
-4.701700 0.968300
-4.689100 0.326500
-4.676500 0.035600
-4.663900 0.000000
-4.651300 0.000000
-4.638700 0.000000
-4.626100 0.000000
-4.613500 0.000000
-4.601000 0.000000
-4.588400 0.000000
-4.575800 0.000000
-4.563200 0.000000
-4.550600 0.000000
-4.538000 0.000000
-4.525400 0.000000
-4.512800 0.000000
-4.500200 0.000000
-4.487600 0.000000
-4.475100 0.000000
-4.462500 0.000000
-4.449900 0.000000
-4.437300 0.000000
-4.424700 0.000000
-4.412100 0.000000
-4.399500 0.000000
-4.386900 0.000000
-4.374300 0.000000
-4.361800 0.000000
-4.349200 0.000000
-4.336600 0.000000
-4.324000 0.000000
-4.311400 0.000000
-4.298800 0.000000
-4.286200 0.000000
-4.273600 0.000000
-4.261000 0.000000
-4.248500 0.000000
-4.235900 0.000000
-4.223300 0.000000
-4.210700 0.000000
-4.198100 0.000000
-4.185500 0.000000
-4.172900 0.000000
-4.160300 0.000000
-4.147700 0.000000
-4.135100 0.000000
-4.122600 0.000000
-4.110000 0.000000
-4.097400 0.000000
-4.084800 0.000000
-4.072200 0.000000
-4.059600 0.000000
-4.047000 0.000000
-4.034400 0.000000
-4.021800 0.000000
-4.009300 0.000000
-3.996700 0.000000
-3.984100 0.000000
-3.971500 0.000000
-3.958900 0.000000
-3.946300 0.000000
-3.933700 0.000000
-3.921100 0.000000
-3.908500 0.000000
-3.895900 0.000000
-3.883400 0.000000
-3.870800 0.000000
-3.858200 0.000000
-3.845600 0.000000
-3.833000 0.000000
-3.820400 0.000000
-3.807800 0.000000
-3.795200 0.000000
-3.782600 0.000000
-3.770100 0.000000
-3.757500 0.000000
-3.744900 0.000000
-3.732300 0.000000
-3.719700 0.000000
-3.707100 0.000000
-3.694500 0.000000
-3.681900 0.000000
-3.669300 0.000000
-3.656700 0.000000
-3.644200 0.000000
-3.631600 0.000000
-3.619000 0.000000
-3.606400 0.000000
-3.593800 0.000000
-3.581200 0.000000
-3.568600 0.000000
-3.556000 0.000000
-3.543400 0.000000
-3.530900 0.000000
-3.518300 0.000000
-3.505700 0.000000
-3.493100 0.000000
-3.480500 0.000000
-3.467900 0.000000
-3.455300 0.000000
-3.442700 0.000000
-3.430100 0.000000
-3.417600 0.000000
-3.405000 0.015800
-3.392400 0.304400
-3.379800 0.913300
-3.367200 1.429900
-3.354600 1.485200
-3.342000 1.731200
-3.329400 2.026400
-3.316800 2.415200
-3.304200 2.823100
-3.291700 3.145700
-3.279100 3.220500
-3.266500 3.109800
-3.253900 3.138500
-3.241300 3.197700
-3.228700 3.262700
-3.216100 3.338100
-3.203500 3.415800
-3.190900 3.481500
-3.178400 3.532900
-3.165800 3.632100
-3.153200 3.754900
-3.140600 3.926500
-3.128000 4.360300
-3.115400 4.803300
-3.102800 5.159100
-3.090200 5.562300
-3.077600 6.620400
-3.065000 6.787300
-3.052500 6.522700
-3.039900 8.088200
-3.027300 7.089500
-3.014700 6.595500
-3.002100 7.181900
-2.989500 7.994800
-2.976900 9.165200
-2.964300 10.941300
-2.951700 14.068600
-2.939200 18.150600
-2.926600 15.640900
-2.914000 13.441400
-2.901400 13.025000
-2.888800 11.057600
-2.876200 7.815600
-2.863600 7.068600
-2.851000 7.431200
-2.838400 7.144600
-2.825900 6.570100
-2.813300 6.167200
-2.800700 6.077000
-2.788100 5.750400
-2.775500 4.782600
-2.762900 2.778100
-2.750300 2.302900
-2.737700 2.009200
-2.725100 1.853600
-2.712500 1.799000
-2.700000 1.788200
-2.687400 1.805000
-2.674800 1.853300
-2.662200 1.950400
-2.649600 2.113100
-2.637000 2.327900
-2.624400 2.588600
-2.611800 3.288400
-2.599200 4.052400
-2.586700 4.428200
-2.574100 4.783100
-2.561500 4.963600
-2.548900 4.874000
-2.536300 4.720800
-2.523700 4.610700
-2.511100 4.491800
-2.498500 4.406700
-2.485900 4.328400
-2.473300 4.232600
-2.460800 4.176200
-2.448200 4.141400
-2.435600 4.118700
-2.423000 4.089000
-2.410400 4.114800
-2.397800 3.998200
-2.385200 3.851200
-2.372600 3.704000
-2.360000 3.577000
-2.347500 3.472600
-2.334900 3.386600
-2.322300 3.312300
-2.309700 3.227700
-2.297100 3.139900
-2.284500 3.026100
-2.271900 2.881500
-2.259300 2.710600
-2.246700 2.516500
-2.234200 2.304300
-2.221600 2.086100
-2.209000 1.875100
-2.196400 1.747700
-2.183800 1.704900
-2.171200 1.709400
-2.158600 1.636100
-2.146000 1.482800
-2.133400 1.249200
-2.120800 1.021300
-2.108300 0.808600
-2.095700 0.709100
-2.083100 0.675600
-2.070500 0.643100
-2.057900 0.611100
-2.045300 0.579600
-2.032700 0.548900
-2.020100 0.522300
-2.007500 0.517500
-1.995000 0.532800
-1.982400 0.569100
-1.969800 0.624000
-1.957200 0.695800
-1.944600 0.783100
-1.932000 0.885700
-1.919400 1.003600
-1.906800 1.136700
-1.894200 1.259300
-1.881600 1.340900
-1.869100 1.557900
-1.856500 1.648000
-1.843900 1.730900
-1.831300 1.812500
-1.818700 1.878000
-1.806100 1.928200
-1.793500 1.960200
-1.780900 1.977200
-1.768300 1.957300
-1.755800 1.923400
-1.743200 1.903800
-1.730600 1.897900
-1.718000 1.909100
-1.705400 1.945000
-1.692800 1.987500
-1.680200 2.033600
-1.667600 2.077600
-1.655000 2.108300
-1.642500 2.126100
-1.629900 2.154700
-1.617300 2.193000
-1.604700 2.237700
-1.592100 2.290200
-1.579500 2.351900
-1.566900 2.449200
-1.554300 2.644400
-1.541700 2.810500
-1.529100 2.915100
-1.516600 2.839400
-1.504000 2.843000
-1.491400 2.879100
-1.478800 2.883700
-1.466200 2.849500
-1.453600 2.932400
-1.441000 2.722800
-1.428400 2.544400
-1.415800 2.374400
-1.403300 2.215000
-1.390700 2.061200
-1.378100 1.921600
-1.365500 2.411600
-1.352900 2.551800
-1.340300 2.685200
-1.327700 2.762400
-1.315100 2.699500
-1.302500 2.794200
-1.289900 3.033900
-1.277400 3.363400
-1.264800 3.727700
-1.252200 4.105400
-1.239600 4.296300
-1.227000 4.003400
-1.214400 3.840900
-1.201800 3.818300
-1.189200 3.787500
-1.176600 3.747800
-1.164100 3.785700
-1.151500 3.913400
-1.138900 3.996300
-1.126300 4.070800
-1.113700 4.118800
-1.101100 4.093100
-1.088500 4.049000
-1.075900 4.030200
-1.063300 4.009500
-1.050800 3.973400
-1.038200 3.960700
-1.025600 3.958900
-1.013000 3.938700
-1.000400 3.913500
-0.987800 3.880900
-0.975200 3.856300
-0.962600 3.936600
-0.950000 4.086900
-0.937400 4.156700
-0.924900 4.239300
-0.912300 4.330700
-0.899700 4.241200
-0.887100 4.816400
-0.874500 5.339500
-0.861900 5.395000
-0.849300 5.166200
-0.836700 4.942900
-0.824100 4.819600
-0.811600 4.793600
-0.799000 4.802800
-0.786400 4.808400
-0.773800 4.838200
-0.761200 4.877800
-0.748600 5.262100
-0.736000 6.157600
-0.723400 6.786800
-0.710800 7.083500
-0.698200 7.160800
-0.685700 7.361700
-0.673100 7.167000
-0.660500 6.465500
-0.647900 5.937600
-0.635300 5.617500
-0.622700 5.414300
-0.610100 5.408100
-0.597500 5.500400
-0.584900 5.511200
-0.572400 5.595700
-0.559800 5.779300
-0.547200 5.733600
-0.534600 5.618000
-0.522000 5.531000
-0.509400 5.443100
-0.496800 5.411200
-0.484200 5.338100
-0.471600 5.237800
-0.459000 5.150700
-0.446500 5.083000
-0.433900 5.049500
-0.421300 5.042200
-0.408700 5.042100
-0.396100 5.071600
-0.383500 5.091500
-0.370900 5.110800
-0.358300 5.217500
-0.345700 5.143400
-0.333200 5.062100
-0.320600 5.256400
-0.308000 5.432400
-0.295400 5.402100
-0.282800 4.691800
-0.270200 4.143000
-0.257600 4.030800
-0.245000 4.063200
-0.232400 4.426400
-0.219900 4.788100
-0.207300 5.111400
-0.194700 5.354000
-0.182100 5.575900
-0.169500 5.758500
-0.156900 5.726600
-0.144300 5.332200
-0.131700 5.321900
-0.119100 4.494900
-0.106500 3.978300
-0.094000 3.772100
-0.081400 3.897900
-0.068800 4.122400
-0.056200 4.129900
-0.043600 4.231700
-0.031000 4.275000
-0.018400 4.213100
-0.005800 4.051800
0.006800 4.028300
0.019300 4.067300
0.031900 4.114300
0.044500 4.217800
0.057100 4.465600
0.069700 4.848100
0.082300 5.217100
0.094900 5.444800
0.107500 5.501600
0.120100 5.234600
0.132700 4.982600
0.145200 4.720900
0.157800 4.522800
0.170400 4.514800
0.183000 4.546100
0.195600 4.592100
0.208200 4.645400
0.220800 4.705000
0.233400 4.818600
0.246000 4.996700
0.258500 5.203700
0.271100 6.379500
0.283700 6.876900
0.296300 6.853500
0.308900 6.006700
0.321500 5.731100
0.334100 5.636600
0.346700 5.703100
0.359300 5.848900
0.371800 6.069300
0.384400 6.365900
0.397000 6.631400
0.409600 7.386200
0.422200 8.635500
0.434800 10.589400
0.447400 10.387700
0.460000 10.030300
0.472600 9.754800
0.485200 9.477300
0.497700 9.190000
0.510300 7.474200
0.522900 6.066400
0.535500 5.540900
0.548100 5.152000
0.560700 4.801900
0.573300 4.494300
0.585900 4.244000
0.598500 4.075700
0.611000 3.930900
0.623600 3.811000
0.636200 3.698800
0.648800 3.594100
0.661400 3.528300
0.674000 3.460100
0.686600 3.407000
0.699200 3.369200
0.711800 3.283100
0.724400 3.216600
0.736900 3.136900
0.749500 3.033200
0.762100 2.930600
0.774700 2.841800
0.787300 2.765600
0.799900 2.757800
0.812500 2.655000
0.825100 2.370000
0.837700 2.133800
0.850200 2.065800
0.862800 1.942300
0.875400 2.043100
0.888000 2.409800
0.900600 1.852400
0.913200 0.962000
0.925800 0.336700
0.938400 0.027700
0.951000 0.000000
0.963500 0.000000
0.976100 0.000000
0.988700 0.000000
1.001300 0.000000
1.013900 0.000000
1.026500 0.000000
1.039100 0.000000
1.051700 0.000000
1.064300 0.000000
1.076900 0.000000
1.089400 0.000000
1.102000 0.000000
1.114600 0.000000
1.127200 0.000000
1.139800 0.000000
1.152400 0.000000
1.165000 0.000000
1.177600 0.000000
1.190200 0.000000
1.202700 0.000000
1.215300 0.000000
1.227900 0.000000
1.240500 0.000000
1.253100 0.000000
1.265700 0.000000
1.278300 0.000000
1.290900 0.000000
1.303500 0.000000
1.316100 0.000000
1.328600 0.000000
1.341200 0.000000
1.353800 0.000000
1.366400 0.000000
1.379000 0.000000
1.391600 0.000000
1.404200 0.000000
1.416800 0.000000
1.429400 0.000000
1.441900 0.000000
1.454500 0.000000
1.467100 0.000000
1.479700 0.000000
1.492300 0.000000
1.504900 0.000000
1.517500 0.000000
1.530100 0.000000
1.542700 0.000000
1.555200 0.000000
1.567800 0.000000
1.580400 0.000000
1.593000 0.000000
1.605600 0.000000
1.618200 0.000000
1.630800 0.000000
1.643400 0.000000
1.656000 0.000000
1.668600 0.000000
1.681100 0.000000
1.693700 0.000000
1.706300 0.000000
1.718900 0.000000
1.731500 0.000000
1.744100 0.000000
1.756700 0.000000
1.769300 0.000000
1.781900 0.000000
1.794400 0.000000
1.807000 0.000000
1.819600 0.000000
1.832200 0.000000
1.844800 0.000000
1.857400 0.000000
1.870000 0.000000
1.882600 0.000000
1.895200 0.000000
1.907800 0.000000
1.920300 0.000000
1.932900 0.000000
1.945500 0.000000
1.958100 0.000000
1.970700 0.000000
1.983300 0.000000
1.995900 0.002900
2.008500 0.015600
2.021100 0.038200
2.033600 0.070900
2.046200 0.096700
2.058800 0.111100
2.071400 0.125900
2.084000 0.141100
2.096600 0.156700
2.109200 0.170500
2.121800 0.179900
2.134400 0.184700
2.146900 0.184900
2.159500 0.184100
2.172100 0.193700
2.184700 0.203500
2.197300 0.213500
2.209900 0.223000
2.222500 0.231500
2.235100 0.239300
2.247700 0.246100
2.260300 0.252100
2.272800 0.257300
2.285400 0.261700
2.298000 0.265800
2.310600 0.270100
2.323200 0.275200
2.335800 0.281200
2.348400 0.288200
2.361000 0.296300
2.373600 0.305200
2.386100 0.314700
2.398700 0.324500
2.411300 0.334400
2.423900 0.344000
2.436500 0.353200
2.449100 0.362000
2.461700 0.370600
2.474300 0.380300
2.486900 0.390300
2.499500 0.400400
2.512000 0.410800
2.524600 0.421200
2.537200 0.431200
2.549800 0.439600
2.562400 0.448700
2.575000 0.458400
2.587600 0.472400
2.600200 0.492400
2.612800 0.514600
2.625300 0.547800
2.637900 0.592000
2.650500 0.686200
2.663100 0.881400
2.675700 1.158000
2.688300 1.419800
2.700900 1.693900
2.713500 2.362000
2.726100 3.025500
2.738600 3.357500
2.751200 3.477400
2.763800 3.451000
2.776400 3.385000
2.789000 3.338900
2.801600 3.295400
2.814200 3.255000
2.826800 3.236000
2.839400 3.247100
2.852000 3.277000
2.864500 3.309400
2.877100 3.347100
2.889700 3.377600
2.902300 3.413900
2.914900 3.452500
2.927500 3.487200
2.940100 3.537000
2.952700 3.613800
2.965300 3.699400
2.977800 3.775100
2.990400 3.866600
3.003000 4.061300
3.015600 4.153100
3.028200 4.207400
3.040800 4.280000
3.053400 4.367300
3.066000 4.480500
3.078600 4.818000
3.091200 5.381100
3.103700 4.623200
3.116300 4.240800
3.128900 3.894300
3.141500 3.523300
3.154100 3.221000
3.166700 3.006200
3.179300 2.802600
3.191900 2.694700
3.204500 2.652000
3.217000 2.752800
3.229600 3.037100
3.242200 3.485000
3.254800 4.266600
3.267400 4.894900
3.280000 5.103200
3.292600 5.307700
3.305200 5.464400
3.317800 5.477400
3.330400 5.506500
3.342900 5.506000
3.355500 5.539800
3.368100 5.553000
3.380700 5.604800
3.393300 5.623700
3.405900 5.498700
3.418500 5.322100
3.431100 5.215800
3.443700 5.085300
3.456200 5.048000
3.468800 4.949600
3.481400 4.756100
3.494000 4.781900
3.506600 4.653200
3.519200 4.240100
3.531800 3.914800
3.544400 3.472300
3.557000 3.056600
3.569500 2.638300
3.582100 2.240400
3.594700 1.879500
3.607300 1.620600
3.619900 1.397000
3.632500 1.234600
3.645100 1.158400
3.657700 1.163700
3.670300 1.180100
3.682900 1.138900
3.695400 1.193100
3.708000 1.243600
3.720600 1.328300
3.733200 1.453800
3.745800 1.619400
3.758400 1.828200
3.771000 2.393400
3.783600 2.984600
3.796200 3.650600
3.808700 4.171000
3.821300 4.787500
3.833900 5.706700
3.846500 6.521500
3.859100 7.142000
3.871700 7.596200
3.884300 8.179700
3.896900 8.511300
3.909500 7.833900
3.922100 6.900000
3.934600 6.342800
3.947200 5.916300
3.959800 5.463000
3.972400 5.352000
3.985000 5.239000
3.997600 5.172200
4.010200 5.166300
4.022800 5.131600
4.035400 5.201000
4.047900 4.900000
4.060500 4.219100
4.073100 3.335000
4.085700 2.602000
4.098300 2.198200
4.110900 1.814600
4.123500 1.487500
4.136100 1.366500
4.148700 1.425900
4.161200 1.529300
4.173800 1.700500
4.186400 1.774700
4.199000 1.796600
4.211600 1.809800
4.224200 1.987900
4.236800 1.959500
4.249400 1.839500
4.262000 1.765800
4.274600 1.732200
4.287100 1.793200
4.299700 1.776900
4.312300 1.735500
4.324900 1.632900
4.337500 1.461100
4.350100 1.331700
4.362700 1.252800
4.375300 1.285500
4.387900 1.335700
4.400400 1.395600
4.413000 1.468700
4.425600 1.559700
4.438200 1.667700
4.450800 1.764800
4.463400 1.827100
4.476000 1.888800
4.488600 1.951100
4.501200 2.016000
4.513800 2.083100
4.526300 2.154000
4.538900 2.228600
4.551500 2.306000
4.564100 2.400500
4.576700 2.430800
4.589300 2.468800
4.601900 2.492300
4.614500 2.506400
4.627100 2.515700
4.639600 2.517900
4.652200 2.483000
4.664800 2.423800
4.677400 2.365700
4.690000 2.308900
4.702600 2.290800
4.715200 2.281000
4.727800 2.278000
4.740400 2.278700
4.752900 2.282800
4.765500 2.290000
4.778100 2.280800
4.790700 2.230300
4.803300 2.133800
4.815900 2.031900
4.828500 1.982700
4.841100 1.934600
4.853700 1.890700
4.866300 1.852000
4.878800 1.814400
4.891400 1.790400
4.904000 1.805600
4.916600 1.853100
4.929200 1.883600
4.941800 1.897700
4.954400 1.896700
4.967000 1.882100
4.979600 1.861200
4.992100 1.835200
5.004700 1.803500
5.017300 1.751200
5.029900 1.701900
5.042500 1.568000
5.055100 1.432100
5.067700 1.355300
5.080300 1.334900
5.092900 1.329700
5.105500 1.322100
5.118000 1.316700
5.130600 1.340900
5.143200 1.329500
5.155800 1.372500
5.168400 1.328900
5.181000 1.226200
5.193600 1.137700
5.206200 1.096700
5.218800 1.091100
5.231300 1.086700
5.243900 1.081500
5.256500 1.081000
5.269100 1.093800
5.281700 1.084100
5.294300 1.106700
5.306900 1.128300
5.319500 1.148800
5.332100 1.169100
5.344600 1.189400
5.357200 1.233600
5.369800 1.289200
5.382400 1.336300
5.395000 1.365600
5.407600 1.397100
5.420200 1.377200
5.432800 1.375800
5.445400 1.376100
5.458000 1.381300
5.470500 1.387000
5.483100 1.390100
5.495700 1.382700
5.508300 1.404700
5.520900 1.426500
5.533500 1.452200
5.546100 1.538500
5.558700 1.707900
5.571300 2.067900
5.583800 2.555700
5.596400 2.993600
5.609000 3.374800
5.621600 3.711300
5.634200 4.001700
5.646800 4.342500
5.659400 4.332900
5.672000 4.541700
5.684600 4.969500
5.697200 5.548100
5.709700 5.961400
5.722300 6.493200
5.734900 6.795200
5.747500 7.281000
5.760100 7.264200
5.772700 7.078600
5.785300 7.389400
5.797900 6.890800
5.810500 6.124300
5.823000 5.625200
5.835600 5.167900
5.848200 4.483100
5.860800 3.822900
5.873400 3.408600
5.886000 3.039000
5.898600 2.735300
5.911200 2.668700
5.923800 2.868100
5.936300 2.984700
5.948900 3.140500
5.961500 3.245800
5.974100 3.248100
5.986700 3.294300
5.999300 3.436000
6.011900 3.647100
6.024500 3.868300
6.037100 4.157000
6.049700 4.910900
6.062200 4.191200
6.074800 4.082800
6.087400 4.098300
6.100000 4.076800
6.112600 4.068000
6.125200 4.014300
6.137800 3.876400
6.150400 3.779300
6.163000 3.772000
6.175500 3.789300
6.188100 3.910500
6.200700 4.013100
6.213300 4.125800
6.225900 4.316400
6.238500 4.507300
6.251100 4.338600
6.263700 3.950100
6.276300 3.661500
6.288900 3.416000
6.301400 3.269400
6.314000 3.186500
6.326600 3.135900
6.339200 3.091800
6.351800 3.048200
6.364400 3.019000
6.377000 3.022100
6.389600 3.069900
6.402200 3.180700
6.414700 3.333500
6.427300 3.528700
6.439900 3.788200
6.452500 4.136600
6.465100 4.519100
6.477700 5.095100
6.490300 6.052400
6.502900 6.141100
6.515500 6.196700
6.528100 6.069200
6.540600 5.889700
6.553200 5.739500
6.565800 5.580700
6.578400 5.451300
6.591000 5.139600
6.603600 4.614400
6.616200 4.107200
6.628800 3.646300
6.641400 3.303800
6.653900 3.043100
6.666500 2.893800
6.679100 2.825400
6.691700 2.832300
6.704300 2.909700
6.716900 2.985200
6.729500 3.083800
6.742100 3.057200
6.754700 3.064200
6.767200 3.092700
6.779800 3.156400
6.792400 3.449500
6.805000 3.232300
6.817600 2.930000
6.830200 3.188600
6.842800 3.388500
6.855400 3.666800
6.868000 4.215400
6.880600 4.734200
6.893100 5.242100
6.905700 6.380700
6.918300 5.770900
6.930900 4.484100
6.943500 4.294000
6.956100 4.175200
6.968700 4.103500
6.981300 4.058500
6.993900 4.033600
7.006400 3.942400
7.019000 3.887100
7.031600 3.727700
7.044200 3.719400
7.056800 3.748200
7.069400 4.014700
7.082000 4.076500
7.094600 4.195900
7.107200 4.310100
7.119800 4.447700
7.132300 4.613800
7.144900 4.800900
7.157500 5.051800
7.170100 5.271300
7.182700 5.431200
7.195300 5.742100
7.207900 6.766300
7.220500 6.497500
7.233100 6.410600
7.245600 6.286300
7.258200 6.008100
7.270800 5.387000
7.283400 5.517800
7.296000 5.597700
7.308600 5.637800
7.321200 5.556800
7.333800 5.470500
7.346400 5.259700
7.358900 4.994000
7.371500 5.041000
7.384100 5.672000
7.396700 6.151600
7.409300 6.645700
7.421900 7.161000
7.434500 7.593400
7.447100 7.648200
7.459700 7.478800
7.472300 7.263600
7.484800 6.746800
7.497400 6.341400
7.510000 5.936200
7.522600 5.474000
7.535200 4.798900
7.547800 4.431500
7.560400 4.244300
7.573000 4.007900
7.585600 3.677500
7.598100 3.381600
7.610700 3.131100
7.623300 2.981700
7.635900 2.871900
7.648500 2.841200
7.661100 2.696500
7.673700 2.359000
7.686300 2.228100
7.698900 2.133100
7.711500 2.071600
7.724000 2.013800
7.736600 1.933000
7.749200 1.828800
7.761800 1.701200
7.774400 1.549900
7.787000 1.349700
7.799600 1.112700
7.812200 0.916300
7.824800 0.778400
7.837300 0.568900
7.849900 0.106900
7.862500 0.003700
7.875100 0.000000
7.887700 0.000000
7.900300 0.000000
7.912900 0.000000
7.925500 0.000000
7.938100 0.000000
7.950600 0.000000
7.963200 0.000000
7.975800 0.000000
7.988400 0.000000
8.001000 0.000000
8.013600 0.000000
8.026200 0.000000
8.038800 0.000000
8.051400 0.000000
8.064000 0.000000
8.076500 0.000000
8.089100 0.000000
8.101700 0.000000
8.114300 0.000000
8.126900 0.000000
8.139500 0.000000
8.152100 0.000000
8.164700 0.000000
8.177300 0.000900
8.189800 0.013500
8.202400 0.041400
8.215000 0.084500
8.227600 0.142700
8.240200 0.232300
8.252800 0.383000
8.265400 0.580900
8.278000 0.821100
8.290600 0.967200
8.303200 1.000900
8.315700 1.068400
8.328300 1.134300
8.340900 1.198800
8.353500 1.261900
8.366100 1.326200
8.378700 1.392400
8.391300 1.466600
8.403900 1.551400
8.416500 1.617200
8.429000 1.699500
8.441600 1.792800
8.454200 1.919900
8.466800 2.367500
8.479400 2.716800
8.492000 3.022800
8.504600 3.132600
8.517200 3.359400
8.529800 3.592600
8.542300 3.828600
8.554900 4.079200
8.567500 4.349600
8.580100 4.344300
8.592700 4.382200
8.605300 4.526000
8.617900 4.641700
8.630500 4.854400
8.643100 5.116200
8.655700 5.165100
8.668200 4.977800
8.680800 4.683900
8.693400 4.521500
8.706000 4.446000
8.718600 4.411900
8.731200 4.348300
8.743800 4.268100
8.756400 4.386100
8.769000 3.709200
8.781500 3.485300
8.794100 3.288300
8.806700 3.111000
8.819300 2.996400
8.831900 2.911600
8.844500 2.849800
8.857100 2.810000
8.869700 2.759300
8.882300 2.700400
8.894900 2.619900
8.907400 2.473100
8.920000 2.370600
8.932600 2.317900
8.945200 2.284600
8.957800 2.281000
8.970400 2.315900
8.983000 2.404600
8.995600 2.594600
9.008200 2.709500
9.020700 3.059600
9.033300 3.557800
9.045900 4.096300
9.058500 4.755900
9.071100 4.460500
9.083700 4.346000
9.096300 4.472100
9.108900 4.332000
9.121500 4.546300
9.134000 5.263100
9.146600 5.816500
9.159200 5.786500
9.171800 5.735000
9.184400 5.792700
9.197000 5.756800
9.209600 5.362800
9.222200 5.204800
9.234800 4.981700
9.247400 4.699400
9.259900 4.448300
9.272500 4.149700
9.285100 3.978400
9.297700 3.929100
9.310300 3.933400
9.322900 3.892500
9.335500 3.817900
9.348100 3.621200
9.360700 3.433200
9.373200 3.337000
9.385800 3.214000
9.398400 3.050900
9.411000 2.907200
9.423600 2.790500
9.436200 3.011900
9.448800 2.928900
9.461400 2.831300
9.474000 2.688200
9.486600 2.627500
9.499100 2.569600
9.511700 2.518500
9.524300 2.657200
9.536900 2.902600
9.549500 3.046600
9.562100 3.142400
9.574700 3.166300
9.587300 3.041600
9.599900 2.925000
9.612400 2.826900
9.625000 2.728900
9.637600 2.723300
9.650200 2.585900
9.662800 2.402500
9.675400 2.340800
9.688000 2.340900
9.700600 2.350400
9.713200 2.369500
9.725800 2.401200
9.738300 2.452700
9.750900 2.525600
9.763500 2.599600
9.776100 2.658500
9.788700 2.735400
9.801300 2.911300
9.813900 3.150800
9.826500 3.305700
9.839100 3.291000
9.851600 3.282100
9.864200 3.276100
9.876800 3.255900
9.889400 3.237300
9.902000 3.219200
9.914600 3.177700
9.927200 3.100800
9.939800 2.996000
9.952400 2.962400
9.964900 2.950300
9.977500 2.949900
9.990100 2.965800
10.002700 2.885400
10.015300 2.847900
10.027900 2.823000
10.040500 2.805400
10.053100 2.861200
10.065700 2.952200
10.078300 2.958000
10.090800 2.968600
10.103400 2.973900
10.116000 2.943100
10.128600 2.919700
10.141200 2.930400
10.153800 2.942900
10.166400 2.963900
10.179000 2.999200
10.191600 3.066100
10.204100 3.177300
10.216700 3.294800
10.229300 3.320300
10.241900 3.397900
10.254500 3.528200
10.267100 3.733600
10.279700 3.997100
10.292300 4.221600
10.304900 4.389800
10.317500 4.425700
10.330000 4.297800
10.342600 3.927100
10.355200 3.584500
10.367800 3.219800
10.380400 2.466300
10.393000 2.109000
10.405600 1.979400
10.418200 1.882500
10.430800 1.806500
10.443300 1.753700
10.455900 1.715000
10.468500 1.693100
10.481100 1.688100
10.493700 1.696800
10.506300 1.678600
10.518900 1.649700
10.531500 1.878200
10.544100 2.226700
10.556600 2.465200
10.569200 2.693300
10.581800 2.922000
10.594400 3.161600
10.607000 3.318400
10.619600 3.437800
10.632200 3.439400
10.644800 3.173600
10.657400 3.060300
10.670000 3.081300
10.682500 3.070900
10.695100 3.012900
10.707700 2.911900
10.720300 2.659000
10.732900 2.376500
10.745500 2.112000
10.758100 1.847200
10.770700 1.748300
10.783300 1.691100
10.795800 1.624000
10.808400 1.546200
10.821000 1.457500
10.833600 1.352600
10.846200 1.224800
10.858800 1.073400
10.871400 0.793600
10.884000 0.559000
10.896600 0.388700
10.909200 0.313000
10.921700 0.247900
10.934300 0.190400
10.946900 0.140500
10.959500 0.098200
10.972100 0.063400
10.984700 0.036200
10.997300 0.016600
11.009900 0.004500
11.022500 0.000000
11.035000 0.000000
11.047600 0.000000
11.060200 0.000000
11.072800 0.000000
11.085400 0.000000
11.098000 0.000000
11.110600 0.000000
11.123200 0.000000
11.135800 0.000000
11.148300 0.000000
11.160900 0.000000
11.173500 0.000000
11.186100 0.000000
11.198700 0.000000
11.211300 0.000000
11.223900 0.000000
11.236500 0.000000
11.249100 0.000000
11.261700 0.000000
11.274200 0.000000
11.286800 0.000000
11.299400 0.000000
11.312000 0.000000
11.324600 0.000000
11.337200 0.000000
11.349800 0.000000
11.362400 0.000000
11.375000 0.000000
11.387500 0.000000
11.400100 0.000000
11.412700 0.000000
11.425300 0.000000
11.437900 0.000000
11.450500 0.000000
11.463100 0.000000
11.475700 0.000000
11.488300 0.000000
11.500900 0.000000
11.513400 0.000000
11.526000 0.000000
11.538600 0.000000
11.551200 0.000000
11.563800 0.000000
11.576400 0.000000
11.589000 0.000000
11.601600 0.000000
11.614200 0.000000
11.626700 0.000000
11.639300 0.000000
11.651900 0.000000
11.664500 0.000000
11.677100 0.000000
11.689700 0.000000
11.702300 0.000000
11.714900 0.000000
11.727500 0.000000
11.740000 0.000000
11.752600 0.000000
11.765200 0.000000
11.777800 0.000000
11.790400 0.000000
11.803000 0.000000
11.815600 0.000000
11.828200 0.000000
11.840800 0.000000
11.853400 0.000000
11.865900 0.000000
11.878500 0.000000
11.891100 0.000000
11.903700 0.000000
11.916300 0.000000
11.928900 0.000000
11.941500 0.000000
11.954100 0.000000
11.966700 0.000000
11.979200 0.000000
11.991800 0.000000
12.004400 0.000000
12.017000 0.000000
12.029600 0.000000
12.042200 0.000000
12.054800 0.000000
12.067400 0.000000
12.080000 0.000000
12.092600 0.000000
12.105100 0.000000
12.117700 0.000000
12.130300 0.000000
12.142900 0.000000
12.155500 0.000000
12.168100 0.000000
e
