set title 'mp-568722 - Density of States'
set xlabel 'Energy (eV)'
set ylabel 'DOS (states/eV)'
set grid
set xrange [-10:10]
set yrange [0:227.396]
set xzeroaxis lt -1
set terminal png size 800,600
set output 'mp-568722_dos_gnuplot.png'
plot '-' using 1:2 with lines title 'DOS'
-16.177400 0.000000
-16.159100 0.000000
-16.140700 0.000000
-16.122400 0.000000
-16.104100 0.000000
-16.085800 0.000000
-16.067500 0.000000
-16.049200 0.000000
-16.030900 0.000000
-16.012500 0.000000
-15.994200 0.000000
-15.975900 0.000000
-15.957600 0.000000
-15.939300 0.000000
-15.921000 0.000000
-15.902700 0.000000
-15.884300 0.000000
-15.866000 0.000000
-15.847700 0.000000
-15.829400 0.000000
-15.811100 0.000000
-15.792800 0.000000
-15.774400 0.000000
-15.756100 0.000000
-15.737800 0.000000
-15.719500 0.000000
-15.701200 0.000000
-15.682900 0.000000
-15.664600 0.000000
-15.646200 0.000000
-15.627900 0.000000
-15.609600 0.000000
-15.591300 0.000000
-15.573000 0.000000
-15.554700 0.000000
-15.536400 0.000000
-15.518000 0.000000
-15.499700 0.000000
-15.481400 0.000000
-15.463100 0.000000
-15.444800 0.000000
-15.426500 0.000000
-15.408200 0.000000
-15.389800 0.000000
-15.371500 0.000000
-15.353200 0.000000
-15.334900 0.000000
-15.316600 0.000000
-15.298300 0.000000
-15.279900 0.000000
-15.261600 0.000000
-15.243300 0.000000
-15.225000 0.000000
-15.206700 0.000000
-15.188400 0.000000
-15.170100 0.000000
-15.151700 0.000000
-15.133400 0.000000
-15.115100 0.000000
-15.096800 0.000000
-15.078500 0.000000
-15.060200 0.000000
-15.041900 0.000000
-15.023500 0.000000
-15.005200 0.000000
-14.986900 0.000000
-14.968600 0.000000
-14.950300 0.000000
-14.932000 0.000000
-14.913700 0.000000
-14.895300 0.000000
-14.877000 0.000000
-14.858700 0.000000
-14.840400 0.000000
-14.822100 0.000000
-14.803800 0.000000
-14.785400 0.000000
-14.767100 0.000000
-14.748800 0.000000
-14.730500 0.000000
-14.712200 0.000000
-14.693900 0.000000
-14.675600 0.000000
-14.657200 0.000000
-14.638900 0.000000
-14.620600 0.000000
-14.602300 0.000000
-14.584000 0.000000
-14.565700 0.000000
-14.547400 0.000000
-14.529000 0.000000
-14.510700 0.004100
-14.492400 0.394800
-14.474100 0.947400
-14.455800 1.616800
-14.437500 2.693500
-14.419200 3.834900
-14.400800 4.976700
-14.382500 5.764000
-14.364200 5.801100
-14.345900 6.538400
-14.327600 5.968400
-14.309300 6.279200
-14.290900 6.590000
-14.272600 6.900900
-14.254300 7.211700
-14.236000 7.522700
-14.217700 7.833600
-14.199400 8.247100
-14.181100 9.787000
-14.162700 11.601700
-14.144400 20.524900
-14.126100 20.831200
-14.107800 31.481400
-14.089500 34.317500
-14.071200 35.608300
-14.052900 56.610500
-14.034500 55.230600
-14.016200 5.926600
-13.997900 0.000000
-13.979600 0.000000
-13.961300 0.000000
-13.943000 0.000000
-13.924600 0.000000
-13.906300 0.000000
-13.888000 0.000000
-13.869700 0.000000
-13.851400 0.000000
-13.833100 0.000000
-13.814800 0.000000
-13.796400 0.000000
-13.778100 0.000000
-13.759800 0.000000
-13.741500 0.000000
-13.723200 0.000000
-13.704900 0.000000
-13.686600 0.000000
-13.668200 0.000000
-13.649900 0.000000
-13.631600 0.000000
-13.613300 0.000000
-13.595000 0.000000
-13.576700 0.000000
-13.558400 0.000000
-13.540000 0.000000
-13.521700 0.000000
-13.503400 0.000000
-13.485100 0.000000
-13.466800 0.000000
-13.448500 0.000000
-13.430100 0.000000
-13.411800 0.000000
-13.393500 0.000000
-13.375200 0.000000
-13.356900 0.000000
-13.338600 0.000000
-13.320300 0.000000
-13.301900 0.000000
-13.283600 0.000000
-13.265300 0.000000
-13.247000 0.000000
-13.228700 0.000000
-13.210400 0.000000
-13.192100 0.000000
-13.173700 0.000000
-13.155400 0.000000
-13.137100 0.000000
-13.118800 0.000000
-13.100500 0.000000
-13.082200 0.000000
-13.063900 0.000000
-13.045500 0.000000
-13.027200 0.000000
-13.008900 0.000000
-12.990600 0.000000
-12.972300 0.000000
-12.954000 0.000000
-12.935600 0.000000
-12.917300 0.000000
-12.899000 0.000000
-12.880700 0.000000
-12.862400 0.000000
-12.844100 0.000000
-12.825800 0.000000
-12.807400 0.000000
-12.789100 0.000000
-12.770800 0.000000
-12.752500 0.000000
-12.734200 0.000000
-12.715900 0.000000
-12.697600 0.000000
-12.679200 0.000000
-12.660900 0.000000
-12.642600 0.000000
-12.624300 0.000000
-12.606000 0.000000
-12.587700 0.000000
-12.569400 0.000000
-12.551000 0.000000
-12.532700 0.000000
-12.514400 0.000000
-12.496100 0.000000
-12.477800 0.000000
-12.459500 0.000000
-12.441100 0.000000
-12.422800 0.000000
-12.404500 0.000000
-12.386200 0.000000
-12.367900 0.000000
-12.349600 0.000000
-12.331300 0.000000
-12.312900 0.000000
-12.294600 0.000000
-12.276300 0.000000
-12.258000 0.000000
-12.239700 0.000000
-12.221400 0.000000
-12.203100 0.000000
-12.184700 0.000000
-12.166400 0.000000
-12.148100 0.000000
-12.129800 0.000000
-12.111500 0.000000
-12.093200 0.000000
-12.074800 0.000000
-12.056500 0.000000
-12.038200 0.000000
-12.019900 0.000000
-12.001600 0.000000
-11.983300 0.000000
-11.965000 0.000000
-11.946600 0.000000
-11.928300 0.000000
-11.910000 0.000000
-11.891700 0.000000
-11.873400 0.000000
-11.855100 0.000000
-11.836800 0.000000
-11.818400 0.000000
-11.800100 0.000000
-11.781800 0.000000
-11.763500 0.000000
-11.745200 0.000000
-11.726900 0.000000
-11.708600 0.000000
-11.690200 0.000000
-11.671900 0.000000
-11.653600 0.000000
-11.635300 0.000000
-11.617000 0.000000
-11.598700 0.000000
-11.580300 0.000000
-11.562000 0.000000
-11.543700 0.000000
-11.525400 0.000000
-11.507100 0.000000
-11.488800 0.000000
-11.470500 0.000000
-11.452100 0.000000
-11.433800 0.000000
-11.415500 0.000000
-11.397200 0.000000
-11.378900 0.000000
-11.360600 0.000000
-11.342300 0.000000
-11.323900 0.000000
-11.305600 0.000000
-11.287300 0.000000
-11.269000 0.000000
-11.250700 0.000000
-11.232400 0.000000
-11.214100 0.000000
-11.195700 0.000000
-11.177400 0.000000
-11.159100 0.000000
-11.140800 0.000000
-11.122500 0.000000
-11.104200 0.000000
-11.085800 0.000000
-11.067500 0.000000
-11.049200 0.000000
-11.030900 0.000000
-11.012600 0.000000
-10.994300 0.000000
-10.976000 0.000000
-10.957600 0.000000
-10.939300 0.000000
-10.921000 0.000000
-10.902700 0.000000
-10.884400 0.000000
-10.866100 0.000000
-10.847800 0.000000
-10.829400 0.000000
-10.811100 0.000000
-10.792800 0.000000
-10.774500 0.000000
-10.756200 0.000000
-10.737900 0.000000
-10.719600 0.000000
-10.701200 0.000000
-10.682900 0.000000
-10.664600 0.000000
-10.646300 0.000000
-10.628000 0.000000
-10.609700 0.000000
-10.591300 0.000000
-10.573000 0.000000
-10.554700 0.000000
-10.536400 0.000000
-10.518100 0.000000
-10.499800 0.000000
-10.481500 0.000000
-10.463100 0.000000
-10.444800 0.000000
-10.426500 0.000000
-10.408200 0.000000
-10.389900 0.000000
-10.371600 0.000000
-10.353300 0.000000
-10.334900 0.000000
-10.316600 0.000000
-10.298300 0.000000
-10.280000 0.000000
-10.261700 0.000000
-10.243400 0.000000
-10.225000 0.000000
-10.206700 0.000000
-10.188400 0.000000
-10.170100 0.000000
-10.151800 0.000000
-10.133500 0.000000
-10.115200 0.000000
-10.096800 0.000000
-10.078500 0.000000
-10.060200 0.000000
-10.041900 0.000000
-10.023600 0.000000
-10.005300 0.000000
-9.987000 0.000000
-9.968600 0.000000
-9.950300 0.000000
-9.932000 0.000000
-9.913700 0.000000
-9.895400 0.000000
-9.877100 0.000000
-9.858800 0.000000
-9.840400 0.000000
-9.822100 0.000000
-9.803800 0.000000
-9.785500 0.000000
-9.767200 0.000000
-9.748900 0.000000
-9.730500 0.000000
-9.712200 0.000000
-9.693900 0.000000
-9.675600 0.000000
-9.657300 0.000000
-9.639000 0.000000
-9.620700 0.000000
-9.602300 0.000000
-9.584000 0.000000
-9.565700 0.000000
-9.547400 0.000000
-9.529100 0.000000
-9.510800 0.000000
-9.492500 0.000000
-9.474100 0.000000
-9.455800 0.000000
-9.437500 0.000000
-9.419200 0.000000
-9.400900 0.000000
-9.382600 0.000000
-9.364300 0.000000
-9.345900 0.000000
-9.327600 0.000000
-9.309300 0.000000
-9.291000 0.000000
-9.272700 0.000000
-9.254400 0.000000
-9.236000 0.000000
-9.217700 0.000000
-9.199400 0.000000
-9.181100 0.000000
-9.162800 0.000000
-9.144500 0.000000
-9.126200 0.000000
-9.107800 0.000000
-9.089500 0.000000
-9.071200 0.000000
-9.052900 0.000000
-9.034600 0.000000
-9.016300 0.000000
-8.998000 0.000000
-8.979600 0.000000
-8.961300 0.000000
-8.943000 0.000000
-8.924700 0.000000
-8.906400 0.000000
-8.888100 0.000000
-8.869800 0.000000
-8.851400 0.000000
-8.833100 0.000000
-8.814800 0.000000
-8.796500 0.000000
-8.778200 0.000000
-8.759900 0.000000
-8.741500 0.000000
-8.723200 0.000000
-8.704900 0.000000
-8.686600 0.000000
-8.668300 0.000000
-8.650000 0.000000
-8.631700 0.000000
-8.613300 0.000000
-8.595000 0.000000
-8.576700 0.000000
-8.558400 0.000000
-8.540100 0.000000
-8.521800 0.000000
-8.503500 0.000000
-8.485100 0.000000
-8.466800 0.000000
-8.448500 0.000000
-8.430200 0.000000
-8.411900 0.000000
-8.393600 0.000000
-8.375200 0.000000
-8.356900 0.000000
-8.338600 0.000000
-8.320300 0.000000
-8.302000 0.000000
-8.283700 0.000000
-8.265400 0.000000
-8.247000 0.000000
-8.228700 0.000000
-8.210400 0.000000
-8.192100 0.000000
-8.173800 0.000000
-8.155500 0.000000
-8.137200 0.000000
-8.118800 0.000000
-8.100500 0.000000
-8.082200 0.000000
-8.063900 0.000000
-8.045600 0.000000
-8.027300 0.000000
-8.009000 0.000000
-7.990600 0.000000
-7.972300 0.000000
-7.954000 0.000000
-7.935700 1.482200
-7.917400 10.056100
-7.899100 23.529000
-7.880700 56.835400
-7.862400 53.740100
-7.844100 65.674900
-7.825800 38.399400
-7.807500 46.201700
-7.789200 33.908100
-7.770900 49.789400
-7.752500 31.043300
-7.734200 63.496600
-7.715900 24.868700
-7.697600 73.780100
-7.679300 44.474800
-7.661000 206.723200
-7.642700 88.045600
-7.624300 77.774400
-7.606000 51.208600
-7.587700 79.902800
-7.569400 0.000000
-7.551100 0.000000
-7.532800 0.000000
-7.514500 0.000000
-7.496100 0.000000
-7.477800 0.000000
-7.459500 0.000000
-7.441200 0.000000
-7.422900 0.000000
-7.404600 0.000000
-7.386200 0.000000
-7.367900 0.000000
-7.349600 0.000000
-7.331300 0.000000
-7.313000 0.000000
-7.294700 0.000000
-7.276400 0.000000
-7.258000 0.000000
-7.239700 0.000000
-7.221400 0.000000
-7.203100 0.000000
-7.184800 0.000000
-7.166500 0.000000
-7.148200 0.000000
-7.129800 0.000000
-7.111500 0.000000
-7.093200 0.000000
-7.074900 0.000000
-7.056600 0.000000
-7.038300 0.000000
-7.020000 0.000000
-7.001600 0.000000
-6.983300 0.000000
-6.965000 0.000000
-6.946700 0.000000
-6.928400 0.000000
-6.910100 0.000000
-6.891700 0.000000
-6.873400 0.000000
-6.855100 0.000000
-6.836800 0.000000
-6.818500 0.000000
-6.800200 0.000000
-6.781900 0.000000
-6.763500 0.000000
-6.745200 0.000000
-6.726900 0.000000
-6.708600 0.000000
-6.690300 0.000000
-6.672000 0.000000
-6.653700 0.000000
-6.635300 0.000000
-6.617000 0.000000
-6.598700 0.000000
-6.580400 0.000000
-6.562100 0.000000
-6.543800 0.000000
-6.525400 0.000000
-6.507100 0.000000
-6.488800 0.000000
-6.470500 0.000000
-6.452200 0.000000
-6.433900 0.000000
-6.415600 0.000000
-6.397200 0.000000
-6.378900 0.000000
-6.360600 0.000000
-6.342300 0.000000
-6.324000 0.000000
-6.305700 0.000000
-6.287400 0.000000
-6.269000 0.000000
-6.250700 0.000000
-6.232400 0.000000
-6.214100 0.000000
-6.195800 0.000000
-6.177500 0.000000
-6.159200 0.000000
-6.140800 0.000000
-6.122500 0.000000
-6.104200 0.000000
-6.085900 0.000000
-6.067600 0.000000
-6.049300 0.000000
-6.030900 0.000000
-6.012600 0.000000
-5.994300 0.000000
-5.976000 0.000000
-5.957700 0.000000
-5.939400 0.000000
-5.921100 0.000000
-5.902700 0.000000
-5.884400 0.000000
-5.866100 0.000000
-5.847800 0.000000
-5.829500 0.000000
-5.811200 0.000000
-5.792900 0.000000
-5.774500 0.000000
-5.756200 0.000000
-5.737900 0.000000
-5.719600 0.000000
-5.701300 0.000000
-5.683000 0.000000
-5.664700 0.000000
-5.646300 0.000000
-5.628000 0.000000
-5.609700 0.000000
-5.591400 0.000000
-5.573100 0.000000
-5.554800 0.000000
-5.536400 0.000000
-5.518100 0.000000
-5.499800 0.000000
-5.481500 0.000000
-5.463200 0.000000
-5.444900 0.000000
-5.426600 0.000000
-5.408200 0.000000
-5.389900 0.000000
-5.371600 0.000000
-5.353300 0.000000
-5.335000 0.000000
-5.316700 0.000000
-5.298400 0.000000
-5.280000 0.000000
-5.261700 0.000000
-5.243400 0.000000
-5.225100 0.000000
-5.206800 0.000000
-5.188500 0.000000
-5.170200 0.000000
-5.151800 0.000000
-5.133500 0.000000
-5.115200 0.000000
-5.096900 0.000000
-5.078600 0.000000
-5.060300 0.000000
-5.041900 0.000000
-5.023600 0.000000
-5.005300 0.000000
-4.987000 0.000000
-4.968700 0.000000
-4.950400 0.000000
-4.932100 0.000000
-4.913700 0.000000
-4.895400 0.000000
-4.877100 0.000000
-4.858800 0.000000
-4.840500 0.000000
-4.822200 0.000000
-4.803900 0.000000
-4.785500 0.000000
-4.767200 0.000000
-4.748900 0.000000
-4.730600 0.000000
-4.712300 0.000000
-4.694000 0.000000
-4.675600 0.000000
-4.657300 0.000000
-4.639000 0.000000
-4.620700 0.000000
-4.602400 0.000000
-4.584100 0.000000
-4.565800 0.000000
-4.547400 0.000000
-4.529100 0.000000
-4.510800 0.000000
-4.492500 0.000000
-4.474200 0.000000
-4.455900 0.000000
-4.437600 0.000000
-4.419200 0.000000
-4.400900 0.000000
-4.382600 0.000000
-4.364300 0.000000
-4.346000 0.000000
-4.327700 0.000000
-4.309400 0.000000
-4.291000 13.788900
-4.272700 10.982900
-4.254400 9.751300
-4.236100 29.283800
-4.217800 16.782800
-4.199500 14.451200
-4.181100 12.123800
-4.162800 9.866800
-4.144500 8.533100
-4.126200 7.414700
-4.107900 6.592400
-4.089600 6.484700
-4.071300 6.409700
-4.052900 7.713700
-4.034600 11.514400
-4.016300 6.798500
-3.998000 6.418200
-3.979700 4.989600
-3.961400 2.694800
-3.943100 3.345900
-3.924700 3.522100
-3.906400 2.947200
-3.888100 2.141400
-3.869800 1.494000
-3.851500 1.129500
-3.833200 0.813600
-3.814900 0.546100
-3.796500 0.327200
-3.778200 0.156800
-3.759900 0.045200
-3.741600 0.000900
-3.723300 0.000000
-3.705000 0.000000
-3.686600 0.000000
-3.668300 0.000000
-3.650000 0.000000
-3.631700 0.000000
-3.613400 0.000000
-3.595100 0.000000
-3.576800 0.000000
-3.558400 0.000000
-3.540100 0.000000
-3.521800 0.000000
-3.503500 0.000000
-3.485200 0.000000
-3.466900 0.000000
-3.448600 1.495600
-3.430200 4.300300
-3.411900 5.037800
-3.393600 4.037700
-3.375300 3.997900
-3.357000 8.155700
-3.338700 9.552900
-3.320400 7.512200
-3.302000 21.059800
-3.283700 6.602400
-3.265400 6.326400
-3.247100 6.050400
-3.228800 5.774400
-3.210500 5.498500
-3.192100 5.222700
-3.173800 4.946900
-3.155500 4.671200
-3.137200 4.395500
-3.118900 4.119900
-3.100600 3.844300
-3.082300 3.568800
-3.063900 3.293400
-3.045600 3.018000
-3.027300 2.742700
-3.009000 2.470000
-2.990700 2.301000
-2.972400 2.163100
-2.954100 2.028900
-2.935700 1.939100
-2.917400 1.878500
-2.899100 1.848400
-2.880800 1.840000
-2.862500 1.832300
-2.844200 1.824700
-2.825800 6.509800
-2.807500 5.847900
-2.789200 5.294400
-2.770900 7.140200
-2.752600 6.812200
-2.734300 6.623900
-2.716000 6.541300
-2.697600 6.478100
-2.679300 6.430200
-2.661000 6.400000
-2.642700 6.390900
-2.624400 6.382100
-2.606100 6.373700
-2.587800 6.365600
-2.569400 6.365600
-2.551100 6.371600
-2.532800 6.380000
-2.514500 6.388700
-2.496200 6.397500
-2.477900 15.110400
-2.459600 7.715200
-2.441200 7.976900
-2.422900 8.189900
-2.404600 15.644100
-2.386300 9.631000
-2.368000 9.812100
-2.349700 10.062800
-2.331300 10.407800
-2.313000 10.840200
-2.294700 11.292000
-2.276400 11.740600
-2.258100 11.577900
-2.239800 11.403200
-2.221500 11.001600
-2.203100 10.517600
-2.184800 9.778800
-2.166500 8.588100
-2.148200 8.175400
-2.129900 8.005100
-2.111600 7.847400
-2.093300 7.690100
-2.074900 7.533400
-2.056600 7.377000
-2.038300 7.222000
-2.020000 7.071200
-2.001700 6.925000
-1.983400 6.801000
-1.965100 6.689200
-1.946700 6.592800
-1.928400 6.526300
-1.910100 6.460900
-1.891800 6.396600
-1.873500 6.754200
-1.855200 6.852400
-1.836800 6.827300
-1.818500 6.987800
-1.800200 6.429800
-1.781900 5.820500
-1.763600 5.639800
-1.745300 4.465600
-1.727000 4.117700
-1.708600 4.480100
-1.690300 5.070200
-1.672000 5.618100
-1.653700 5.932200
-1.635400 6.097900
-1.617100 9.753900
-1.598800 12.903000
-1.580400 15.772100
-1.562100 17.105100
-1.543800 10.822700
-1.525500 10.893500
-1.507200 11.137300
-1.488900 14.366600
-1.470600 15.807000
-1.452200 13.621600
-1.433900 10.384500
-1.415600 8.665000
-1.397300 7.820100
-1.379000 7.484400
-1.360700 7.315600
-1.342300 8.168400
-1.324000 15.196300
-1.305700 18.685500
-1.287400 17.878900
-1.269100 20.303600
-1.250800 21.419600
-1.232500 21.751900
-1.214100 21.271000
-1.195800 18.831100
-1.177500 18.547800
-1.159200 18.865000
-1.140900 19.678800
-1.122600 15.892900
-1.104300 11.711100
-1.085900 13.970000
-1.067600 0.000000
-1.049300 0.000000
-1.031000 0.000000
-1.012700 0.000000
-0.994400 0.000000
-0.976000 0.000000
-0.957700 0.000000
-0.939400 0.000000
-0.921100 0.000000
-0.902800 0.000000
-0.884500 0.000000
-0.866200 0.000000
-0.847800 0.000000
-0.829500 0.000000
-0.811200 0.000000
-0.792900 0.000000
-0.774600 0.000000
-0.756300 0.000000
-0.738000 0.000000
-0.719600 0.000000
-0.701300 0.000000
-0.683000 0.000000
-0.664700 0.000000
-0.646400 0.000000
-0.628100 0.000000
-0.609800 0.000000
-0.591400 0.000000
-0.573100 0.000000
-0.554800 0.000000
-0.536500 0.000000
-0.518200 0.000000
-0.499900 0.000000
-0.481500 0.000000
-0.463200 0.000000
-0.444900 0.000000
-0.426600 0.000000
-0.408300 0.000000
-0.390000 0.000000
-0.371700 0.000000
-0.353300 0.000000
-0.335000 0.000000
-0.316700 0.000000
-0.298400 0.000000
-0.280100 0.000000
-0.261800 0.000000
-0.243500 0.000000
-0.225100 0.000000
-0.206800 0.000000
-0.188500 0.000000
-0.170200 0.000000
-0.151900 0.000000
-0.133600 0.000000
-0.115300 0.000000
-0.096900 0.000000
-0.078600 0.000000
-0.060300 0.000000
-0.042000 0.000000
-0.023700 0.000000
-0.005400 0.000000
0.013000 0.000000
0.031300 0.000000
0.049600 0.000000
0.067900 0.000000
0.086200 0.000000
0.104500 0.000000
0.122800 0.000000
0.141200 0.000000
0.159500 0.000000
0.177800 0.000000
0.196100 0.000000
0.214400 0.000000
0.232700 0.000000
0.251000 0.000000
0.269400 0.000000
0.287700 0.000000
0.306000 0.000000
0.324300 0.000000
0.342600 0.000000
0.360900 0.000000
0.379200 0.000000
0.397600 0.000000
0.415900 0.000000
0.434200 0.000000
0.452500 0.000000
0.470800 0.000000
0.489100 0.000000
0.507500 0.000000
0.525800 0.000000
0.544100 0.000000
0.562400 0.000000
0.580700 0.000000
0.599000 0.000000
0.617300 0.000000
0.635700 0.000000
0.654000 0.000000
0.672300 0.000000
0.690600 0.000000
0.708900 0.000000
0.727200 0.000000
0.745500 0.000000
0.763900 0.000000
0.782200 0.000000
0.800500 0.000000
0.818800 0.000000
0.837100 0.000000
0.855400 0.000000
0.873800 0.000000
0.892100 0.000000
0.910400 0.000000
0.928700 0.000000
0.947000 0.000000
0.965300 0.000000
0.983600 0.000000
1.002000 0.000000
1.020300 0.000000
1.038600 0.000000
1.056900 0.000000
1.075200 0.000000
1.093500 0.000000
1.111800 0.000000
1.130200 0.000000
1.148500 0.000000
1.166800 0.000000
1.185100 0.000000
1.203400 0.000000
1.221700 0.000000
1.240000 0.000000
1.258400 0.000000
1.276700 0.000000
1.295000 0.000000
1.313300 0.000000
1.331600 0.000000
1.349900 0.000000
1.368300 0.000000
1.386600 0.000000
1.404900 0.000000
1.423200 0.000000
1.441500 0.000000
1.459800 0.000000
1.478100 0.000000
1.496500 0.000000
1.514800 0.000000
1.533100 0.000000
1.551400 0.000000
1.569700 0.000000
1.588000 0.000000
1.606300 0.000000
1.624700 0.000000
1.643000 0.000000
1.661300 0.000000
1.679600 0.000000
1.697900 0.000000
1.716200 0.000000
1.734500 0.000000
1.752900 0.000000
1.771200 0.000000
1.789500 0.000000
1.807800 0.000500
1.826100 0.001900
1.844400 0.004100
1.862800 0.007200
1.881100 0.011100
1.899400 0.015500
1.917700 0.020200
1.936000 0.025400
1.954300 0.031000
1.972600 0.037000
1.991000 0.043400
2.009300 0.050200
2.027600 0.057500
2.045900 0.065100
2.064200 0.073200
2.082500 0.081600
2.100800 0.092900
2.119200 0.104500
2.137500 0.116000
2.155800 0.127700
2.174100 0.139300
2.192400 0.150900
2.210700 0.162600
2.229000 0.174200
2.247400 0.185900
2.265700 0.197600
2.284000 0.209400
2.302300 0.221100
2.320600 0.232800
2.338900 0.244600
2.357300 0.260100
2.375600 0.278300
2.393900 0.297500
2.412200 0.317800
2.430500 0.339100
2.448800 0.361400
2.467100 0.384700
2.485500 0.409100
2.503800 0.434400
2.522100 0.460800
2.540400 0.488200
2.558700 0.516600
2.577000 0.547600
2.595300 0.583000
2.613700 0.622900
2.632000 0.667100
2.650300 0.715500
2.668600 0.765100
2.686900 0.920600
2.705200 1.617300
2.723600 2.448600
2.741900 3.085400
2.760200 3.770000
2.778500 4.610100
2.796800 5.008900
2.815100 5.419300
2.833400 6.213500
2.851800 7.131500
2.870100 7.872100
2.888400 8.235000
2.906700 8.574100
2.925000 8.912400
2.943300 9.296200
2.961600 9.555000
2.980000 9.694300
2.998300 9.715300
3.016600 9.660700
3.034900 9.373000
3.053200 13.013300
3.071500 13.865300
3.089800 10.320200
3.108200 6.962600
3.126500 9.727900
3.144800 6.929600
3.163100 4.894600
3.181400 2.902000
3.199700 1.185000
3.218100 0.255100
3.236400 0.000000
3.254700 0.000000
3.273000 0.000000
3.291300 0.000000
3.309600 0.000000
3.327900 0.000000
3.346300 0.000000
3.364600 0.000000
3.382900 0.000000
3.401200 0.000000
3.419500 0.000000
3.437800 0.000000
3.456100 0.000000
3.474500 0.000000
3.492800 0.000000
3.511100 0.000000
3.529400 0.000000
3.547700 0.000000
3.566000 0.000000
3.584300 0.000000
3.602700 0.000000
3.621000 0.000000
3.639300 0.000000
3.657600 0.000000
3.675900 0.000000
3.694200 0.000000
3.712600 0.000000
3.730900 0.000000
3.749200 0.000000
3.767500 0.000000
3.785800 0.000000
3.804100 0.000000
3.822400 0.000000
3.840800 0.000000
3.859100 0.000000
3.877400 0.000000
3.895700 0.000000
3.914000 0.000000
3.932300 0.000000
3.950600 0.000000
3.969000 0.000000
3.987300 0.000000
4.005600 0.000000
4.023900 0.000000
4.042200 0.000000
4.060500 0.000000
4.078800 0.000000
4.097200 0.000000
4.115500 0.000000
4.133800 0.000000
4.152100 0.000000
4.170400 0.000000
4.188700 0.000000
4.207100 0.000000
4.225400 0.000000
4.243700 0.000000
4.262000 0.000000
4.280300 0.000900
4.298600 0.006300
4.316900 0.014600
4.335300 0.026100
4.353600 0.039500
4.371900 0.053200
4.390200 0.072000
4.408500 0.095100
4.426800 0.118200
4.445100 0.141400
4.463500 0.164500
4.481800 0.187600
4.500100 0.210700
4.518400 0.233900
4.536700 0.257000
4.555000 0.280100
4.573400 0.303200
4.591700 0.326400
4.610000 0.349500
4.628300 0.372600
4.646600 0.395700
4.664900 0.418800
4.683200 0.441900
4.701600 0.465100
4.719900 0.488200
4.738200 0.511300
4.756500 0.534400
4.774800 0.557500
4.793100 0.580600
4.811400 0.603700
4.829800 0.626800
4.848100 0.649900
4.866400 0.673000
4.884700 0.696100
4.903000 0.722300
4.921300 0.821000
4.939600 0.964500
4.958000 1.118700
4.976300 1.300400
4.994600 1.498900
5.012900 1.693000
5.031200 1.884300
5.049500 2.080500
5.067900 2.276300
5.086200 2.432700
5.104500 2.567500
5.122800 2.678800
5.141100 2.766000
5.159400 2.829200
5.177700 2.877200
5.196100 2.885300
5.214400 2.967300
5.232700 3.107300
5.251000 3.298800
5.269300 3.563500
5.287600 3.847700
5.305900 4.089100
5.324300 4.292600
5.342600 4.503300
5.360900 4.737500
5.379200 4.950000
5.397500 5.002300
5.415800 4.904000
5.434100 4.805700
5.452500 4.707400
5.470800 4.609100
5.489100 4.510900
5.507400 4.412600
5.525700 4.314300
5.544000 4.216000
5.562400 4.117800
5.580700 4.019500
5.599000 3.921200
5.617300 3.823000
5.635600 3.724700
5.653900 3.626500
5.672200 3.528200
5.690600 3.430000
5.708900 3.331700
5.727200 3.233500
5.745500 3.135300
5.763800 3.037000
5.782100 3.199500
5.800400 8.525300
5.818800 14.065400
5.837100 1.632400
5.855400 1.655900
5.873700 1.711500
5.892000 1.799000
5.910300 2.088900
5.928600 2.954500
5.947000 5.102700
5.965300 3.904300
5.983600 2.905700
6.001900 1.827000
6.020200 0.545800
6.038500 0.015900
6.056900 0.000000
6.075200 0.000000
6.093500 0.000000
6.111800 0.000000
6.130100 0.788000
6.148400 1.118100
6.166700 1.438700
6.185100 1.574900
6.203400 1.698000
6.221700 1.819300
6.240000 1.938900
6.258300 2.028700
6.276600 2.018500
6.294900 2.116500
6.313300 2.207800
6.331600 2.295100
6.349900 2.396600
6.368200 2.515300
6.386500 2.653600
6.404800 2.846900
6.423200 3.106600
6.441500 3.399800
6.459800 3.721100
6.478100 4.070500
6.496400 4.448000
6.514700 4.913800
6.533000 6.202500
6.551400 7.150300
6.569700 8.539900
6.588000 9.200700
6.606300 8.502800
6.624600 5.891700
6.642900 4.938300
6.661200 5.064200
6.679600 5.190100
6.697900 5.316200
6.716200 5.442300
6.734500 5.568500
6.752800 5.694800
6.771100 5.821200
6.789400 5.947700
6.807800 6.074300
6.826100 6.205600
6.844400 6.376800
6.862700 6.595300
6.881000 6.437000
6.899300 5.990000
6.917700 5.292300
6.936000 3.992400
6.954300 3.294700
6.972600 3.053800
6.990900 2.840300
7.009200 2.763600
7.027500 2.539900
7.045900 2.018200
7.064200 1.663100
7.082500 1.570000
7.100800 1.478900
7.119100 1.375800
7.137400 1.260200
7.155700 1.422200
7.174100 2.252400
7.192400 3.324600
7.210700 4.506400
7.229000 5.692700
7.247300 6.883700
7.265600 8.079300
7.283900 9.117400
7.302300 10.239000
7.320600 11.576100
7.338900 13.037800
7.357200 17.095000
7.375500 17.724700
7.393800 14.472100
7.412200 13.504700
7.430500 15.276900
7.448800 16.401800
7.467100 14.105000
7.485400 10.259200
7.503700 9.789600
7.522000 6.568700
7.540400 4.502900
7.558700 1.689000
7.577000 1.430400
7.595300 2.622300
7.613600 3.447000
7.631900 4.522800
7.650200 4.809200
7.668600 5.074600
7.686900 5.727400
7.705200 6.146100
7.723500 6.547800
7.741800 7.042400
7.760100 7.762000
7.778400 8.331800
7.796800 8.804300
7.815100 9.202700
7.833400 9.416300
7.851700 9.483200
7.870000 9.403300
7.888300 9.177200
7.906700 8.817300
7.925000 8.118200
7.943300 7.158100
7.961600 6.046900
7.979900 6.794700
7.998200 5.289800
8.016500 5.853400
8.034900 6.691600
8.053200 7.773500
8.071500 7.828000
8.089800 4.142400
8.108100 2.481400
8.126400 2.265500
8.144700 2.178400
8.163100 2.307300
8.181400 3.106000
8.199700 3.443300
8.218000 3.607100
8.236300 3.598000
8.254600 3.479400
8.273000 3.292500
8.291300 3.079900
8.309600 2.893700
8.327900 2.775400
8.346200 3.086100
8.364500 3.524200
8.382800 4.054700
8.401200 4.804400
8.419500 6.498300
8.437800 7.725100
8.456100 8.225200
8.474400 6.358200
8.492700 5.890500
8.511000 5.657200
8.529400 5.473900
8.547700 5.323000
8.566000 5.243100
8.584300 5.253300
8.602600 5.259500
8.620900 7.098700
8.639200 6.584000
8.657600 5.436600
8.675900 4.858900
8.694200 5.495200
8.712500 6.130800
8.730800 6.765800
8.749100 7.400200
8.767500 7.936000
8.785800 7.733900
8.804100 6.826800
8.822400 6.429600
8.840700 6.412300
8.859000 6.709400
8.877300 8.389900
8.895700 8.047100
8.914000 0.745500
8.932300 0.712400
8.950600 0.679300
8.968900 0.655900
8.987200 0.996300
9.005500 1.722400
9.023900 2.585400
9.042200 3.215700
9.060500 3.685300
9.078800 4.018200
9.097100 4.164500
9.115400 4.001400
9.133700 3.915500
9.152100 3.904300
9.170400 3.926500
9.188700 3.937000
9.207000 3.935900
9.225300 3.923100
9.243600 3.949700
9.262000 4.444700
9.280300 5.504900
9.298600 6.578300
9.316900 7.276500
9.335200 8.002900
9.353500 9.308300
9.371800 9.594100
9.390200 6.252200
9.408500 4.042700
9.426800 4.014100
9.445100 4.044500
9.463400 4.130600
9.481700 4.271400
9.500000 4.432400
9.518400 4.595400
9.536700 4.760400
9.555000 4.929600
9.573300 5.084800
9.591600 5.252200
9.609900 5.401000
9.628200 5.534600
9.646600 5.660000
9.664900 5.777400
9.683200 6.165900
9.701500 7.094900
9.719800 8.564400
9.738100 6.271600
9.756500 6.365200
9.774800 5.759900
9.793100 4.290900
9.811400 2.985700
9.829700 1.703500
9.848000 1.345600
9.866300 1.425300
9.884700 1.561600
9.903000 1.677200
9.921300 1.745900
9.939600 1.783000
9.957900 1.878400
9.976200 2.003300
9.994500 2.156900
10.012900 2.360400
10.031200 2.587500
10.049500 2.804300
10.067800 3.003800
10.086100 3.185800
10.104400 3.350200
10.122700 3.497100
10.141100 3.626500
10.159400 3.738300
10.177700 3.832600
10.196000 3.909400
10.214300 4.054000
10.232600 3.688200
10.251000 2.984000
10.269300 2.535500
10.287600 2.107700
10.305900 1.763800
10.324200 1.787700
10.342500 1.811600
10.360800 2.129800
10.379200 2.680400
10.397500 3.184700
10.415800 3.483500
10.434100 3.674700
10.452400 3.777300
10.470700 3.793600
10.489000 3.699400
10.507400 3.670400
10.525700 3.670500
10.544000 3.700000
10.562300 3.762200
10.580600 3.725100
10.598900 3.688900
10.617300 3.658700
10.635600 3.640900
10.653900 3.650700
10.672200 3.673900
10.690500 3.678900
10.708800 3.664600
10.727100 3.636400
10.745500 3.606700
10.763800 3.576100
10.782100 3.544600
10.800400 3.512200
10.818700 3.478900
10.837000 3.444700
10.855300 3.409600
10.873700 3.373600
10.892000 3.336700
10.910300 3.298900
10.928600 3.260200
10.946900 3.220600
10.965200 3.180100
10.983500 3.138600
11.001900 3.078800
11.020200 3.020300
11.038500 2.977900
11.056800 2.951500
11.075100 2.941200
11.093400 2.948200
11.111800 2.979500
11.130100 3.037100
11.148400 3.121200
11.166700 3.230000
11.185000 3.361200
11.203300 3.514800
11.221600 3.680700
11.240000 3.832000
11.258300 3.997600
11.276600 4.178000
11.294900 4.390300
11.313200 4.642500
11.331500 4.585000
11.349800 4.641000
11.368200 4.808700
11.386500 5.029300
11.404800 5.179600
11.423100 5.358000
11.441400 5.567000
11.459700 5.806700
11.478000 6.077100
11.496400 6.385900
11.514700 6.754800
11.533000 7.063200
11.551300 7.254200
11.569600 7.105500
11.587900 6.844500
11.606300 6.559300
11.624600 6.003200
11.642900 5.652600
11.661200 5.327300
11.679500 5.025800
11.697800 4.738400
11.716100 4.393600
11.734500 4.187700
11.752800 3.933700
11.771100 3.633200
11.789400 3.285600
11.807700 2.891000
11.826000 2.570400
11.844300 2.400400
11.862700 2.300200
11.881000 2.531500
11.899300 3.028400
11.917600 3.286400
11.935900 3.508800
11.954200 3.678500
11.972500 3.816500
11.990900 3.908200
12.009200 3.966000
12.027500 4.020100
12.045800 4.112300
12.064100 4.242300
12.082400 4.347500
12.100800 4.431900
12.119100 4.537300
12.137400 4.710600
12.155700 4.910500
12.174000 5.154500
12.192300 5.432100
12.210600 6.003000
12.229000 6.265800
12.247300 6.571400
12.265600 6.913900
12.283900 7.238400
12.302200 7.541100
12.320500 7.442800
12.338800 6.396800
12.357200 5.821900
12.375500 5.413100
12.393800 5.203300
12.412100 5.740100
12.430400 6.193100
12.448700 5.946400
12.467100 5.698700
12.485400 5.452700
12.503700 5.196900
12.522000 5.075400
12.540300 5.089400
12.558600 5.074700
12.576900 5.031100
12.595300 4.961200
12.613600 4.914100
12.631900 5.021700
12.650200 5.284300
12.668500 5.874000
12.686800 6.125700
12.705100 6.109500
12.723500 9.015300
12.741800 8.085300
12.760100 7.140600
12.778400 6.247200
12.796700 5.401800
12.815000 4.755700
12.833300 4.667600
12.851700 4.672700
12.870000 4.662400
12.888300 5.193500
12.906600 4.962600
12.924900 4.936100
12.943200 4.990200
12.961600 5.157100
12.979900 5.255700
12.998200 5.306700
13.016500 5.350300
13.034800 5.519300
13.053100 5.874400
13.071400 6.185100
13.089800 6.449500
13.108100 6.642600
13.126400 6.732400
13.144700 6.820700
13.163000 6.878200
13.181300 6.953700
13.199600 7.038600
13.218000 7.093100
13.236300 7.117000
13.254600 7.114800
13.272900 7.065200
13.291200 6.991000
13.309500 6.892200
13.327800 6.769600
13.346200 6.629600
13.364500 6.519800
13.382800 6.471100
13.401100 6.340800
13.419400 6.014600
13.437700 5.863500
13.456100 5.658100
13.474400 5.391000
13.492700 5.081100
13.511000 4.730200
13.529300 4.338500
13.547600 3.994300
13.565900 3.877900
13.584300 3.795500
13.602600 3.755000
13.620900 3.747100
13.639200 3.781200
13.657500 3.847200
13.675800 3.914400
13.694100 3.977800
13.712500 4.182700
13.730800 4.396200
13.749100 4.577000
13.767400 4.721900
13.785700 4.834300
13.804000 4.918900
13.822300 4.976000
13.840700 5.005300
13.859000 5.007000
13.877300 4.985400
13.895600 4.965200
13.913900 4.943600
13.932200 4.928300
13.950600 5.029900
13.968900 5.152000
13.987200 5.201700
14.005500 5.222100
14.023800 5.233800
14.042100 5.237100
14.060400 5.232000
14.078800 5.291000
14.097100 5.472700
14.115400 5.691700
14.133700 5.751600
14.152000 5.825000
14.170300 5.886700
14.188600 5.918100
14.207000 5.923800
14.225300 5.932500
14.243600 5.965100
14.261900 6.077800
14.280200 6.274700
14.298500 6.555600
14.316900 7.003700
14.335200 7.153800
14.353500 7.102400
14.371800 10.545100
14.390100 8.616000
14.408400 7.200900
14.426700 6.990500
14.445100 7.106400
14.463400 7.197900
14.481700 7.190200
14.500000 7.135400
14.518300 7.101200
14.536600 7.055100
14.554900 7.346100
14.573300 7.550100
14.591600 7.699300
14.609900 7.793500
14.628200 7.832800
14.646500 7.692600
14.664800 7.265500
14.683100 6.640900
14.701500 5.825700
14.719800 5.561400
14.738100 4.572000
14.756400 3.968800
14.774700 4.092800
14.793000 4.223800
14.811400 4.362600
14.829700 4.536600
14.848000 4.766700
14.866300 5.182700
14.884600 5.535100
14.902900 5.814800
14.921200 6.027400
14.939600 6.172800
14.957900 6.251000
14.976200 6.329500
14.994500 6.200900
15.012800 6.091300
15.031100 5.978500
15.049400 5.891800
15.067800 5.851500
15.086100 5.857700
15.104400 7.370400
15.122700 4.855200
15.141000 3.706300
15.159300 3.808200
15.177600 3.916000
15.196000 4.029700
15.214300 4.145600
15.232600 4.306400
15.250900 4.537400
15.269200 4.943000
15.287500 5.569600
15.305900 6.101800
15.324200 6.813700
15.342500 7.249800
15.360800 6.641700
15.379100 6.238600
15.397400 5.869500
15.415700 5.481300
15.434100 5.073900
15.452400 4.654400
15.470700 4.268100
15.489000 4.031600
15.507300 3.921900
15.525600 3.901800
15.543900 3.967700
15.562300 4.109800
15.580600 4.462400
15.598900 5.004300
15.617200 5.600600
15.635500 6.093100
15.653800 6.451700
15.672100 6.839500
15.690500 7.109200
15.708800 7.229200
15.727100 7.304300
15.745400 7.334600
15.763700 7.335900
15.782000 7.370300
15.800400 7.721500
15.818700 8.987400
15.837000 8.386600
15.855300 7.661400
15.873600 7.135900
15.891900 6.776100
15.910200 6.476200
15.928600 6.276200
15.946900 6.158300
15.965200 6.415500
15.983500 6.964000
16.001800 7.202800
16.020100 7.194600
16.038400 7.146400
16.056800 7.181300
16.075100 7.164400
16.093400 7.100200
16.111700 7.011300
16.130000 6.925700
16.148300 6.898000
16.166700 7.022900
16.185000 7.491900
16.203300 7.637900
16.221600 7.545800
16.239900 7.540800
16.258200 7.640200
16.276500 7.837100
16.294900 7.883200
16.313200 7.896800
16.331500 8.274000
16.349800 8.622200
16.368100 8.425700
16.386400 8.141800
16.404700 8.200300
16.423100 8.187000
16.441400 7.813300
16.459700 7.494200
16.478000 7.323000
16.496300 7.375200
16.514600 7.497200
16.532900 7.764700
16.551300 8.198300
16.569600 8.663600
16.587900 9.029500
16.606200 9.257000
16.624500 8.968900
16.642800 8.235000
16.661200 7.696400
16.679500 7.566900
16.697800 7.720300
16.716100 7.895000
16.734400 7.904500
16.752700 7.749800
16.771000 7.493500
16.789400 7.047900
16.807700 6.482000
16.826000 5.902300
16.844300 5.345700
16.862600 4.894500
16.880900 4.603700
16.899200 4.525900
16.917600 4.881000
16.935900 6.125600
16.954200 7.128400
16.972500 7.028900
16.990800 6.894700
17.009100 6.725900
17.027400 6.547300
17.045800 6.533700
17.064100 6.509100
17.082400 6.470500
17.100700 6.422300
17.119000 6.364800
17.137300 6.152300
17.155700 5.809000
17.174000 5.617300
17.192300 5.535200
17.210600 5.431500
17.228900 5.287900
17.247200 5.104000
17.265500 4.879700
17.283900 4.620400
17.302200 4.381700
17.320500 4.623700
17.338800 4.957800
17.357100 5.102900
17.375400 5.245000
17.393700 5.389000
17.412100 5.542500
17.430400 5.689200
17.448700 5.829200
17.467000 6.291600
17.485300 6.513400
17.503600 6.630900
17.521900 6.657400
17.540300 6.755600
17.558600 6.936200
17.576900 7.169600
17.595200 7.415700
17.613500 7.613200
17.631800 7.864800
17.650200 7.824300
17.668500 7.532900
17.686800 7.125500
17.705100 7.042400
17.723400 6.941600
17.741700 6.838800
17.760000 6.687600
17.778400 6.550100
17.796700 6.576500
17.815000 7.356400
17.833300 8.202300
17.851600 8.972300
17.869900 6.432000
17.888200 6.673600
17.906600 6.908900
17.924900 8.731400
17.943200 7.406800
17.961500 7.017800
17.979800 6.800500
17.998100 6.573300
18.016500 6.369900
18.034800 6.290100
18.053100 6.223100
18.071400 6.168900
18.089700 6.127500
18.108000 6.098900
18.126300 4.527100
18.144700 5.476800
18.163000 6.270500
18.181300 6.793600
18.199600 7.046200
18.217900 7.028200
18.236200 6.370900
18.254500 5.258600
18.272900 4.381900
18.291200 4.394200
18.309500 4.384400
18.327800 4.350600
18.346100 4.292800
18.364400 4.211000
18.382700 6.664500
18.401100 4.958400
18.419400 2.656600
18.437700 2.692300
18.456000 2.713900
18.474300 2.721300
18.492600 2.714400
18.511000 2.692800
18.529300 2.654100
18.547600 2.598100
18.565900 2.524600
18.584200 2.433700
18.602500 2.325500
18.620800 2.199900
18.639200 2.056900
18.657500 3.004300
18.675800 3.559000
18.694100 1.258200
18.712400 0.322500
18.730700 0.184100
18.749000 0.084300
18.767400 0.022900
18.785700 0.000200
18.804000 0.000000
18.822300 0.000000
18.840600 0.000000
18.858900 0.000000
18.877200 0.000000
18.895600 0.000000
18.913900 0.000000
18.932200 0.000000
18.950500 0.000000
18.968800 0.000000
18.987100 0.000000
19.005500 0.000000
19.023800 0.000000
19.042100 0.000000
19.060400 0.000000
19.078700 0.000000
19.097000 0.000000
19.115300 0.000000
19.133700 0.000000
19.152000 0.000000
19.170300 0.000000
19.188600 0.000000
19.206900 0.000000
19.225200 0.000000
19.243500 0.000000
19.261900 0.000000
19.280200 0.000000
19.298500 0.000000
19.316800 0.000000
19.335100 0.000000
19.353400 0.000000
19.371700 0.000000
19.390100 0.000000
19.408400 0.000000
19.426700 0.000000
19.445000 0.000000
19.463300 0.000000
19.481600 0.000000
19.500000 0.000000
19.518300 0.000000
19.536600 0.000000
19.554900 0.000000
19.573200 0.000000
19.591500 0.000000
19.609800 0.000000
19.628200 0.000000
19.646500 0.000000
19.664800 0.000000
19.683100 0.000000
19.701400 0.000000
19.719700 0.000000
19.738000 0.000000
19.756400 0.000000
19.774700 0.000000
19.793000 0.000000
19.811300 0.000000
19.829600 0.000000
19.847900 0.000000
19.866300 0.000000
19.884600 0.000000
19.902900 0.000000
19.921200 0.000000
19.939500 0.000000
19.957800 0.000000
19.976100 0.000000
19.994500 0.000000
20.012800 0.000000
20.031100 0.000000
20.049400 0.000000
20.067700 0.000000
20.086000 0.000000
20.104300 0.000000
20.122700 0.000000
20.141000 0.000000
20.159300 0.000000
20.177600 0.000000
20.195900 0.000000
20.214200 0.000000
20.232500 0.000000
20.250900 0.000000
20.269200 0.000000
20.287500 0.000000
20.305800 0.000000
20.324100 0.000000
20.342400 0.000000
20.360800 0.000000
20.379100 0.000000
20.397400 0.000000
20.415700 0.000000
20.434000 0.000000
20.452300 0.000000
e
