set title 'mp-1186429 - Density of States'
set xlabel 'Energy (eV)'
set ylabel 'DOS (states/eV)'
set grid
set xrange [-10:10]
set yrange [0:2.698]
set xzeroaxis lt -1
set terminal png size 800,600
set output 'mp-1186429_dos_gnuplot.png'
plot '-' using 1:2 with lines title 'DOS'
-41.077600 0.000000
-41.022600 0.000000
-40.967700 0.000000
-40.912700 0.000000
-40.857700 0.000000
-40.802700 0.000000
-40.747700 0.000000
-40.692800 0.000000
-40.637800 0.000000
-40.582800 0.000000
-40.527800 0.000000
-40.472900 0.000000
-40.417900 0.000000
-40.362900 0.000000
-40.307900 0.000000
-40.252900 0.000000
-40.198000 0.000000
-40.143000 0.000000
-40.088000 0.000000
-40.033000 0.000000
-39.978000 0.000000
-39.923100 0.000000
-39.868100 0.000000
-39.813100 0.000000
-39.758100 0.000000
-39.703200 0.000000
-39.648200 0.000000
-39.593200 0.000000
-39.538200 0.000000
-39.483200 0.000000
-39.428300 0.000000
-39.373300 0.000000
-39.318300 0.000000
-39.263300 0.000000
-39.208300 0.000000
-39.153400 0.000000
-39.098400 0.000000
-39.043400 0.000000
-38.988400 0.000000
-38.933500 0.000000
-38.878500 0.000000
-38.823500 0.000000
-38.768500 0.000000
-38.713500 0.000000
-38.658600 0.000000
-38.603600 0.000000
-38.548600 0.000000
-38.493600 0.000000
-38.438600 0.000000
-38.383700 0.000000
-38.328700 0.000000
-38.273700 0.000000
-38.218700 0.000000
-38.163800 0.000000
-38.108800 0.000000
-38.053800 0.000000
-37.998800 0.000000
-37.943800 0.000000
-37.888900 0.000000
-37.833900 0.000000
-37.778900 0.000000
-37.723900 0.000000
-37.668900 0.000000
-37.614000 0.000000
-37.559000 0.000000
-37.504000 0.000000
-37.449000 0.000000
-37.394100 0.000000
-37.339100 0.000000
-37.284100 0.000000
-37.229100 0.000000
-37.174100 0.000000
-37.119200 0.000000
-37.064200 0.000000
-37.009200 0.000000
-36.954200 0.000000
-36.899200 0.000000
-36.844300 0.000000
-36.789300 0.000000
-36.734300 0.000000
-36.679300 0.000000
-36.624400 0.000000
-36.569400 0.000000
-36.514400 0.000000
-36.459400 0.000000
-36.404400 0.000000
-36.349500 0.000000
-36.294500 0.000000
-36.239500 0.000000
-36.184500 0.000000
-36.129500 0.000000
-36.074600 1.079600
-36.019600 6.563900
-35.964600 30.750200
-35.909600 0.000000
-35.854700 0.000000
-35.799700 0.000000
-35.744700 0.000000
-35.689700 0.000000
-35.634700 0.000000
-35.579800 0.000000
-35.524800 0.000000
-35.469800 0.000000
-35.414800 0.000000
-35.359800 0.000000
-35.304900 0.000000
-35.249900 0.000000
-35.194900 0.000000
-35.139900 0.000000
-35.085000 0.000000
-35.030000 0.000000
-34.975000 0.000000
-34.920000 0.000000
-34.865000 0.000000
-34.810100 0.000000
-34.755100 0.000000
-34.700100 0.000000
-34.645100 0.000000
-34.590100 0.000000
-34.535200 0.000000
-34.480200 0.000000
-34.425200 0.000000
-34.370200 0.000000
-34.315300 0.000000
-34.260300 0.000000
-34.205300 0.000000
-34.150300 0.000000
-34.095300 0.000000
-34.040400 0.000000
-33.985400 0.000000
-33.930400 0.000000
-33.875400 0.000000
-33.820400 0.000000
-33.765500 0.000000
-33.710500 0.000000
-33.655500 0.000000
-33.600500 0.000000
-33.545600 0.000000
-33.490600 0.000000
-33.435600 0.000000
-33.380600 0.000000
-33.325600 0.000000
-33.270700 0.000000
-33.215700 0.000000
-33.160700 0.000000
-33.105700 0.000000
-33.050700 0.000000
-32.995800 0.000000
-32.940800 0.000000
-32.885800 0.000000
-32.830800 0.000000
-32.775900 0.000000
-32.720900 0.000000
-32.665900 0.000000
-32.610900 0.000000
-32.555900 0.000000
-32.501000 0.000000
-32.446000 0.000000
-32.391000 0.000000
-32.336000 0.000000
-32.281000 0.000000
-32.226100 0.000000
-32.171100 0.000000
-32.116100 0.000000
-32.061100 0.000000
-32.006200 0.000000
-31.951200 0.000000
-31.896200 0.000000
-31.841200 0.000000
-31.786200 0.000000
-31.731300 0.000000
-31.676300 0.000000
-31.621300 0.000000
-31.566300 0.000000
-31.511300 0.000000
-31.456400 0.000000
-31.401400 0.000000
-31.346400 0.000000
-31.291400 0.000000
-31.236500 0.000000
-31.181500 0.000000
-31.126500 0.000000
-31.071500 0.000000
-31.016500 0.000000
-30.961600 0.000000
-30.906600 0.000000
-30.851600 0.000000
-30.796600 0.000000
-30.741600 0.000000
-30.686700 0.000000
-30.631700 0.000000
-30.576700 0.000000
-30.521700 0.000000
-30.466800 0.000000
-30.411800 0.000000
-30.356800 0.000000
-30.301800 0.000000
-30.246800 0.000000
-30.191900 0.000000
-30.136900 0.000000
-30.081900 0.000000
-30.026900 0.000000
-29.971900 0.000000
-29.917000 0.000000
-29.862000 0.000000
-29.807000 0.000000
-29.752000 0.000000
-29.697000 0.000000
-29.642100 0.000000
-29.587100 0.000000
-29.532100 0.000000
-29.477100 0.000000
-29.422200 0.000000
-29.367200 0.000000
-29.312200 0.000000
-29.257200 0.000000
-29.202200 0.000000
-29.147300 0.000000
-29.092300 0.000000
-29.037300 0.000000
-28.982300 0.000000
-28.927300 0.000000
-28.872400 0.000000
-28.817400 0.000000
-28.762400 0.000000
-28.707400 0.000000
-28.652500 0.000000
-28.597500 0.000000
-28.542500 0.000000
-28.487500 0.000000
-28.432500 0.000000
-28.377600 0.000000
-28.322600 0.000000
-28.267600 0.000000
-28.212600 0.000000
-28.157600 0.000000
-28.102700 0.000000
-28.047700 0.000000
-27.992700 0.000000
-27.937700 0.000000
-27.882800 0.000000
-27.827800 0.000000
-27.772800 0.000000
-27.717800 0.000000
-27.662800 0.000000
-27.607900 0.000000
-27.552900 0.000000
-27.497900 0.000000
-27.442900 0.000000
-27.387900 0.000000
-27.333000 0.000000
-27.278000 0.000000
-27.223000 0.000000
-27.168000 0.000000
-27.113100 0.000000
-27.058100 0.000000
-27.003100 0.000000
-26.948100 0.000000
-26.893100 0.000000
-26.838200 0.000000
-26.783200 0.000000
-26.728200 0.000000
-26.673200 0.000000
-26.618200 0.000000
-26.563300 0.000000
-26.508300 0.000000
-26.453300 0.000000
-26.398300 0.000000
-26.343400 0.000000
-26.288400 0.000000
-26.233400 0.000000
-26.178400 0.000000
-26.123400 0.000000
-26.068500 0.000000
-26.013500 0.000000
-25.958500 0.000000
-25.903500 0.000000
-25.848500 0.000000
-25.793600 0.000000
-25.738600 0.000000
-25.683600 0.000000
-25.628600 0.000000
-25.573700 0.000000
-25.518700 0.000000
-25.463700 0.000000
-25.408700 0.000000
-25.353700 0.000000
-25.298800 0.000000
-25.243800 0.000000
-25.188800 0.000000
-25.133800 0.000000
-25.078800 0.000000
-25.023900 0.000000
-24.968900 0.000000
-24.913900 0.000000
-24.858900 0.000000
-24.804000 0.000000
-24.749000 0.000000
-24.694000 0.000000
-24.639000 0.000000
-24.584000 0.000000
-24.529100 0.000000
-24.474100 0.000000
-24.419100 0.000000
-24.364100 0.000000
-24.309100 0.000000
-24.254200 0.000000
-24.199200 0.000000
-24.144200 0.000000
-24.089200 0.000000
-24.034300 0.000000
-23.979300 0.000000
-23.924300 0.000000
-23.869300 0.000000
-23.814300 0.000000
-23.759400 0.000000
-23.704400 0.000000
-23.649400 0.000000
-23.594400 0.000000
-23.539400 0.000000
-23.484500 0.000000
-23.429500 0.000000
-23.374500 0.000000
-23.319500 0.000000
-23.264600 0.000000
-23.209600 0.000000
-23.154600 0.000000
-23.099600 0.000000
-23.044600 0.000000
-22.989700 0.000000
-22.934700 0.000000
-22.879700 0.000000
-22.824700 0.000000
-22.769700 0.000000
-22.714800 0.000000
-22.659800 0.000000
-22.604800 0.000000
-22.549800 0.000000
-22.494900 0.000000
-22.439900 0.000000
-22.384900 0.000000
-22.329900 0.000000
-22.274900 0.000000
-22.220000 0.000000
-22.165000 0.000000
-22.110000 0.000000
-22.055000 0.000000
-22.000000 0.000000
-21.945100 0.000000
-21.890100 0.000000
-21.835100 0.000000
-21.780100 0.000000
-21.725200 0.000000
-21.670200 0.000000
-21.615200 0.000000
-21.560200 0.000000
-21.505200 0.000000
-21.450300 0.000000
-21.395300 0.000000
-21.340300 0.000000
-21.285300 0.000000
-21.230300 0.000000
-21.175400 0.000000
-21.120400 0.000000
-21.065400 0.000000
-21.010400 0.000000
-20.955500 0.000000
-20.900500 0.000000
-20.845500 0.000000
-20.790500 0.000000
-20.735500 0.000000
-20.680600 0.000000
-20.625600 0.000000
-20.570600 0.000000
-20.515600 0.000000
-20.460600 0.000000
-20.405700 0.000000
-20.350700 0.000000
-20.295700 0.000000
-20.240700 0.000000
-20.185800 0.000000
-20.130800 0.000000
-20.075800 0.000000
-20.020800 0.000000
-19.965800 0.000000
-19.910900 0.000000
-19.855900 0.000000
-19.800900 0.000000
-19.745900 0.000000
-19.690900 0.000000
-19.636000 0.000000
-19.581000 0.000000
-19.526000 0.000000
-19.471000 0.000000
-19.416100 0.000000
-19.361100 0.000000
-19.306100 0.000000
-19.251100 0.000000
-19.196100 0.000000
-19.141200 0.000000
-19.086200 0.000000
-19.031200 0.000000
-18.976200 0.000000
-18.921200 0.000000
-18.866300 0.000000
-18.811300 0.000000
-18.756300 0.000000
-18.701300 0.000000
-18.646400 0.000000
-18.591400 0.000000
-18.536400 0.000000
-18.481400 0.000000
-18.426400 0.000000
-18.371500 0.000000
-18.316500 0.000000
-18.261500 0.000000
-18.206500 0.000000
-18.151500 0.000000
-18.096600 0.000000
-18.041600 0.000000
-17.986600 0.000000
-17.931600 0.000000
-17.876700 0.000000
-17.821700 0.000000
-17.766700 0.000000
-17.711700 0.000000
-17.656700 0.000000
-17.601800 0.000000
-17.546800 0.000000
-17.491800 0.000000
-17.436800 0.000000
-17.381800 0.000000
-17.326900 0.000000
-17.271900 0.000000
-17.216900 0.000000
-17.161900 0.000000
-17.107000 0.000000
-17.052000 0.000000
-16.997000 0.000000
-16.942000 0.000000
-16.887000 1.792100
-16.832100 4.560500
-16.777100 10.310500
-16.722100 9.136300
-16.667100 3.571700
-16.612100 1.749900
-16.557200 3.909100
-16.502200 4.347500
-16.447200 4.797400
-16.392200 5.352200
-16.337300 8.110200
-16.282300 10.719500
-16.227300 11.315200
-16.172300 12.179100
-16.117300 10.302800
-16.062400 5.557400
-16.007400 1.554000
-15.952400 0.000000
-15.897400 0.000000
-15.842400 0.000000
-15.787500 0.000000
-15.732500 0.000000
-15.677500 0.000000
-15.622500 0.000000
-15.567600 0.000000
-15.512600 0.000000
-15.457600 0.000000
-15.402600 0.000000
-15.347600 0.000000
-15.292700 0.000000
-15.237700 0.000000
-15.182700 0.000000
-15.127700 0.000000
-15.072700 0.000000
-15.017800 0.000000
-14.962800 0.000000
-14.907800 0.000000
-14.852800 0.000000
-14.797900 0.000000
-14.742900 0.000000
-14.687900 0.000000
-14.632900 0.000000
-14.577900 0.000000
-14.523000 0.000000
-14.468000 0.000000
-14.413000 0.000000
-14.358000 0.000000
-14.303000 0.000000
-14.248100 0.000000
-14.193100 0.000000
-14.138100 0.000000
-14.083100 0.000000
-14.028200 0.000000
-13.973200 0.000000
-13.918200 0.000000
-13.863200 0.000000
-13.808200 0.000000
-13.753300 0.000000
-13.698300 0.000000
-13.643300 0.000000
-13.588300 0.000000
-13.533300 0.000000
-13.478400 0.000000
-13.423400 0.000000
-13.368400 0.000000
-13.313400 0.000000
-13.258500 0.000000
-13.203500 0.000000
-13.148500 0.000000
-13.093500 0.000000
-13.038500 0.000000
-12.983600 0.000000
-12.928600 0.000000
-12.873600 0.000000
-12.818600 0.000000
-12.763600 0.000000
-12.708700 0.000000
-12.653700 0.000000
-12.598700 0.000000
-12.543700 0.000000
-12.488800 0.000000
-12.433800 0.000000
-12.378800 0.000000
-12.323800 0.000000
-12.268800 0.000000
-12.213900 0.000000
-12.158900 0.000000
-12.103900 0.000000
-12.048900 0.000000
-11.993900 0.000000
-11.939000 0.000000
-11.884000 0.000000
-11.829000 0.000000
-11.774000 0.000000
-11.719100 0.000000
-11.664100 0.000000
-11.609100 0.000000
-11.554100 0.000000
-11.499100 0.000000
-11.444200 0.000000
-11.389200 0.000000
-11.334200 0.000000
-11.279200 0.000000
-11.224200 0.000000
-11.169300 0.000000
-11.114300 0.000000
-11.059300 0.000000
-11.004300 0.000000
-10.949400 0.000000
-10.894400 0.000000
-10.839400 0.000000
-10.784400 0.000000
-10.729400 0.000000
-10.674500 0.000000
-10.619500 0.000000
-10.564500 0.000000
-10.509500 0.000000
-10.454500 0.000000
-10.399600 0.000000
-10.344600 0.000000
-10.289600 0.000000
-10.234600 0.000000
-10.179700 0.000000
-10.124700 0.000000
-10.069700 0.000000
-10.014700 0.000000
-9.959700 0.000000
-9.904800 0.000000
-9.849800 0.000000
-9.794800 0.000000
-9.739800 0.000000
-9.684800 0.000000
-9.629900 0.000000
-9.574900 0.000000
-9.519900 0.000000
-9.464900 0.000000
-9.410000 0.000000
-9.355000 0.000000
-9.300000 0.000000
-9.245000 0.000000
-9.190000 0.000000
-9.135100 0.000000
-9.080100 0.000000
-9.025100 0.000000
-8.970100 0.000000
-8.915100 0.000000
-8.860200 0.000000
-8.805200 0.000000
-8.750200 0.000000
-8.695200 0.000000
-8.640300 0.000000
-8.585300 0.000000
-8.530300 0.000000
-8.475300 0.000000
-8.420300 0.000000
-8.365400 0.000000
-8.310400 0.000000
-8.255400 0.000000
-8.200400 0.000000
-8.145400 0.000000
-8.090500 0.000000
-8.035500 0.000000
-7.980500 0.000000
-7.925500 0.000000
-7.870600 0.000000
-7.815600 0.000000
-7.760600 0.000000
-7.705600 0.000000
-7.650600 0.000000
-7.595700 0.000000
-7.540700 0.000000
-7.485700 0.000000
-7.430700 0.000000
-7.375700 0.000000
-7.320800 0.000000
-7.265800 0.000000
-7.210800 0.000000
-7.155800 0.000000
-7.100900 0.000000
-7.045900 0.000000
-6.990900 0.000000
-6.935900 0.000000
-6.880900 0.000000
-6.826000 0.000000
-6.771000 0.000000
-6.716000 0.000000
-6.661000 0.000000
-6.606000 0.000000
-6.551100 0.000000
-6.496100 0.000000
-6.441100 0.000000
-6.386100 0.000000
-6.331200 0.000000
-6.276200 0.000000
-6.221200 0.000000
-6.166200 0.000000
-6.111200 0.000000
-6.056300 0.000000
-6.001300 0.000000
-5.946300 0.000000
-5.891300 0.000000
-5.836300 0.000000
-5.781400 0.000000
-5.726400 0.000000
-5.671400 0.000000
-5.616400 0.000000
-5.561500 0.000000
-5.506500 0.000000
-5.451500 0.000000
-5.396500 0.000000
-5.341500 0.000000
-5.286600 0.000000
-5.231600 0.000000
-5.176600 0.000000
-5.121600 0.000000
-5.066600 0.000000
-5.011700 0.000000
-4.956700 0.000000
-4.901700 0.000000
-4.846700 0.000000
-4.791700 0.000000
-4.736800 0.000000
-4.681800 0.000000
-4.626800 0.000000
-4.571800 0.000000
-4.516900 0.000000
-4.461900 0.000000
-4.406900 0.000000
-4.351900 0.000000
-4.296900 0.000000
-4.242000 0.000000
-4.187000 0.000000
-4.132000 0.000000
-4.077000 0.000000
-4.022000 0.000000
-3.967100 0.000000
-3.912100 0.000000
-3.857100 0.000000
-3.802100 0.000000
-3.747200 0.000000
-3.692200 0.000000
-3.637200 0.000000
-3.582200 0.000000
-3.527200 0.000000
-3.472300 0.000000
-3.417300 0.000000
-3.362300 0.000000
-3.307300 0.000000
-3.252300 0.000000
-3.197400 0.000000
-3.142400 0.000000
-3.087400 0.000000
-3.032400 0.000000
-2.977500 0.000000
-2.922500 0.000000
-2.867500 0.000000
-2.812500 0.000000
-2.757500 0.000000
-2.702600 0.000000
-2.647600 0.000000
-2.592600 0.000000
-2.537600 0.000000
-2.482600 0.000000
-2.427700 0.000000
-2.372700 0.000000
-2.317700 0.000000
-2.262700 0.000000
-2.207800 0.000000
-2.152800 0.000000
-2.097800 0.000000
-2.042800 0.000000
-1.987800 0.000000
-1.932900 0.000000
-1.877900 0.000000
-1.822900 0.000000
-1.767900 0.000000
-1.712900 0.000000
-1.658000 0.000000
-1.603000 0.000000
-1.548000 0.000000
-1.493000 0.000000
-1.438100 0.000000
-1.383100 0.000000
-1.328100 0.000000
-1.273100 0.000000
-1.218100 0.000000
-1.163200 0.000000
-1.108200 0.000000
-1.053200 0.000000
-0.998200 0.000000
-0.943200 0.000000
-0.888300 0.000000
-0.833300 0.000100
-0.778300 0.010100
-0.723300 0.036200
-0.668400 0.038400
-0.613400 0.046500
-0.558400 0.055300
-0.503400 0.064700
-0.448400 0.072100
-0.393500 0.076100
-0.338500 0.081500
-0.283500 0.088100
-0.228500 0.094800
-0.173500 0.101800
-0.118600 0.109000
-0.063600 0.114700
-0.008600 0.120700
0.046400 0.126900
0.101300 0.133300
0.156300 0.140200
0.211300 0.147700
0.266300 0.155500
0.321300 0.163600
0.376200 0.171800
0.431200 0.179500
0.486200 0.188000
0.541200 0.197500
0.596200 0.207700
0.651100 0.218600
0.706100 0.230600
0.761100 0.243700
0.816100 0.257600
0.871000 0.272300
0.926000 0.287800
0.981000 0.306100
1.036000 0.330800
1.091000 0.360100
1.145900 0.395500
1.200900 0.435900
1.255900 0.484900
1.310900 0.710400
1.365900 0.966500
1.420800 0.982800
1.475800 1.135000
1.530800 1.263200
1.585800 1.252600
1.640700 1.255200
1.695700 1.286900
1.750700 1.276000
1.805700 1.280500
1.860700 1.299400
1.915600 1.309900
1.970600 1.314100
2.025600 1.360000
2.080600 1.444500
2.135600 1.456000
2.190500 1.467200
2.245500 1.499100
2.300500 1.510600
2.355500 1.529000
2.410400 1.590600
2.465400 1.579600
2.520400 1.536100
2.575400 1.437200
2.630400 1.332900
2.685300 1.155200
2.740300 0.938400
2.795300 0.849500
2.850300 0.817000
2.905300 0.925000
2.960200 1.166200
3.015200 1.738200
3.070200 2.452600
3.125200 2.089600
3.180100 1.534700
3.235100 1.361900
3.290100 1.342800
3.345100 1.279700
3.400100 1.160400
3.455000 1.115200
3.510000 1.210300
3.565000 1.307400
3.620000 1.309100
3.675000 1.281100
3.729900 1.544400
3.784900 1.747000
3.839900 1.769500
3.894900 1.915900
3.949800 1.792900
4.004800 1.751300
4.059800 1.739700
4.114800 1.743300
4.169800 1.886200
4.224700 2.057100
4.279700 2.109900
4.334700 2.106400
4.389700 2.137700
4.444700 1.838300
4.499600 1.681500
4.554600 1.569200
4.609600 1.460000
4.664600 1.455700
4.719500 1.829900
4.774500 1.599300
4.829500 1.130700
4.884500 1.348100
4.939500 1.586800
4.994400 1.789900
5.049400 1.771600
5.104400 2.175100
5.159400 1.533700
5.214400 1.381800
5.269300 1.277200
5.324300 1.218200
5.379300 1.169200
5.434300 1.120700
5.489200 1.085700
5.544200 1.086100
5.599200 1.100300
5.654200 1.116000
5.709200 1.159800
5.764100 1.083100
5.819100 1.151900
5.874100 1.064200
5.929100 1.072100
5.984100 1.082400
6.039000 1.225000
6.094000 1.601400
6.149000 2.022600
6.204000 1.582400
6.258900 1.367800
6.313900 1.312600
6.368900 1.287600
6.423900 1.231000
6.478900 1.166400
6.533800 1.072900
6.588800 1.007200
6.643800 0.952600
6.698800 0.916400
6.753800 0.878800
6.808700 0.850800
6.863700 0.818800
6.918700 0.808300
6.973700 0.826500
7.028600 0.866000
7.083600 0.959400
7.138600 0.992100
7.193600 0.980000
7.248600 0.947300
7.303500 0.933700
7.358500 0.933100
7.413500 0.940100
7.468500 0.932600
7.523500 0.913900
7.578400 0.908100
7.633400 0.919100
7.688400 0.926600
7.743400 0.937700
7.798300 0.953200
7.853300 0.972400
7.908300 0.999200
7.963300 1.048000
8.018300 1.092800
8.073200 1.124400
8.128200 1.159400
8.183200 1.198900
8.238200 1.235600
8.293200 1.256000
8.348100 1.585000
8.403100 1.503700
8.458100 1.509400
8.513100 1.524700
8.568000 1.538700
8.623000 1.519400
8.678000 1.621500
8.733000 1.612300
8.788000 1.341600
8.842900 1.161000
8.897900 1.150400
8.952900 1.175700
9.007900 1.171600
9.062900 1.105800
9.117800 1.050600
9.172800 1.013400
9.227800 1.002100
9.282800 0.833800
9.337700 0.668000
9.392700 0.635800
9.447700 0.672800
9.502700 0.746300
9.557700 0.872600
9.612600 0.998600
9.667600 1.125200
9.722600 1.257800
9.777600 1.345300
9.832600 1.402100
9.887500 1.268400
9.942500 1.030100
9.997500 0.996200
10.052500 0.861000
10.107400 0.777300
10.162400 0.690400
10.217400 0.619200
10.272400 0.564600
10.327400 0.519100
10.382300 0.473400
10.437300 0.435100
10.492300 0.417000
10.547300 0.387300
10.602300 0.353400
10.657200 0.266900
10.712200 0.207100
10.767200 0.184200
10.822200 0.161600
10.877100 0.139400
10.932100 0.117500
10.987100 0.153000
11.042100 0.244900
11.097100 0.221900
11.152000 0.222900
11.207000 0.253400
11.262000 0.449800
11.317000 1.112500
11.372000 1.331900
11.426900 1.187300
11.481900 1.155700
11.536900 1.270000
11.591900 1.428300
11.646800 1.496100
11.701800 1.361900
11.756800 1.224300
11.811800 1.004500
11.866800 0.912300
11.921700 0.859300
11.976700 0.838600
12.031700 0.897900
12.086700 0.897600
12.141700 0.899700
12.196600 0.940100
12.251600 0.945600
12.306600 0.959000
12.361600 0.989200
12.416500 1.007300
12.471500 0.983200
12.526500 0.987200
12.581500 1.024300
12.636500 1.038300
12.691400 1.026600
12.746400 1.024300
12.801400 0.987000
12.856400 0.950500
12.911400 0.920200
12.966300 0.879700
13.021300 0.882500
13.076300 0.896600
13.131300 0.915900
13.186200 0.966800
13.241200 0.959000
13.296200 0.895400
13.351200 0.818200
13.406200 0.783600
13.461100 0.791200
13.516100 0.797800
13.571100 0.805400
13.626100 0.773700
13.681100 0.775000
13.736000 0.798600
13.791000 0.891900
13.846000 0.977200
13.901000 1.033600
13.955900 1.087000
14.010900 1.126100
14.065900 1.147000
14.120900 1.186900
14.175900 1.265000
14.230800 1.380400
14.285800 1.542800
14.340800 1.898700
14.395800 2.001700
14.450800 1.541300
14.505700 1.207500
14.560700 1.195200
14.615700 0.909300
14.670700 0.785900
14.725600 0.771400
14.780600 0.801300
14.835600 0.900900
14.890600 1.035100
14.945600 1.300700
15.000500 2.051800
15.055500 2.817300
15.110500 2.260700
15.165500 2.321000
15.220500 2.104900
15.275400 1.776400
15.330400 1.495900
15.385400 1.324200
15.440400 1.243000
15.495300 1.196000
15.550300 1.149700
15.605300 1.142100
15.660300 1.169600
15.715300 1.115700
15.770200 1.095200
15.825200 1.099500
15.880200 1.429200
15.935200 0.963100
15.990200 0.844000
16.045100 0.824800
16.100100 0.777500
16.155100 0.792700
16.210100 0.790400
16.265000 0.829000
16.320000 0.963300
16.375000 1.067300
16.430000 1.095300
16.485000 1.122900
16.539900 1.261400
16.594900 1.187500
16.649900 1.130300
16.704900 1.092300
16.759900 1.072100
16.814800 1.062800
16.869800 1.057200
16.924800 1.053200
16.979800 1.050900
17.034700 1.050800
17.089700 1.051400
17.144700 1.116100
17.199700 1.127500
17.254700 1.157400
17.309600 1.196200
17.364600 1.246900
17.419600 1.318400
17.474600 1.430700
17.529600 1.552100
17.584500 1.711900
17.639500 1.805900
17.694500 1.570400
17.749500 1.284000
17.804400 1.160300
17.859400 1.010700
17.914400 0.843500
17.969400 0.748100
18.024400 0.669000
18.079300 0.594400
18.134300 0.541900
18.189300 0.446900
18.244300 0.364500
18.299300 0.329700
18.354200 0.315600
18.409200 0.335400
18.464200 0.370000
18.519200 0.394400
18.574100 0.401600
18.629100 0.421500
18.684100 0.458900
18.739100 0.517000
18.794100 0.599300
18.849000 0.683600
18.904000 0.704800
18.959000 0.736100
19.014000 0.773800
19.069000 0.815200
19.123900 0.864400
19.178900 1.058900
19.233900 1.049300
19.288900 1.210200
19.343900 1.386700
19.398800 1.603200
19.453800 1.469900
19.508800 1.236900
19.563800 1.111900
19.618700 1.276800
19.673700 1.149900
19.728700 1.133400
19.783700 1.123900
19.838700 1.099100
19.893600 1.148400
19.948600 1.105200
20.003600 1.127600
20.058600 1.171200
20.113600 1.213100
20.168500 1.149600
20.223500 1.124500
20.278500 1.142600
20.333500 1.121900
20.388400 1.118400
20.443400 1.103900
20.498400 1.117200
20.553400 1.143600
20.608400 1.236200
20.663300 1.066000
20.718300 1.038100
20.773300 1.450700
20.828300 1.559300
20.883300 1.557900
20.938200 1.389100
20.993200 1.229800
21.048200 1.164500
21.103200 1.122600
21.158100 1.110100
21.213100 1.115500
21.268100 1.268700
21.323100 1.199000
21.378100 1.241100
21.433000 1.318400
21.488000 1.380600
21.543000 1.436500
21.598000 1.455500
21.653000 1.471800
21.707900 1.545400
21.762900 1.582600
21.817900 1.595800
21.872900 1.644700
21.927800 1.661100
21.982800 1.642500
22.037800 1.665000
22.092800 1.724600
22.147800 1.765400
22.202700 1.734300
22.257700 1.687500
22.312700 1.466100
22.367700 1.313400
22.422700 1.210800
22.477600 1.183400
22.532600 1.242800
22.587600 1.305100
22.642600 1.277500
22.697500 1.174900
22.752500 1.203500
22.807500 1.348000
22.862500 1.352800
22.917500 1.263700
22.972400 1.297800
23.027400 1.413500
23.082400 1.491100
23.137400 0.974200
23.192400 0.878900
23.247300 0.822300
23.302300 0.829400
23.357300 0.826500
23.412300 0.852000
23.467200 0.908100
23.522200 0.933100
23.577200 0.973600
23.632200 1.015600
23.687200 1.072800
23.742100 1.114700
23.797100 1.141100
23.852100 1.036400
23.907100 1.044100
23.962100 1.166200
24.017000 1.386800
24.072000 1.738700
24.127000 1.726700
24.182000 1.650900
24.236900 1.545600
24.291900 1.432200
24.346900 1.337000
24.401900 1.256700
24.456900 1.134200
24.511800 1.058800
24.566800 0.999400
24.621800 0.945800
24.676800 0.888400
24.731800 0.849200
24.786700 0.821700
24.841700 0.794200
24.896700 0.776100
24.951700 0.815100
25.006600 0.972200
25.061600 1.333100
25.116600 1.488100
25.171600 1.601200
25.226600 1.617800
25.281500 1.579100
25.336500 1.634100
25.391500 1.546100
25.446500 1.534100
25.501500 1.641500
25.556400 1.715700
25.611400 1.601900
25.666400 1.534500
25.721400 1.477700
25.776300 1.398800
25.831300 1.413900
25.886300 1.371700
25.941300 1.382700
25.996300 1.187800
26.051200 1.282000
26.106200 1.600800
26.161200 1.638500
26.216200 1.837900
26.271200 1.868300
26.326100 1.857000
26.381100 1.787800
26.436100 1.731300
26.491100 1.686500
26.546000 1.667800
26.601000 1.626900
26.656000 1.581600
26.711000 1.612500
26.766000 1.476000
26.820900 1.482200
26.875900 1.553100
26.930900 1.540200
26.985900 1.457800
27.040900 1.396800
27.095800 1.300600
27.150800 1.240300
27.205800 1.214700
27.260800 1.192600
27.315700 1.250400
27.370700 1.257600
27.425700 1.202100
27.480700 1.151500
27.535700 1.105600
27.590600 1.063900
27.645600 1.031800
27.700600 1.049200
27.755600 1.088100
27.810600 1.167200
27.865500 1.093500
27.920500 0.985000
27.975500 0.877100
28.030500 0.770300
28.085400 0.675800
28.140400 0.668800
28.195400 0.738300
28.250400 0.894600
28.305400 1.076400
28.360300 1.254700
28.415300 1.535900
28.470300 1.720000
28.525300 1.779800
28.580300 1.826000
28.635200 1.986900
28.690200 1.871500
28.745200 1.775300
28.800200 1.717100
28.855100 1.663000
28.910100 1.628600
28.965100 1.638300
29.020100 1.651500
29.075100 1.675500
29.130000 1.616100
29.185000 1.608100
29.240000 1.596600
29.295000 1.571200
29.350000 1.565500
29.404900 1.622800
29.459900 1.612700
29.514900 1.539000
29.569900 1.484000
29.624800 1.464300
29.679800 1.502300
29.734800 1.552900
29.789800 1.613000
29.844800 1.623600
29.899700 1.591600
29.954700 1.526500
30.009700 1.473300
30.064700 1.444300
30.119700 1.387600
30.174600 1.334500
30.229600 1.299300
30.284600 1.249100
30.339600 1.193000
30.394500 1.149600
30.449500 1.112300
30.504500 1.124200
30.559500 1.073500
30.614500 1.061000
30.669400 1.040900
30.724400 1.041700
30.779400 1.049900
30.834400 1.061000
30.889400 1.073800
30.944300 1.088400
30.999300 1.072000
31.054300 1.097100
31.109300 1.153700
31.164200 1.273200
31.219200 1.360200
31.274200 1.429400
31.329200 1.466700
31.384200 1.484000
31.439100 1.521800
31.494100 1.556900
31.549100 1.608400
31.604100 1.668200
31.659100 1.717700
31.714000 1.778900
31.769000 1.862000
31.824000 1.705600
31.879000 1.631100
31.933900 1.606500
31.988900 1.572600
32.043900 1.350200
32.098900 1.402500
32.153900 1.459100
32.208800 1.502400
32.263800 1.518700
32.318800 1.550300
32.373800 1.542900
32.428800 1.553400
32.483700 1.598100
32.538700 1.650600
32.593700 1.704100
32.648700 1.761500
32.703600 1.657500
32.758600 1.614700
32.813600 1.592800
32.868600 1.569900
32.923600 1.533800
32.978500 1.520400
33.033500 1.503200
33.088500 1.529800
33.143500 1.523700
33.198500 1.514800
33.253400 1.464600
33.308400 1.411100
33.363400 1.311300
33.418400 1.248900
33.473300 1.243600
33.528300 1.251500
33.583300 1.306700
33.638300 1.386100
33.693300 1.482600
33.748200 1.567600
33.803200 1.608200
33.858200 1.611300
33.913200 1.605700
33.968200 1.614000
34.023100 1.593800
34.078100 1.824100
34.133100 1.687000
34.188100 1.465400
34.243000 1.314600
34.298000 1.333300
34.353000 1.414300
34.408000 1.478200
34.463000 1.536400
34.517900 1.595100
34.572900 1.760500
34.627900 1.711700
34.682900 1.577100
34.737900 1.519000
34.792800 1.464200
34.847800 1.446600
34.902800 1.476400
34.957800 1.466600
35.012700 1.405600
35.067700 1.435800
35.122700 1.497100
35.177700 1.459000
35.232700 1.481200
35.287600 1.460400
35.342600 1.435000
35.397600 1.467800
35.452600 1.495500
35.507600 1.511900
35.562500 1.398000
35.617500 1.395300
35.672500 1.416200
35.727500 1.456000
35.782400 1.512800
35.837400 1.559500
35.892400 1.580000
35.947400 1.575700
36.002400 1.547300
36.057300 1.563900
36.112300 1.524400
36.167300 1.501400
36.222300 1.507500
36.277300 1.533200
36.332200 1.612500
36.387200 1.676600
36.442200 1.719000
36.497200 1.698800
36.552100 1.690600
36.607100 1.681400
36.662100 1.661700
36.717100 1.632700
36.772100 1.706600
36.827000 1.697700
36.882000 1.692500
36.937000 1.828800
36.992000 1.812000
37.047000 1.787600
37.101900 1.700500
37.156900 1.644200
37.211900 1.630100
37.266900 1.583200
37.321800 1.539700
37.376800 1.493700
37.431800 1.431400
37.486800 1.370400
37.541800 1.348100
37.596700 1.345900
37.651700 1.348300
37.706700 1.306000
37.761700 1.273100
37.816700 1.242200
37.871600 1.297400
37.926600 1.253200
37.981600 1.264000
38.036600 1.276600
38.091500 1.380300
38.146500 1.530900
38.201500 1.625000
38.256500 1.630400
38.311500 1.650000
38.366400 1.686000
38.421400 1.734500
38.476400 1.725800
38.531400 1.702600
38.586400 1.696600
38.641300 1.708400
38.696300 1.749300
38.751300 1.692500
38.806300 1.687300
38.861200 1.593800
38.916200 1.484600
38.971200 1.481100
39.026200 1.602100
39.081200 1.934800
39.136100 1.794800
39.191100 1.839000
39.246100 1.834100
39.301100 1.786700
39.356100 1.771000
39.411000 1.734900
39.466000 1.634700
39.521000 1.609000
39.576000 1.638300
39.630900 1.689500
39.685900 1.718800
39.740900 1.725900
39.795900 1.730100
39.850900 1.733500
39.905800 1.734300
39.960800 1.728200
40.015800 1.740700
40.070800 1.753500
40.125800 1.710300
40.180700 1.669700
40.235700 1.637400
40.290700 1.598000
40.345700 1.569400
40.400600 1.543600
40.455600 1.522800
40.510600 1.505700
40.565600 1.518100
40.620600 1.552900
40.675500 1.595500
40.730500 1.626800
40.785500 1.661400
40.840500 1.744100
40.895500 1.875200
40.950400 1.844700
41.005400 1.809000
41.060400 1.705600
41.115400 1.647400
41.170300 1.641100
41.225300 1.593400
41.280300 1.591700
41.335300 1.620600
41.390300 1.629900
41.445200 1.574800
41.500200 1.483600
41.555200 1.639700
41.610200 1.347200
41.665200 1.321000
41.720100 1.333200
41.775100 1.358200
41.830100 1.373400
41.885100 1.408100
41.940000 1.434000
41.995000 1.459700
42.050000 1.569000
42.105000 1.711300
42.160000 1.792700
42.214900 1.834000
42.269900 1.867700
42.324900 1.960100
42.379900 1.782700
42.434900 1.831600
42.489800 1.866100
42.544800 1.835000
42.599800 1.805800
42.654800 1.796100
42.709700 1.846200
42.764700 1.789000
42.819700 1.516600
42.874700 1.425800
42.929700 1.431200
42.984600 1.461500
43.039600 1.462200
43.094600 1.437300
43.149600 1.395600
43.204600 1.362100
43.259500 1.356800
43.314500 1.309000
43.369500 1.287900
43.424500 1.292100
43.479400 1.343600
43.534400 1.401200
43.589400 1.481400
43.644400 1.540500
43.699400 1.535200
43.754300 1.427500
43.809300 1.427700
43.864300 1.520500
43.919300 1.585400
43.974300 1.638500
44.029200 1.693500
44.084200 1.632600
44.139200 1.654400
44.194200 1.766000
44.249200 1.896600
44.304100 1.994000
44.359100 2.261000
44.414100 1.895200
44.469100 1.908600
44.524000 1.879900
44.579000 1.849100
44.634000 1.842200
44.689000 1.870700
44.744000 2.032100
44.798900 2.159000
44.853900 2.058100
44.908900 2.033200
44.963900 1.934300
45.018900 1.898100
45.073800 2.249900
45.128800 2.345900
45.183800 2.067800
45.238800 2.144600
45.293700 1.989500
45.348700 1.987600
45.403700 1.931800
45.458700 1.939300
45.513700 1.927900
45.568600 1.752300
45.623600 1.625100
45.678600 1.542200
45.733600 1.434600
45.788600 1.414500
45.843500 1.435400
45.898500 1.473000
45.953500 1.557400
46.008500 1.602900
46.063400 1.643700
46.118400 1.683800
46.173400 1.730900
46.228400 1.750200
46.283400 1.752100
46.338300 1.768500
46.393300 1.760600
46.448300 1.688600
46.503300 1.645400
46.558300 1.606000
46.613200 1.574500
46.668200 1.552200
46.723200 1.557800
46.778200 1.606400
46.833100 1.691500
46.888100 1.850900
46.943100 1.888200
46.998100 1.836700
47.053100 1.786700
47.108000 1.693400
47.163000 1.628600
47.218000 1.618900
47.273000 1.595700
47.328000 1.586700
47.382900 1.599700
47.437900 1.629400
47.492900 1.711900
47.547900 1.728500
47.602800 1.745100
47.657800 1.748100
47.712800 1.821000
47.767800 1.878100
47.822800 1.748600
47.877700 1.722500
47.932700 1.673300
47.987700 1.591300
48.042700 1.491200
48.097700 1.455600
48.152600 1.468800
48.207600 1.534800
48.262600 1.633600
48.317600 1.895200
48.372500 2.039900
48.427500 2.019000
48.482500 1.983900
48.537500 1.937700
48.592500 1.890500
48.647400 1.884600
48.702400 1.870200
48.757400 1.763000
48.812400 1.736400
48.867400 1.671200
48.922300 1.680300
48.977300 1.698900
49.032300 2.084600
49.087300 1.776300
49.142200 1.648700
49.197200 1.641400
49.252200 1.740700
49.307200 1.730900
49.362200 1.673900
49.417100 1.648900
49.472100 1.646800
49.527100 1.654000
49.582100 1.663800
49.637100 1.734000
49.692000 1.806600
49.747000 1.915700
49.802000 1.939300
49.857000 2.023200
49.911900 2.029900
49.966900 2.058800
50.021900 2.029400
50.076900 2.018200
50.131900 1.909500
50.186800 1.758900
50.241800 1.649000
50.296800 1.535400
50.351800 1.475100
50.406800 1.455800
50.461700 1.464000
50.516700 1.497100
50.571700 1.599800
50.626700 1.534300
50.681600 1.518700
50.736600 1.519300
50.791600 1.591900
50.846600 1.602400
50.901600 1.607600
50.956500 1.612100
51.011500 1.641300
51.066500 1.655300
51.121500 1.799200
51.176500 1.805600
51.231400 1.779400
51.286400 1.715500
51.341400 1.672200
51.396400 1.677000
51.451300 1.961400
51.506300 1.800600
51.561300 1.952000
51.616300 2.044200
51.671300 2.118300
51.726200 2.183500
51.781200 2.256200
51.836200 2.304200
51.891200 2.252500
51.946200 2.198200
52.001100 2.125300
52.056100 2.040800
52.111100 1.938500
52.166100 1.855000
52.221000 1.820300
52.276000 1.729200
52.331000 1.716400
52.386000 1.711600
52.441000 1.717300
52.495900 1.862700
52.550900 1.995300
52.605900 1.969500
52.660900 1.841500
52.715900 1.788700
52.770800 1.771100
52.825800 1.756400
52.880800 1.766800
52.935800 1.841300
52.990700 1.888600
53.045700 1.832900
53.100700 1.784100
53.155700 1.787700
53.210700 1.797300
53.265600 2.003100
53.320600 1.800000
53.375600 1.865100
53.430600 1.913400
53.485600 1.927600
53.540500 1.946100
53.595500 1.907500
53.650500 1.864600
53.705500 1.805300
53.760400 1.702700
53.815400 1.672400
53.870400 1.574000
53.925400 1.546600
53.980400 1.546700
54.035300 1.576400
54.090300 1.604200
54.145300 1.584700
54.200300 1.614800
54.255300 1.665900
54.310200 1.735900
54.365200 1.813200
54.420200 1.718000
54.475200 1.702600
54.530100 1.755000
54.585100 1.831500
54.640100 1.911600
54.695100 1.949900
54.750100 2.002000
54.805000 2.090200
54.860000 2.227300
54.915000 2.211300
54.970000 2.174100
55.025000 2.110300
55.079900 2.068300
55.134900 1.998100
55.189900 2.011200
55.244900 2.085200
55.299800 2.124500
55.354800 2.163600
55.409800 2.085200
55.464800 1.953400
55.519800 1.869500
55.574700 1.836100
55.629700 1.849500
55.684700 1.907500
55.739700 1.975900
55.794700 2.027700
55.849600 2.049900
55.904600 2.077900
55.959600 2.139900
56.014600 2.003700
56.069500 1.908200
56.124500 1.842500
56.179500 1.773200
56.234500 1.680300
56.289500 1.624000
56.344400 1.611200
56.399400 1.573100
56.454400 1.615800
56.509400 1.596400
56.564400 1.565200
56.619300 1.528300
56.674300 1.481500
56.729300 1.426900
56.784300 1.385400
56.839200 1.390700
56.894200 1.321500
56.949200 1.321900
57.004200 1.341300
57.059200 1.354300
57.114100 1.357700
57.169100 1.371800
57.224100 1.402700
57.279100 1.431300
57.334100 1.466900
57.389000 1.508100
57.444000 1.542200
57.499000 1.574000
57.554000 1.589100
57.608900 1.582800
57.663900 1.580400
57.718900 1.582300
57.773900 1.592700
57.828900 1.615400
57.883800 1.693400
57.938800 1.660800
57.993800 1.673200
58.048800 1.740400
58.103800 2.035100
58.158700 2.141500
58.213700 2.078400
58.268700 2.091700
58.323700 2.132200
58.378600 2.034400
58.433600 2.019800
58.488600 2.034100
58.543600 2.020400
58.598600 2.016200
58.653500 1.945600
58.708500 1.811100
58.763500 1.739500
58.818500 1.691000
58.873500 1.642800
58.928400 1.610800
58.983400 1.579800
59.038400 1.550200
59.093400 1.527700
59.148300 1.504300
59.203300 1.480200
59.258300 1.428400
59.313300 1.393200
59.368300 1.362000
59.423200 1.353000
59.478200 1.383300
59.533200 1.441400
59.588200 1.473900
59.643200 1.565300
59.698100 1.583700
59.753100 1.822200
59.808100 1.821700
59.863100 1.729900
59.918000 1.716800
59.973000 1.768800
60.028000 1.992200
60.083000 1.903600
60.138000 1.947400
60.192900 2.019100
60.247900 2.109000
60.302900 1.937200
60.357900 1.925600
60.412900 1.907900
60.467800 1.952000
60.522800 1.945600
60.577800 1.884000
60.632800 1.879300
60.687700 1.946100
60.742700 2.045300
60.797700 2.017500
60.852700 1.801200
60.907700 1.738500
60.962600 1.677900
61.017600 1.597900
61.072600 1.491000
61.127600 1.446200
61.182600 1.442000
61.237500 1.433800
61.292500 1.427800
61.347500 1.411500
61.402500 1.293900
61.457400 1.189400
61.512400 1.126500
61.567400 1.090500
61.622400 1.062900
61.677400 1.048100
61.732300 1.026000
61.787300 0.990800
61.842300 0.937800
61.897300 0.859100
61.952300 0.810000
62.007200 0.746300
62.062200 0.659900
62.117200 0.570300
62.172200 0.474300
62.227100 0.366300
62.282100 0.253700
62.337100 0.216400
62.392100 0.185800
62.447100 0.157600
62.502000 0.132700
62.557000 0.113400
62.612000 0.100200
62.667000 0.089800
62.722000 0.083100
62.776900 0.081000
62.831900 0.079200
62.886900 0.067400
62.941900 0.049700
62.996800 0.038800
63.051800 0.034800
63.106800 0.030400
63.161800 0.025600
63.216800 0.020500
63.271700 0.015300
63.326700 0.012600
63.381700 0.010200
63.436700 0.008100
63.491700 0.006200
63.546600 0.004600
63.601600 0.003200
63.656600 0.002100
63.711600 0.001200
63.766500 0.000500
63.821500 0.000100
63.876500 0.000000
63.931500 0.000000
63.986500 0.000000
64.041400 0.000000
64.096400 0.000000
64.151400 0.000000
64.206400 0.000000
64.261400 0.000000
64.316300 0.000000
64.371300 0.000000
64.426300 0.000000
64.481300 0.000000
64.536200 0.000000
64.591200 0.000000
64.646200 0.000000
64.701200 0.000000
64.756200 0.000000
64.811100 0.000000
64.866100 0.000000
64.921100 0.000000
64.976100 0.000000
65.031100 0.000000
65.086000 0.000000
65.141000 0.000000
65.196000 0.000000
65.251000 0.000000
65.305900 0.000000
65.360900 0.000000
65.415900 0.000000
65.470900 0.000000
65.525900 0.000000
65.580800 0.000000
65.635800 0.000000
65.690800 0.000000
65.745800 0.000000
65.800800 0.000000
65.855700 0.000000
65.910700 0.000000
65.965700 0.000000
66.020700 0.000000
66.075600 0.000000
66.130600 0.000000
66.185600 0.000000
66.240600 0.000000
66.295600 0.000000
66.350500 0.000000
66.405500 0.000000
66.460500 0.000000
66.515500 0.000000
66.570500 0.000000
66.625400 0.000000
66.680400 0.000000
66.735400 0.000000
66.790400 0.000000
66.845300 0.000000
66.900300 0.000000
66.955300 0.000000
67.010300 0.000000
67.065300 0.000000
67.120200 0.000000
67.175200 0.000000
67.230200 0.000000
67.285200 0.000000
67.340200 0.000000
67.395100 0.000000
67.450100 0.000000
67.505100 0.000000
67.560100 0.000000
67.615000 0.000000
67.670000 0.000000
67.725000 0.000000
67.780000 0.000000
67.835000 0.000000
67.889900 0.000000
67.944900 0.000000
67.999900 0.000000
68.054900 0.000000
68.109900 0.000000
68.164800 0.000000
68.219800 0.000000
68.274800 0.000000
68.329800 0.000000
68.384800 0.000000
68.439700 0.000000
68.494700 0.000000
68.549700 0.000000
68.604700 0.000000
68.659600 0.000000
68.714600 0.000000
68.769600 0.000000
68.824600 0.000000
68.879600 0.000000
e
