set title 'mp-30500 - Density of States'
set xlabel 'Energy (eV)'
set ylabel 'DOS (states/eV)'
set grid
set xrange [-10:10]
set yrange [0:29.073]
set xzeroaxis lt -1
set terminal png size 800,600
set output 'mp-30500_dos_gnuplot.png'
plot '-' using 1:2 with lines title 'DOS'
-31.533800 0.000000
-31.508400 0.000000
-31.482900 0.000000
-31.457400 0.000000
-31.431900 0.000000
-31.406400 0.000000
-31.381000 0.000000
-31.355500 0.000000
-31.330000 0.000000
-31.304500 0.000000
-31.279100 0.000000
-31.253600 0.000000
-31.228100 0.000000
-31.202600 0.000000
-31.177100 0.000000
-31.151700 0.000000
-31.126200 0.000000
-31.100700 0.000000
-31.075200 0.000000
-31.049700 0.000000
-31.024300 0.000000
-30.998800 0.000000
-30.973300 0.000000
-30.947800 0.000000
-30.922300 0.000000
-30.896900 0.000000
-30.871400 0.000000
-30.845900 0.000000
-30.820400 0.000000
-30.795000 0.000000
-30.769500 0.000000
-30.744000 0.000000
-30.718500 0.000000
-30.693000 0.000000
-30.667600 0.000000
-30.642100 0.000000
-30.616600 0.000000
-30.591100 0.000000
-30.565600 0.000000
-30.540200 0.000000
-30.514700 0.000000
-30.489200 0.000000
-30.463700 0.000000
-30.438200 0.000000
-30.412800 0.000000
-30.387300 0.000000
-30.361800 0.000000
-30.336300 0.000000
-30.310900 0.000000
-30.285400 0.000000
-30.259900 0.000000
-30.234400 0.000000
-30.208900 0.000000
-30.183500 0.000000
-30.158000 0.000000
-30.132500 0.000000
-30.107000 0.000000
-30.081500 0.000000
-30.056100 0.000000
-30.030600 0.000000
-30.005100 0.000000
-29.979600 0.000000
-29.954200 0.000000
-29.928700 0.000000
-29.903200 0.000000
-29.877700 0.000000
-29.852200 0.000000
-29.826800 0.000000
-29.801300 0.000000
-29.775800 0.000000
-29.750300 0.000000
-29.724800 0.000000
-29.699400 0.000000
-29.673900 0.000000
-29.648400 0.000000
-29.622900 0.000000
-29.597400 0.000000
-29.572000 0.000000
-29.546500 0.000000
-29.521000 0.000000
-29.495500 0.000000
-29.470100 0.000000
-29.444600 0.000000
-29.419100 0.000000
-29.393600 0.000000
-29.368100 0.000000
-29.342700 0.000000
-29.317200 0.000000
-29.291700 0.000000
-29.266200 0.000000
-29.240700 0.000000
-29.215300 7.125900
-29.189800 33.941900
-29.164300 23.360100
-29.138800 17.520700
-29.113300 17.988200
-29.087900 4.960700
-29.062400 4.180900
-29.036900 3.772300
-29.011400 3.206500
-28.986000 15.415800
-28.960500 18.824800
-28.935000 13.941800
-28.909500 13.739400
-28.884000 16.122500
-28.858600 93.636600
-28.833100 35.232000
-28.807600 27.784000
-28.782100 23.528900
-28.756600 36.919200
-28.731200 36.240500
-28.705700 0.000000
-28.680200 0.000000
-28.654700 0.000000
-28.629200 0.000000
-28.603800 0.000000
-28.578300 0.000000
-28.552800 0.000000
-28.527300 0.000000
-28.501900 0.000000
-28.476400 0.000000
-28.450900 0.000000
-28.425400 0.000000
-28.399900 0.000000
-28.374500 0.000000
-28.349000 0.000000
-28.323500 0.000000
-28.298000 0.000000
-28.272500 0.000000
-28.247100 0.000000
-28.221600 0.000000
-28.196100 0.000000
-28.170600 0.000000
-28.145100 0.000000
-28.119700 0.000000
-28.094200 0.000000
-28.068700 0.000000
-28.043200 0.000000
-28.017800 0.000000
-27.992300 0.000000
-27.966800 0.000000
-27.941300 0.000000
-27.915800 0.000000
-27.890400 0.000000
-27.864900 0.000000
-27.839400 0.000000
-27.813900 0.000000
-27.788400 0.000000
-27.763000 0.000000
-27.737500 0.000000
-27.712000 0.000000
-27.686500 0.000000
-27.661100 0.000000
-27.635600 0.000000
-27.610100 0.000000
-27.584600 0.000000
-27.559100 0.000000
-27.533700 0.000000
-27.508200 0.000000
-27.482700 0.000000
-27.457200 0.000000
-27.431700 0.000000
-27.406300 0.000000
-27.380800 0.000000
-27.355300 0.000000
-27.329800 0.000000
-27.304300 0.000000
-27.278900 0.000000
-27.253400 0.000000
-27.227900 0.000000
-27.202400 0.000000
-27.177000 0.000000
-27.151500 0.000000
-27.126000 0.000000
-27.100500 0.000000
-27.075000 0.000000
-27.049600 0.000000
-27.024100 0.000000
-26.998600 0.000000
-26.973100 0.000000
-26.947600 0.000000
-26.922200 0.000000
-26.896700 0.000000
-26.871200 0.000000
-26.845700 0.000000
-26.820200 0.000000
-26.794800 0.000000
-26.769300 0.000000
-26.743800 0.000000
-26.718300 0.000000
-26.692900 0.000000
-26.667400 0.000000
-26.641900 0.000000
-26.616400 0.000000
-26.590900 0.000000
-26.565500 0.000000
-26.540000 0.000000
-26.514500 0.000000
-26.489000 0.000000
-26.463500 0.000000
-26.438100 0.000000
-26.412600 0.000000
-26.387100 0.000000
-26.361600 0.000000
-26.336100 0.000000
-26.310700 0.000000
-26.285200 0.000000
-26.259700 0.000000
-26.234200 0.000000
-26.208800 0.000000
-26.183300 0.000000
-26.157800 0.000000
-26.132300 0.000000
-26.106800 0.000000
-26.081400 0.000000
-26.055900 0.000000
-26.030400 0.000000
-26.004900 0.000000
-25.979400 0.000000
-25.954000 0.000000
-25.928500 0.000000
-25.903000 0.000000
-25.877500 0.000000
-25.852000 0.000000
-25.826600 0.000000
-25.801100 0.000000
-25.775600 0.000000
-25.750100 0.000000
-25.724700 0.000000
-25.699200 0.000000
-25.673700 0.000000
-25.648200 0.000000
-25.622700 0.000000
-25.597300 0.000000
-25.571800 0.000000
-25.546300 0.000000
-25.520800 0.000000
-25.495300 0.000000
-25.469900 0.000000
-25.444400 0.000000
-25.418900 0.000000
-25.393400 0.000000
-25.367900 0.000000
-25.342500 0.000000
-25.317000 0.000000
-25.291500 0.000000
-25.266000 0.000000
-25.240600 0.000000
-25.215100 0.000000
-25.189600 0.000000
-25.164100 0.000000
-25.138600 0.000000
-25.113200 0.000000
-25.087700 0.000000
-25.062200 0.000000
-25.036700 0.000000
-25.011200 0.000000
-24.985800 0.000000
-24.960300 0.000000
-24.934800 0.000000
-24.909300 0.000000
-24.883900 0.000000
-24.858400 0.000000
-24.832900 0.000000
-24.807400 0.000000
-24.781900 0.000000
-24.756500 0.000000
-24.731000 0.000000
-24.705500 0.000000
-24.680000 0.000000
-24.654500 0.000000
-24.629100 0.000000
-24.603600 0.000000
-24.578100 0.000000
-24.552600 0.000000
-24.527100 0.000000
-24.501700 0.000000
-24.476200 0.000000
-24.450700 0.000000
-24.425200 0.000000
-24.399800 0.000000
-24.374300 0.000000
-24.348800 0.000000
-24.323300 0.000000
-24.297800 0.000000
-24.272400 0.000000
-24.246900 0.000000
-24.221400 0.000000
-24.195900 0.000000
-24.170400 0.000000
-24.145000 0.000000
-24.119500 0.000000
-24.094000 0.000000
-24.068500 0.000000
-24.043000 0.000000
-24.017600 0.000000
-23.992100 0.000000
-23.966600 0.000000
-23.941100 0.000000
-23.915700 0.000000
-23.890200 0.000000
-23.864700 0.000000
-23.839200 0.000000
-23.813700 0.000000
-23.788300 0.000000
-23.762800 0.000000
-23.737300 0.000000
-23.711800 0.000000
-23.686300 0.000000
-23.660900 0.000000
-23.635400 0.000000
-23.609900 0.000000
-23.584400 0.000000
-23.558900 0.000000
-23.533500 0.000000
-23.508000 0.000000
-23.482500 0.000000
-23.457000 0.000000
-23.431600 0.000000
-23.406100 0.000000
-23.380600 0.000000
-23.355100 0.000000
-23.329600 0.000000
-23.304200 0.000000
-23.278700 0.000000
-23.253200 0.000000
-23.227700 0.000000
-23.202200 0.000000
-23.176800 0.000000
-23.151300 0.000000
-23.125800 0.000000
-23.100300 0.000000
-23.074800 0.000000
-23.049400 0.000000
-23.023900 0.000000
-22.998400 0.000000
-22.972900 0.000000
-22.947500 0.000000
-22.922000 0.000000
-22.896500 0.000000
-22.871000 0.000000
-22.845500 0.000000
-22.820100 0.000000
-22.794600 0.000000
-22.769100 0.000000
-22.743600 0.000000
-22.718100 0.000000
-22.692700 0.000000
-22.667200 0.000000
-22.641700 0.000000
-22.616200 0.000000
-22.590700 0.000000
-22.565300 0.000000
-22.539800 0.000000
-22.514300 0.000000
-22.488800 0.000000
-22.463400 0.000000
-22.437900 0.000000
-22.412400 0.000000
-22.386900 0.000000
-22.361400 0.000000
-22.336000 0.000000
-22.310500 0.000000
-22.285000 0.000000
-22.259500 0.000000
-22.234000 0.000000
-22.208600 0.000000
-22.183100 0.000000
-22.157600 0.000000
-22.132100 0.000000
-22.106700 0.000000
-22.081200 0.000000
-22.055700 0.000000
-22.030200 0.000000
-22.004700 0.000000
-21.979300 0.000000
-21.953800 0.000000
-21.928300 0.000000
-21.902800 0.000000
-21.877300 0.000000
-21.851900 0.000000
-21.826400 0.000000
-21.800900 0.000000
-21.775400 0.000000
-21.749900 0.000000
-21.724500 0.000000
-21.699000 0.000000
-21.673500 0.000000
-21.648000 0.000000
-21.622600 0.000000
-21.597100 0.000000
-21.571600 0.000000
-21.546100 0.000000
-21.520600 0.000000
-21.495200 0.000000
-21.469700 0.000000
-21.444200 0.000000
-21.418700 0.000000
-21.393200 0.000000
-21.367800 0.000000
-21.342300 0.000000
-21.316800 0.000000
-21.291300 0.000000
-21.265800 0.000000
-21.240400 0.000000
-21.214900 0.000000
-21.189400 0.000000
-21.163900 0.000000
-21.138500 0.000000
-21.113000 0.000000
-21.087500 0.000000
-21.062000 0.000000
-21.036500 0.000000
-21.011100 0.000000
-20.985600 0.000000
-20.960100 0.000000
-20.934600 0.000000
-20.909100 0.000000
-20.883700 0.000000
-20.858200 0.000000
-20.832700 0.000000
-20.807200 0.000000
-20.781700 0.000000
-20.756300 0.000000
-20.730800 0.000000
-20.705300 0.000000
-20.679800 0.000000
-20.654400 0.000000
-20.628900 0.000000
-20.603400 0.000000
-20.577900 0.000000
-20.552400 0.000000
-20.527000 0.000000
-20.501500 0.000000
-20.476000 0.000000
-20.450500 0.000000
-20.425000 0.000000
-20.399600 0.000000
-20.374100 0.000000
-20.348600 0.000000
-20.323100 0.000000
-20.297600 0.000000
-20.272200 0.000000
-20.246700 0.000000
-20.221200 0.000000
-20.195700 0.000000
-20.170300 0.000000
-20.144800 0.000000
-20.119300 0.000000
-20.093800 0.000000
-20.068300 0.000000
-20.042900 0.000000
-20.017400 0.000000
-19.991900 0.000000
-19.966400 0.000000
-19.940900 0.000000
-19.915500 0.000000
-19.890000 0.000000
-19.864500 0.000000
-19.839000 0.000000
-19.813600 0.000000
-19.788100 0.000000
-19.762600 0.000000
-19.737100 0.000000
-19.711600 0.000000
-19.686200 0.000000
-19.660700 0.000000
-19.635200 0.000000
-19.609700 0.000000
-19.584200 0.000000
-19.558800 0.000000
-19.533300 0.000000
-19.507800 0.000000
-19.482300 0.000000
-19.456800 0.000000
-19.431400 0.000000
-19.405900 0.000000
-19.380400 0.000000
-19.354900 0.000000
-19.329500 0.000000
-19.304000 0.000000
-19.278500 0.000000
-19.253000 0.000000
-19.227500 0.000000
-19.202100 0.000000
-19.176600 0.000000
-19.151100 0.000000
-19.125600 0.000000
-19.100100 0.000000
-19.074700 0.000000
-19.049200 0.000000
-19.023700 0.000000
-18.998200 0.000000
-18.972700 0.000000
-18.947300 0.000000
-18.921800 0.000000
-18.896300 0.000000
-18.870800 0.000000
-18.845400 0.000000
-18.819900 0.000000
-18.794400 0.000000
-18.768900 0.000000
-18.743400 0.000000
-18.718000 0.000000
-18.692500 0.000000
-18.667000 0.000000
-18.641500 0.000000
-18.616000 0.000000
-18.590600 0.000000
-18.565100 0.000000
-18.539600 0.000000
-18.514100 0.000000
-18.488600 0.000000
-18.463200 0.000000
-18.437700 0.000000
-18.412200 0.000000
-18.386700 0.000000
-18.361300 0.000000
-18.335800 0.000000
-18.310300 0.000000
-18.284800 0.000000
-18.259300 0.000000
-18.233900 0.000000
-18.208400 0.000000
-18.182900 0.000000
-18.157400 0.000000
-18.131900 0.000000
-18.106500 0.000000
-18.081000 0.000000
-18.055500 0.000000
-18.030000 0.000000
-18.004500 0.000000
-17.979100 0.000000
-17.953600 0.000000
-17.928100 0.000000
-17.902600 0.000000
-17.877200 0.000000
-17.851700 0.000000
-17.826200 0.000000
-17.800700 0.000000
-17.775200 0.000000
-17.749800 0.000000
-17.724300 0.000000
-17.698800 0.000000
-17.673300 0.000000
-17.647800 0.000000
-17.622400 0.000000
-17.596900 0.000000
-17.571400 0.000000
-17.545900 0.000000
-17.520400 0.000000
-17.495000 0.000000
-17.469500 0.000000
-17.444000 0.000000
-17.418500 0.000000
-17.393100 0.000000
-17.367600 0.000000
-17.342100 0.000000
-17.316600 0.000000
-17.291100 0.000000
-17.265700 0.000000
-17.240200 0.000000
-17.214700 0.000000
-17.189200 0.000000
-17.163700 0.000000
-17.138300 0.000000
-17.112800 0.000000
-17.087300 0.000000
-17.061800 0.000000
-17.036400 0.000000
-17.010900 0.000000
-16.985400 0.000000
-16.959900 0.000000
-16.934400 0.000000
-16.909000 0.000000
-16.883500 0.000000
-16.858000 0.000000
-16.832500 0.000000
-16.807000 0.000000
-16.781600 0.000000
-16.756100 0.000000
-16.730600 0.000000
-16.705100 0.000000
-16.679600 0.000000
-16.654200 0.000000
-16.628700 0.000000
-16.603200 0.000000
-16.577700 0.000000
-16.552300 0.000000
-16.526800 0.000000
-16.501300 0.000000
-16.475800 0.000000
-16.450300 0.000000
-16.424900 0.000000
-16.399400 0.000000
-16.373900 0.000000
-16.348400 0.000000
-16.322900 0.000000
-16.297500 0.000000
-16.272000 0.000000
-16.246500 0.000000
-16.221000 0.000000
-16.195500 0.000000
-16.170100 0.000000
-16.144600 0.000000
-16.119100 0.000000
-16.093600 0.000000
-16.068200 0.000000
-16.042700 0.000000
-16.017200 0.000000
-15.991700 0.000000
-15.966200 0.000000
-15.940800 0.000000
-15.915300 0.000000
-15.889800 0.000000
-15.864300 0.000000
-15.838800 0.000000
-15.813400 0.000000
-15.787900 0.000000
-15.762400 0.000000
-15.736900 0.000000
-15.711400 0.000000
-15.686000 0.000000
-15.660500 0.000000
-15.635000 0.000000
-15.609500 0.000000
-15.584100 0.000000
-15.558600 0.000000
-15.533100 0.000000
-15.507600 0.000000
-15.482100 0.000000
-15.456700 0.000000
-15.431200 0.000000
-15.405700 0.000000
-15.380200 0.000000
-15.354700 0.000000
-15.329300 0.000000
-15.303800 0.000000
-15.278300 0.000000
-15.252800 0.000000
-15.227300 0.000000
-15.201900 0.000000
-15.176400 0.000000
-15.150900 0.000000
-15.125400 0.000000
-15.100000 0.000000
-15.074500 0.000000
-15.049000 0.000000
-15.023500 0.000000
-14.998000 0.000000
-14.972600 0.000000
-14.947100 0.000000
-14.921600 0.000000
-14.896100 0.000000
-14.870600 0.000000
-14.845200 0.000000
-14.819700 0.000000
-14.794200 0.000000
-14.768700 0.000000
-14.743200 0.000000
-14.717800 0.000000
-14.692300 0.000000
-14.666800 0.000000
-14.641300 0.000000
-14.615900 0.000000
-14.590400 0.000000
-14.564900 0.000000
-14.539400 0.000000
-14.513900 0.000000
-14.488500 0.000000
-14.463000 0.000000
-14.437500 0.000000
-14.412000 0.000000
-14.386500 0.000000
-14.361100 0.000000
-14.335600 0.000000
-14.310100 0.000000
-14.284600 0.000000
-14.259200 0.000000
-14.233700 0.000000
-14.208200 0.000000
-14.182700 0.000000
-14.157200 0.000000
-14.131800 0.000000
-14.106300 0.000000
-14.080800 0.000000
-14.055300 0.000000
-14.029800 0.000000
-14.004400 0.000000
-13.978900 0.000000
-13.953400 0.000000
-13.927900 0.000000
-13.902400 0.000000
-13.877000 0.000000
-13.851500 0.000000
-13.826000 0.000000
-13.800500 0.000000
-13.775100 0.000000
-13.749600 0.000000
-13.724100 0.000000
-13.698600 0.000000
-13.673100 0.000000
-13.647700 0.000000
-13.622200 0.000000
-13.596700 0.000000
-13.571200 0.000000
-13.545700 0.000000
-13.520300 0.000000
-13.494800 0.000000
-13.469300 0.000000
-13.443800 0.000000
-13.418300 0.000000
-13.392900 0.000000
-13.367400 0.000000
-13.341900 0.000000
-13.316400 0.000000
-13.291000 0.000000
-13.265500 0.000000
-13.240000 0.000000
-13.214500 0.000000
-13.189000 0.000000
-13.163600 0.000000
-13.138100 0.000000
-13.112600 0.000000
-13.087100 0.000000
-13.061600 0.000000
-13.036200 0.000000
-13.010700 0.000000
-12.985200 0.000000
-12.959700 0.000000
-12.934200 0.000000
-12.908800 0.000000
-12.883300 0.000000
-12.857800 0.000000
-12.832300 0.000000
-12.806900 0.000000
-12.781400 0.000000
-12.755900 0.000000
-12.730400 0.000000
-12.704900 0.000000
-12.679500 0.000000
-12.654000 0.000000
-12.628500 0.000000
-12.603000 0.000000
-12.577500 0.000000
-12.552100 0.000000
-12.526600 0.000000
-12.501100 0.000000
-12.475600 0.000000
-12.450100 0.000000
-12.424700 0.000000
-12.399200 0.000000
-12.373700 0.000000
-12.348200 0.000000
-12.322800 0.000000
-12.297300 0.000000
-12.271800 0.000000
-12.246300 0.000000
-12.220800 0.000000
-12.195400 0.000000
-12.169900 0.000000
-12.144400 0.000000
-12.118900 0.000000
-12.093400 0.000000
-12.068000 0.000000
-12.042500 0.000000
-12.017000 0.000000
-11.991500 0.000000
-11.966100 0.000000
-11.940600 0.000000
-11.915100 0.000000
-11.889600 0.000000
-11.864100 0.000000
-11.838700 0.000000
-11.813200 0.000000
-11.787700 0.000000
-11.762200 0.000000
-11.736700 0.000000
-11.711300 0.000000
-11.685800 0.000000
-11.660300 0.000000
-11.634800 0.000000
-11.609300 0.000000
-11.583900 0.000000
-11.558400 0.000000
-11.532900 0.000000
-11.507400 0.000000
-11.482000 0.000000
-11.456500 0.000000
-11.431000 0.000000
-11.405500 0.000000
-11.380000 0.000000
-11.354600 0.000000
-11.329100 0.000000
-11.303600 0.000000
-11.278100 0.000000
-11.252600 0.000000
-11.227200 0.000000
-11.201700 0.000000
-11.176200 0.000000
-11.150700 0.000000
-11.125200 0.000000
-11.099800 0.000000
-11.074300 0.000000
-11.048800 0.000000
-11.023300 0.000000
-10.997900 0.000000
-10.972400 0.000000
-10.946900 0.000000
-10.921400 0.000000
-10.895900 0.000000
-10.870500 0.000000
-10.845000 0.000000
-10.819500 0.000000
-10.794000 0.000000
-10.768500 0.000000
-10.743100 0.000000
-10.717600 0.000000
-10.692100 0.000000
-10.666600 0.000000
-10.641100 0.000000
-10.615700 0.000000
-10.590200 0.000000
-10.564700 0.000000
-10.539200 0.000000
-10.513800 0.000000
-10.488300 0.000000
-10.462800 0.000000
-10.437300 0.000000
-10.411800 0.000000
-10.386400 0.000000
-10.360900 0.000000
-10.335400 0.000000
-10.309900 0.000000
-10.284400 0.000000
-10.259000 0.000000
-10.233500 0.000000
-10.208000 0.000000
-10.182500 0.000000
-10.157000 0.000000
-10.131600 0.000000
-10.106100 0.000000
-10.080600 0.000000
-10.055100 0.000000
-10.029700 0.000000
-10.004200 0.000000
-9.978700 0.000000
-9.953200 0.000000
-9.927700 0.000000
-9.902300 0.000000
-9.876800 0.000000
-9.851300 0.000000
-9.825800 0.000000
-9.800300 0.000000
-9.774900 0.000000
-9.749400 0.000000
-9.723900 0.000000
-9.698400 0.000000
-9.672900 0.000000
-9.647500 0.000000
-9.622000 0.000000
-9.596500 0.000000
-9.571000 0.000000
-9.545600 0.000000
-9.520100 0.000000
-9.494600 0.000000
-9.469100 0.000000
-9.443600 0.000000
-9.418200 0.000000
-9.392700 0.000000
-9.367200 0.000000
-9.341700 0.000000
-9.316200 0.000000
-9.290800 0.000000
-9.265300 0.000000
-9.239800 0.000000
-9.214300 0.000000
-9.188900 0.000000
-9.163400 0.000000
-9.137900 0.000000
-9.112400 0.000000
-9.086900 0.000000
-9.061500 0.000000
-9.036000 0.000000
-9.010500 0.000000
-8.985000 0.000000
-8.959500 0.000000
-8.934100 0.000000
-8.908600 0.000000
-8.883100 0.000000
-8.857600 0.000000
-8.832100 0.000000
-8.806700 0.000000
-8.781200 0.000000
-8.755700 0.000000
-8.730200 0.000000
-8.704800 0.000000
-8.679300 0.000000
-8.653800 0.000000
-8.628300 0.000000
-8.602800 0.000000
-8.577400 0.000000
-8.551900 0.000000
-8.526400 0.000000
-8.500900 0.000000
-8.475400 0.000000
-8.450000 0.000000
-8.424500 0.000000
-8.399000 0.000000
-8.373500 0.000000
-8.348000 0.000000
-8.322600 0.000000
-8.297100 0.000000
-8.271600 0.000000
-8.246100 0.000000
-8.220700 0.000000
-8.195200 0.000000
-8.169700 0.000000
-8.144200 0.000000
-8.118700 0.000000
-8.093300 0.000000
-8.067800 0.000000
-8.042300 0.000000
-8.016800 0.000000
-7.991300 0.000000
-7.965900 0.000000
-7.940400 0.000000
-7.914900 0.000000
-7.889400 0.000000
-7.863900 0.000000
-7.838500 0.000000
-7.813000 0.000000
-7.787500 0.000000
-7.762000 0.000000
-7.736600 0.000000
-7.711100 0.000000
-7.685600 0.000000
-7.660100 0.000000
-7.634600 0.000000
-7.609200 0.000000
-7.583700 0.000000
-7.558200 0.000000
-7.532700 0.000000
-7.507200 0.000000
-7.481800 0.000000
-7.456300 0.000000
-7.430800 0.000000
-7.405300 0.000000
-7.379800 0.000000
-7.354400 0.000000
-7.328900 0.000000
-7.303400 0.000000
-7.277900 0.000000
-7.252500 0.000000
-7.227000 0.000000
-7.201500 0.000000
-7.176000 0.000000
-7.150500 0.000000
-7.125100 0.000000
-7.099600 0.000000
-7.074100 0.000000
-7.048600 0.000000
-7.023100 0.000000
-6.997700 0.000000
-6.972200 0.000000
-6.946700 0.000000
-6.921200 0.000000
-6.895700 0.000000
-6.870300 0.000000
-6.844800 0.000000
-6.819300 0.000000
-6.793800 0.000000
-6.768400 0.000000
-6.742900 0.000000
-6.717400 0.000000
-6.691900 0.000000
-6.666400 0.000000
-6.641000 0.000000
-6.615500 0.000000
-6.590000 0.000000
-6.564500 0.000000
-6.539000 0.000000
-6.513600 0.000000
-6.488100 0.000000
-6.462600 0.000000
-6.437100 0.000000
-6.411700 0.000000
-6.386200 0.000000
-6.360700 0.000000
-6.335200 0.000000
-6.309700 0.000000
-6.284300 0.000000
-6.258800 0.000000
-6.233300 0.000000
-6.207800 0.000000
-6.182300 0.000000
-6.156900 0.000000
-6.131400 0.000000
-6.105900 0.000000
-6.080400 0.000000
-6.054900 0.000000
-6.029500 0.000000
-6.004000 0.000000
-5.978500 0.000000
-5.953000 0.000000
-5.927600 0.000000
-5.902100 0.000000
-5.876600 0.000000
-5.851100 0.000000
-5.825600 0.000000
-5.800200 0.000000
-5.774700 0.000000
-5.749200 0.000000
-5.723700 0.000000
-5.698200 0.000000
-5.672800 0.000000
-5.647300 0.000000
-5.621800 0.000000
-5.596300 0.000000
-5.570800 0.000000
-5.545400 0.752400
-5.519900 0.888800
-5.494400 1.063500
-5.468900 1.078500
-5.443500 1.193700
-5.418000 1.263800
-5.392500 1.374800
-5.367000 1.548400
-5.341500 2.646200
-5.316100 4.716200
-5.290600 4.792200
-5.265100 5.188400
-5.239600 6.357500
-5.214100 6.844400
-5.188700 8.307200
-5.163200 10.149700
-5.137700 13.019200
-5.112200 12.739800
-5.086700 14.697100
-5.061300 15.626900
-5.035800 25.088500
-5.010300 22.106300
-4.984800 17.746300
-4.959400 16.115300
-4.933900 15.908800
-4.908400 16.380600
-4.882900 18.074400
-4.857400 16.920600
-4.832000 14.048100
-4.806500 7.340100
-4.781000 5.261900
-4.755500 4.950400
-4.730000 5.697300
-4.704600 5.627300
-4.679100 6.671100
-4.653600 6.784300
-4.628100 9.649900
-4.602600 13.309100
-4.577200 13.455700
-4.551700 10.378000
-4.526200 10.731100
-4.500700 15.607900
-4.475300 26.429800
-4.449800 22.145100
-4.424300 18.241600
-4.398800 13.765200
-4.373300 19.033200
-4.347900 14.929400
-4.322400 17.410700
-4.296900 18.466200
-4.271400 16.963500
-4.245900 14.648400
-4.220500 14.367600
-4.195000 19.027500
-4.169500 19.477200
-4.144000 23.461600
-4.118600 16.836600
-4.093100 23.032700
-4.067600 25.522800
-4.042100 16.514800
-4.016600 13.766500
-3.991200 9.611000
-3.965700 4.742300
-3.940200 4.142600
-3.914700 3.789400
-3.889200 1.911000
-3.863800 1.847400
-3.838300 1.793900
-3.812800 1.657900
-3.787300 1.585100
-3.761800 1.590800
-3.736400 1.569700
-3.710900 1.520200
-3.685400 1.497600
-3.659900 1.443100
-3.634500 1.369700
-3.609000 1.337900
-3.583500 1.417700
-3.558000 1.280700
-3.532500 1.010400
-3.507100 0.338600
-3.481600 0.340600
-3.456100 0.337500
-3.430600 0.334900
-3.405100 0.332200
-3.379700 0.326100
-3.354200 0.321800
-3.328700 0.321800
-3.303200 0.322400
-3.277700 0.323800
-3.252300 0.325900
-3.226800 0.328500
-3.201300 0.331600
-3.175800 0.332000
-3.150400 0.329400
-3.124900 0.326600
-3.099400 0.322700
-3.073900 0.317200
-3.048400 0.313900
-3.023000 0.312800
-2.997500 0.311800
-2.972000 0.311600
-2.946500 0.311900
-2.921000 0.312700
-2.895600 0.314000
-2.870100 0.315700
-2.844600 0.317300
-2.819100 0.318900
-2.793600 0.320600
-2.768200 0.320700
-2.742700 0.318400
-2.717200 0.315800
-2.691700 0.312500
-2.666300 0.308900
-2.640800 0.307100
-2.615300 0.306300
-2.589800 0.305500
-2.564300 0.305000
-2.538900 0.304800
-2.513400 0.304900
-2.487900 0.305300
-2.462400 0.305800
-2.436900 0.306400
-2.411500 0.307000
-2.386000 0.307700
-2.360500 0.308400
-2.335000 0.309300
-2.309500 0.310400
-2.284100 0.311600
-2.258600 0.315900
-2.233100 0.330000
-2.207600 0.350100
-2.182200 0.366600
-2.156700 0.380500
-2.131200 0.395900
-2.105700 0.407200
-2.080200 0.414200
-2.054800 0.423100
-2.029300 0.432200
-2.003800 0.440000
-1.978300 0.447600
-1.952800 0.454900
-1.927400 0.462500
-1.901900 0.471900
-1.876400 0.482100
-1.850900 0.492700
-1.825400 0.503600
-1.800000 0.513900
-1.774500 0.525400
-1.749000 0.537800
-1.723500 0.549300
-1.698100 0.560900
-1.672600 0.573700
-1.647100 0.587300
-1.621600 0.601200
-1.596100 0.613900
-1.570700 0.626100
-1.545200 0.633200
-1.519700 0.632300
-1.494200 0.633000
-1.468700 0.634300
-1.443300 0.633900
-1.417800 0.632500
-1.392300 0.632700
-1.366800 0.634400
-1.341400 0.635600
-1.315900 0.636600
-1.290400 0.637400
-1.264900 0.638100
-1.239400 0.638400
-1.214000 0.638300
-1.188500 0.639000
-1.163000 0.641000
-1.137500 0.643300
-1.112000 0.645900
-1.086600 0.648000
-1.061100 0.649500
-1.035600 0.650500
-1.010100 0.651100
-0.984600 0.651400
-0.959200 0.651600
-0.933700 0.651800
-0.908200 0.652600
-0.882700 0.653300
-0.857300 0.653000
-0.831800 0.652500
-0.806300 0.652800
-0.780800 0.653700
-0.755300 0.654600
-0.729900 0.655300
-0.704400 0.655800
-0.678900 0.656500
-0.653400 0.657200
-0.627900 0.658000
-0.602500 0.658700
-0.577000 0.659300
-0.551500 0.662500
-0.526000 0.669000
-0.500500 0.677200
-0.475100 0.684500
-0.449600 0.691200
-0.424100 0.698300
-0.398600 0.706000
-0.373200 0.714200
-0.347700 0.722800
-0.322200 0.731100
-0.296700 0.738900
-0.271200 0.746600
-0.245800 0.754400
-0.220300 0.762200
-0.194800 0.768800
-0.169300 0.774000
-0.143800 0.779200
-0.118400 0.785300
-0.092900 0.791800
-0.067400 0.797800
-0.041900 0.802700
-0.016400 0.807900
0.009000 0.813400
0.034500 0.819000
0.060000 0.824600
0.085500 0.830200
0.110900 0.835900
0.136400 0.841600
0.161900 0.847400
0.187400 0.853100
0.212900 0.858600
0.238300 0.864600
0.263800 0.871200
0.289300 0.877600
0.314800 0.884000
0.340300 0.890500
0.365700 0.897200
0.391200 0.904200
0.416700 0.911300
0.442200 0.918500
0.467700 0.926500
0.493100 0.935100
0.518600 0.943800
0.544100 0.952600
0.569600 0.961900
0.595000 0.971300
0.620500 0.980600
0.646000 0.990100
0.671500 0.999400
0.697000 1.008400
0.722400 1.017400
0.747900 1.026400
0.773400 1.260300
0.798900 1.439100
0.824400 1.172800
0.849800 1.154500
0.875300 1.155500
0.900800 1.156600
0.926300 1.158100
0.951800 1.108900
0.977200 1.114000
1.002700 1.117500
1.028200 1.119300
1.053700 1.120900
1.079100 1.123600
1.104600 1.126500
1.130100 1.129200
1.155600 1.112300
1.181100 1.115800
1.206500 1.119900
1.232000 1.130300
1.257500 1.153000
1.283000 1.175100
1.308500 1.197900
1.333900 1.216400
1.359400 1.233000
1.384900 1.245100
1.410400 1.255300
1.435800 1.271600
1.461300 1.296700
1.486800 1.320100
1.512300 1.409200
1.537800 1.493000
1.563200 1.485800
1.588700 1.489900
1.614200 1.518800
1.639700 1.560500
1.665200 1.575100
1.690600 1.552200
1.716100 1.534100
1.741600 1.552500
1.767100 1.572300
1.792600 1.593900
1.818000 1.831500
1.843500 1.852000
1.869000 1.913400
1.894500 2.019700
1.919900 2.109600
1.945400 2.250200
1.970900 2.433100
1.996400 2.628800
2.021900 2.743700
2.047300 2.950600
2.072800 3.251600
2.098300 3.698800
2.123800 5.192700
2.149300 3.806900
2.174700 3.624900
2.200200 3.673500
2.225700 3.995300
2.251200 3.778400
2.276700 4.103400
2.302100 2.360700
2.327600 1.928700
2.353100 1.746300
2.378600 1.765700
2.404000 1.790700
2.429500 1.825800
2.455000 1.873000
2.480500 1.938600
2.506000 2.020600
2.531400 2.154700
2.556900 2.280500
2.582400 2.459300
2.607900 2.686900
2.633400 3.128500
2.658800 3.951700
2.684300 4.228500
2.709800 3.904200
2.735300 3.348700
2.760800 3.376000
2.786200 3.582400
2.811700 3.353400
2.837200 3.414700
2.862700 3.370900
2.888100 3.757600
2.913600 4.042300
2.939100 4.826400
2.964600 5.677600
2.990100 5.558700
3.015500 5.738200
3.041000 5.475800
3.066500 4.950700
3.092000 4.235000
3.117500 3.931000
3.142900 3.845500
3.168400 3.905000
3.193900 4.048400
3.219400 4.649400
3.244900 5.778400
3.270300 5.897200
3.295800 5.768500
3.321300 5.777900
3.346800 5.831700
3.372200 5.690000
3.397700 6.472400
3.423200 7.885200
3.448700 4.150400
3.474200 3.456000
3.499600 2.958200
3.525100 2.207300
3.550600 1.520200
3.576100 1.774600
3.601600 2.082900
3.627000 2.227800
3.652500 2.329200
3.678000 2.486800
3.703500 2.724100
3.728900 3.022100
3.754400 3.311400
3.779900 3.493700
3.805400 3.490900
3.830900 3.418200
3.856300 3.352800
3.881800 3.256700
3.907300 3.089200
3.932800 2.946800
3.958300 2.423900
3.983700 2.000400
4.009200 1.784300
4.034700 1.581800
4.060200 1.437000
4.085700 1.331500
4.111100 1.280400
4.136600 2.480100
4.162100 2.756200
4.187600 2.590800
4.213000 2.418000
4.238500 2.874000
4.264000 2.886900
4.289500 3.034100
4.315000 3.233700
4.340400 3.252200
4.365900 3.397500
4.391400 3.841300
4.416900 2.724500
4.442400 2.546100
4.467800 2.468700
4.493300 2.434900
4.518800 2.977200
4.544300 3.676200
4.569800 3.965300
4.595200 3.920100
4.620700 3.825300
4.646200 4.139600
4.671700 4.519800
4.697100 5.203800
4.722600 6.784200
4.748100 6.034500
4.773600 3.502000
4.799100 3.326300
4.824500 3.962000
4.850000 4.335900
4.875500 4.623200
4.901000 4.706900
4.926500 4.870900
4.951900 5.423300
4.977400 6.825800
5.002900 4.785000
5.028400 4.386200
5.053900 5.149200
5.079300 5.107900
5.104800 4.781800
5.130300 5.062100
5.155800 5.521700
5.181200 6.664700
5.206700 8.969500
5.232200 8.790200
5.257700 8.757500
5.283200 8.166200
5.308600 8.466800
5.334100 8.082400
5.359600 6.965700
5.385100 8.311500
5.410600 8.820900
5.436000 4.687300
5.461500 3.854600
5.487000 3.405500
5.512500 3.075900
5.538000 2.935300
5.563400 3.038100
5.588900 3.332400
5.614400 3.933400
5.639900 4.279300
5.665300 5.609400
5.690800 5.428700
5.716300 4.258500
5.741800 2.810400
5.767300 3.197800
5.792700 4.330300
5.818200 4.521800
5.843700 4.317200
5.869200 4.248500
5.894700 4.230700
5.920100 4.254500
5.945600 4.251200
5.971100 4.404200
5.996600 4.728100
6.022100 5.250600
6.047500 6.130000
6.073000 5.589000
6.098500 5.077200
6.124000 4.851500
6.149400 4.445700
6.174900 4.220500
6.200400 4.031800
6.225900 4.144300
6.251400 4.937500
6.276800 6.632200
6.302300 3.087000
6.327800 2.828700
6.353300 2.710100
6.378800 2.619200
6.404200 2.551900
6.429700 2.701500
6.455200 2.609100
6.480700 2.237500
6.506100 2.021100
6.531600 1.828600
6.557100 1.669900
6.582600 1.538700
6.608100 1.492800
6.633500 1.687000
6.659000 2.126900
6.684500 2.636800
6.710000 3.418100
6.735500 5.693900
6.760900 6.100900
6.786400 7.239100
6.811900 6.519200
6.837400 6.821000
6.862900 6.989300
6.888300 7.576500
6.913800 7.186800
6.939300 6.288300
6.964800 5.930900
6.990200 5.696200
7.015700 5.588200
7.041200 5.353300
7.066700 5.148300
7.092200 5.507100
7.117600 7.588800
7.143100 5.571900
7.168600 4.587400
7.194100 4.567800
7.219600 4.744800
7.245000 4.147800
7.270500 3.771400
7.296000 3.654400
7.321500 3.550000
7.347000 3.489100
7.372400 3.486500
7.397900 3.453700
7.423400 3.415000
7.448900 3.400500
7.474300 3.331900
7.499800 3.348200
7.525300 3.275700
7.550800 3.770300
7.576300 3.008100
7.601700 2.860800
7.627200 2.717700
7.652700 2.588400
7.678200 2.581500
7.703700 2.247100
7.729100 2.206800
7.754600 2.188200
7.780100 2.143500
7.805600 2.155400
7.831100 2.158500
7.856500 2.149700
7.882000 2.213400
7.907500 2.220900
7.933000 2.223900
7.958400 2.223100
7.983900 2.240500
8.009400 2.355600
8.034900 2.297900
8.060400 2.356100
8.085800 2.412000
8.111300 2.421700
8.136800 2.440200
8.162300 2.552800
8.187800 2.436400
8.213200 2.397000
8.238700 2.345000
8.264200 2.273300
8.289700 2.245500
8.315200 2.216200
8.340600 2.096000
8.366100 2.014200
8.391600 1.959400
8.417100 1.861400
8.442500 1.769700
8.468000 1.711000
8.493500 1.724100
8.519000 1.766800
8.544500 1.809200
8.569900 1.806500
8.595400 1.773400
8.620900 1.851700
8.646400 1.892400
8.671900 1.947000
8.697300 2.001400
8.722800 2.043300
8.748300 2.096400
8.773800 2.261200
8.799300 2.322000
8.824700 2.265100
8.850200 2.170900
8.875700 2.018900
8.901200 1.927500
8.926600 1.865800
8.952100 1.819500
8.977600 1.814700
9.003100 1.795300
9.028600 1.756200
9.054000 1.660700
9.079500 1.653600
9.105000 1.661100
9.130500 1.651000
9.156000 1.635000
9.181400 1.638300
9.206900 1.666000
9.232400 1.636500
9.257900 1.610300
9.283300 1.601000
9.308800 1.578600
9.334300 1.530400
9.359800 1.475500
9.385300 1.431100
9.410700 1.394100
9.436200 1.359500
9.461700 1.329300
9.487200 1.315700
9.512700 1.312200
9.538100 1.318000
9.563600 1.314600
9.589100 1.310500
9.614600 1.317600
9.640100 1.340000
9.665500 1.348800
9.691000 1.324100
9.716500 1.281300
9.742000 1.230800
9.767400 1.185800
9.792900 1.144300
9.818400 1.181400
9.843900 1.177700
9.869400 1.128000
9.894800 1.106900
9.920300 1.101000
9.945800 1.095500
9.971300 1.071300
9.996800 1.055000
10.022200 1.053600
10.047700 1.057500
10.073200 1.062300
10.098700 1.069600
10.124200 1.081200
10.149600 1.094500
10.175100 1.109800
10.200600 1.140400
10.226100 1.170600
10.251500 1.181000
10.277000 1.194700
10.302500 1.209900
10.328000 1.219000
10.353500 1.210400
10.378900 1.197700
10.404400 1.185500
10.429900 1.192200
10.455400 1.210200
10.480900 1.292500
10.506300 1.376000
10.531800 1.476900
10.557300 1.767400
10.582800 1.975300
10.608300 2.001100
10.633700 2.071100
10.659200 2.135700
10.684700 2.162600
10.710200 2.209700
10.735600 2.301100
10.761100 2.540100
10.786600 2.645100
10.812100 2.680300
10.837600 2.567400
10.863000 2.458900
10.888500 2.306700
10.914000 2.127900
10.939500 1.946500
10.965000 1.860200
10.990400 1.811800
11.015900 1.778400
11.041400 2.009700
11.066900 1.864200
11.092400 1.919200
11.117800 2.012900
11.143300 2.144000
11.168800 2.337600
11.194300 2.453900
11.219700 2.375000
11.245200 2.442700
11.270700 2.366800
11.296200 2.319500
11.321700 2.295400
11.347100 2.285600
11.372600 2.276400
11.398100 2.245700
11.423600 2.196800
11.449100 2.185400
11.474500 2.404000
11.500000 2.237000
11.525500 2.137600
11.551000 2.079700
11.576400 2.042300
11.601900 2.018600
11.627400 2.007600
11.652900 2.004300
11.678400 1.991400
11.703800 1.976400
11.729300 1.975300
11.754800 1.944000
11.780300 1.989100
11.805800 1.978600
11.831200 1.950300
11.856700 1.895900
11.882200 1.860700
11.907700 1.826700
11.933200 1.784700
11.958600 1.737300
11.984100 1.696100
12.009600 1.663700
12.035100 1.637100
12.060500 1.626600
12.086000 1.620600
12.111500 1.605600
12.137000 1.567000
12.162500 1.532100
12.187900 1.500200
12.213400 1.468600
12.238900 1.438500
12.264400 1.405800
12.289900 1.384600
12.315300 1.373800
12.340800 1.373100
12.366300 1.370300
12.391800 1.355700
12.417300 1.340300
12.442700 1.326800
12.468200 1.314100
12.493700 1.315700
12.519200 1.336900
12.544600 1.333600
12.570100 1.313900
12.595600 1.302300
12.621100 1.323200
12.646600 1.332100
12.672000 1.289100
12.697500 1.273300
12.723000 1.321200
12.748500 1.377400
12.774000 1.445600
12.799400 1.539600
12.824900 1.663900
12.850400 1.728400
12.875900 1.786700
12.901400 1.758800
12.926800 1.753000
12.952300 1.749600
12.977800 1.762500
13.003300 1.792200
13.028700 1.828900
13.054200 1.862800
13.079700 1.866700
13.105200 1.835900
13.130700 1.834700
13.156100 1.793900
13.181600 1.757000
13.207100 1.738300
13.232600 1.734200
13.258100 1.757800
13.283500 1.777100
13.309000 1.775200
13.334500 1.748300
13.360000 1.709900
13.385500 1.663500
13.410900 1.640400
13.436400 1.625100
13.461900 1.614300
13.487400 1.602400
13.512800 1.588200
13.538300 1.576500
13.563800 1.508000
13.589300 1.508000
13.614800 1.487800
13.640200 1.465300
13.665700 1.451700
13.691200 1.458400
13.716700 1.467700
13.742200 1.468800
13.767600 1.440100
13.793100 1.441900
13.818600 1.464700
13.844100 1.463000
13.869600 1.454000
13.895000 1.447200
13.920500 1.474000
13.946000 1.482100
13.971500 1.461300
13.996900 1.437900
14.022400 1.414100
14.047900 1.401800
14.073400 1.391700
14.098900 1.388900
14.124300 1.393400
14.149800 1.390500
14.175300 1.417600
14.200800 1.506500
14.226300 1.512400
14.251700 1.518400
14.277200 1.527400
14.302700 1.520100
14.328200 1.499500
14.353600 1.464400
14.379100 1.436000
14.404600 1.389500
14.430100 1.360700
14.455600 1.320200
14.481000 1.274900
14.506500 1.238500
14.532000 1.211900
14.557500 1.172600
14.583000 1.132800
14.608400 1.096100
14.633900 1.067700
14.659400 1.050000
14.684900 1.038400
14.710400 1.010900
14.735800 0.978400
14.761300 0.959100
14.786800 0.941300
14.812300 0.938400
14.837700 0.906200
14.863200 0.877700
14.888700 0.856900
14.914200 0.836600
14.939700 0.898100
14.965100 0.809500
14.990600 0.774200
15.016100 0.744100
15.041600 0.714800
15.067100 0.689000
15.092500 0.670600
15.118000 0.681900
15.143500 0.692500
15.169000 0.697800
15.194500 0.704200
15.219900 0.676700
15.245400 0.640200
15.270900 0.607900
15.296400 0.580000
15.321800 0.558900
15.347300 0.542900
15.372800 0.526200
15.398300 0.510000
15.423800 0.495900
15.449200 0.477800
15.474700 0.461200
15.500200 0.445900
15.525700 0.431000
15.551200 0.416000
15.576600 0.401500
15.602100 0.385000
15.627600 0.369300
15.653100 0.359900
15.678600 0.343500
15.704000 0.332700
15.729500 0.322900
15.755000 0.314500
15.780500 0.309000
15.805900 0.304600
15.831400 0.300600
15.856900 0.296500
15.882400 0.293100
15.907900 0.290800
15.933300 0.288200
15.958800 0.283900
15.984300 0.275900
16.009800 0.267700
16.035300 0.259200
16.060700 0.250400
16.086200 0.241600
16.111700 0.232300
16.137200 0.221900
16.162700 0.210300
16.188100 0.196300
16.213600 0.186300
16.239100 0.170500
16.264600 0.156500
16.290000 0.148700
16.315500 0.141600
16.341000 0.134300
16.366500 0.127100
16.392000 0.120100
16.417400 0.112900
16.442900 0.102300
16.468400 0.096900
16.493900 0.093000
16.519400 0.085800
16.544800 0.078600
16.570300 0.073200
16.595800 0.067900
16.621300 0.062600
16.646700 0.057300
16.672200 0.052000
16.697700 0.046800
16.723200 0.042800
16.748700 0.041900
16.774100 0.029600
16.799600 0.015000
16.825100 0.011500
16.850600 0.009500
16.876100 0.007700
16.901500 0.006100
16.927000 0.004700
16.952500 0.003500
16.978000 0.002400
17.003500 0.001600
17.028900 0.000900
17.054400 0.000400
17.079900 0.000100
17.105400 0.000000
17.130800 0.000000
17.156300 0.000000
17.181800 0.000000
17.207300 0.000000
17.232800 0.000000
17.258200 0.000000
17.283700 0.000000
17.309200 0.000000
17.334700 0.000000
17.360200 0.000000
17.385600 0.000000
17.411100 0.000000
17.436600 0.000000
17.462100 0.000000
17.487600 0.000000
17.513000 0.000000
17.538500 0.000000
17.564000 0.000000
17.589500 0.000000
17.614900 0.000000
17.640400 0.000000
17.665900 0.000000
17.691400 0.000000
17.716900 0.000000
17.742300 0.000000
17.767800 0.000000
17.793300 0.000000
17.818800 0.000000
17.844300 0.000000
17.869700 0.000000
17.895200 0.000000
17.920700 0.000000
17.946200 0.000000
17.971700 0.000000
17.997100 0.000000
18.022600 0.000000
18.048100 0.000000
18.073600 0.000000
18.099000 0.000000
18.124500 0.000000
18.150000 0.000000
18.175500 0.000000
18.201000 0.000000
18.226400 0.000000
18.251900 0.000000
18.277400 0.000000
18.302900 0.000000
18.328400 0.000000
18.353800 0.000000
18.379300 0.000000
18.404800 0.000000
18.430300 0.000000
18.455800 0.000000
18.481200 0.000000
18.506700 0.000000
18.532200 0.000000
18.557700 0.000000
18.583100 0.000000
18.608600 0.000000
18.634100 0.000000
18.659600 0.000000
18.685100 0.000000
18.710500 0.000000
18.736000 0.000000
18.761500 0.000000
18.787000 0.000000
18.812500 0.000000
18.837900 0.000000
18.863400 0.000000
18.888900 0.000000
18.914400 0.000000
18.939900 0.000000
18.965300 0.000000
18.990800 0.000000
19.016300 0.000000
19.041800 0.000000
19.067200 0.000000
19.092700 0.000000
19.118200 0.000000
19.143700 0.000000
19.169200 0.000000
19.194600 0.000000
19.220100 0.000000
19.245600 0.000000
19.271100 0.000000
19.296600 0.000000
19.322000 0.000000
19.347500 0.000000
19.373000 0.000000
19.398500 0.000000
19.423900 0.000000
e
