set title 'mp-861945 - Density of States'
set xlabel 'Energy (eV)'
set ylabel 'DOS (states/eV)'
set grid
set xrange [-10:10]
set yrange [0:28.742]
set xzeroaxis lt -1
set terminal png size 800,600
set output 'mp-861945_dos_gnuplot.png'
plot '-' using 1:2 with lines title 'DOS'
-25.104600 0.000000
-25.079300 0.000000
-25.054100 0.000000
-25.028900 0.000000
-25.003600 0.000000
-24.978400 0.000000
-24.953200 0.000000
-24.927900 0.000000
-24.902700 0.000000
-24.877500 0.000000
-24.852300 0.000000
-24.827000 0.000000
-24.801800 0.000000
-24.776600 0.000000
-24.751300 0.000000
-24.726100 0.000000
-24.700900 0.000000
-24.675600 0.000000
-24.650400 0.000000
-24.625200 0.000000
-24.599900 0.000000
-24.574700 0.000000
-24.549500 0.000000
-24.524200 0.000000
-24.499000 0.000000
-24.473800 0.000000
-24.448500 0.000000
-24.423300 0.000000
-24.398100 0.000000
-24.372800 0.000000
-24.347600 0.000000
-24.322400 0.000000
-24.297200 0.000000
-24.271900 0.000000
-24.246700 0.000000
-24.221500 0.000000
-24.196200 0.000000
-24.171000 0.000000
-24.145800 0.000000
-24.120500 0.000000
-24.095300 0.000000
-24.070100 0.000000
-24.044800 0.000000
-24.019600 0.000000
-23.994400 0.000000
-23.969100 0.000000
-23.943900 0.000000
-23.918700 0.000000
-23.893400 0.000000
-23.868200 0.000000
-23.843000 0.000000
-23.817700 0.000000
-23.792500 0.000000
-23.767300 0.000000
-23.742100 0.000000
-23.716800 0.000000
-23.691600 0.000000
-23.666400 0.000000
-23.641100 0.000000
-23.615900 0.000000
-23.590700 0.000000
-23.565400 0.000000
-23.540200 0.000000
-23.515000 0.000000
-23.489700 0.000000
-23.464500 0.000000
-23.439300 0.000000
-23.414000 0.000000
-23.388800 0.000000
-23.363600 0.000000
-23.338300 0.000000
-23.313100 0.000000
-23.287900 0.000000
-23.262600 0.000000
-23.237400 0.000000
-23.212200 0.000000
-23.187000 0.000000
-23.161700 0.000000
-23.136500 0.000000
-23.111300 0.000000
-23.086000 0.000000
-23.060800 0.000000
-23.035600 0.000000
-23.010300 0.000000
-22.985100 0.000000
-22.959900 0.000000
-22.934600 0.000000
-22.909400 0.000000
-22.884200 0.000000
-22.858900 0.000000
-22.833700 0.000000
-22.808500 0.000000
-22.783200 0.000000
-22.758000 0.000000
-22.732800 0.000000
-22.707500 0.000000
-22.682300 0.000000
-22.657100 0.000000
-22.631900 0.000000
-22.606600 0.000000
-22.581400 0.221400
-22.556200 3.314300
-22.530900 5.523000
-22.505700 8.301400
-22.480500 15.610100
-22.455200 9.676400
-22.430000 15.210000
-22.404800 12.391500
-22.379500 44.648600
-22.354300 274.377600
-22.329100 0.000000
-22.303800 0.000000
-22.278600 0.000000
-22.253400 0.000000
-22.228100 0.000000
-22.202900 0.000000
-22.177700 0.000000
-22.152400 0.000000
-22.127200 0.000000
-22.102000 0.000000
-22.076700 0.000000
-22.051500 0.000000
-22.026300 0.000000
-22.001100 0.000000
-21.975800 0.000000
-21.950600 0.000000
-21.925400 0.000000
-21.900100 0.000000
-21.874900 0.000000
-21.849700 0.000000
-21.824400 0.000000
-21.799200 0.000000
-21.774000 0.000000
-21.748700 0.000000
-21.723500 0.000000
-21.698300 0.000000
-21.673000 0.000000
-21.647800 0.000000
-21.622600 0.000000
-21.597300 0.000000
-21.572100 0.000000
-21.546900 0.000000
-21.521600 0.000000
-21.496400 0.000000
-21.471200 0.000000
-21.446000 0.000000
-21.420700 0.000000
-21.395500 0.000000
-21.370300 0.000000
-21.345000 0.000000
-21.319800 0.000000
-21.294600 0.000000
-21.269300 0.000000
-21.244100 0.000000
-21.218900 0.000000
-21.193600 0.000000
-21.168400 0.000000
-21.143200 0.000000
-21.117900 0.000000
-21.092700 0.000000
-21.067500 0.000000
-21.042200 0.000000
-21.017000 0.000000
-20.991800 0.000000
-20.966500 0.000000
-20.941300 0.000000
-20.916100 0.000000
-20.890900 0.000000
-20.865600 0.000000
-20.840400 0.000000
-20.815200 0.000000
-20.789900 0.000000
-20.764700 0.000000
-20.739500 0.000000
-20.714200 0.000000
-20.689000 0.000000
-20.663800 0.000000
-20.638500 0.000000
-20.613300 0.000000
-20.588100 0.000000
-20.562800 0.000000
-20.537600 0.000000
-20.512400 0.000000
-20.487100 0.000000
-20.461900 0.000000
-20.436700 0.000000
-20.411400 0.000000
-20.386200 0.000000
-20.361000 0.000000
-20.335800 0.000000
-20.310500 0.000000
-20.285300 0.000000
-20.260100 0.000000
-20.234800 0.000000
-20.209600 0.000000
-20.184400 0.000000
-20.159100 0.000000
-20.133900 0.000000
-20.108700 0.000000
-20.083400 0.000000
-20.058200 0.000000
-20.033000 0.000000
-20.007700 0.000000
-19.982500 0.000000
-19.957300 0.000000
-19.932000 0.000000
-19.906800 0.000000
-19.881600 0.000000
-19.856300 0.000000
-19.831100 0.000000
-19.805900 0.000000
-19.780700 0.000000
-19.755400 0.000000
-19.730200 0.000000
-19.705000 0.000000
-19.679700 0.000000
-19.654500 0.000000
-19.629300 0.000000
-19.604000 0.000000
-19.578800 0.000000
-19.553600 0.000000
-19.528300 0.000000
-19.503100 0.000000
-19.477900 0.000000
-19.452600 0.000000
-19.427400 0.000000
-19.402200 0.000000
-19.376900 0.000000
-19.351700 0.000000
-19.326500 0.000000
-19.301200 0.000000
-19.276000 0.000000
-19.250800 0.000000
-19.225600 0.000000
-19.200300 0.000000
-19.175100 0.000000
-19.149900 0.000000
-19.124600 0.000000
-19.099400 0.000000
-19.074200 0.000000
-19.048900 0.000000
-19.023700 0.000000
-18.998500 0.000000
-18.973200 0.000000
-18.948000 0.000000
-18.922800 0.000000
-18.897500 0.000000
-18.872300 0.000000
-18.847100 0.000000
-18.821800 0.000000
-18.796600 0.000000
-18.771400 0.000000
-18.746100 0.000000
-18.720900 0.000000
-18.695700 0.000000
-18.670500 0.000000
-18.645200 0.000000
-18.620000 0.000000
-18.594800 0.000000
-18.569500 0.000000
-18.544300 0.000000
-18.519100 0.000000
-18.493800 0.000000
-18.468600 0.000000
-18.443400 0.000000
-18.418100 0.000000
-18.392900 0.000000
-18.367700 0.000000
-18.342400 0.000000
-18.317200 0.000000
-18.292000 0.000000
-18.266700 0.000000
-18.241500 0.000000
-18.216300 0.000000
-18.191000 0.000000
-18.165800 0.000000
-18.140600 0.000000
-18.115400 0.000000
-18.090100 0.000000
-18.064900 0.000000
-18.039700 0.000000
-18.014400 0.000000
-17.989200 0.000000
-17.964000 0.000000
-17.938700 0.000000
-17.913500 0.000000
-17.888300 0.000000
-17.863000 0.000000
-17.837800 0.000000
-17.812600 0.000000
-17.787300 0.000000
-17.762100 0.000000
-17.736900 0.000000
-17.711600 0.000000
-17.686400 0.000000
-17.661200 0.000000
-17.635900 0.000000
-17.610700 0.000000
-17.585500 0.000000
-17.560200 0.000000
-17.535000 0.000000
-17.509800 0.000000
-17.484600 0.000000
-17.459300 0.000000
-17.434100 0.000000
-17.408900 0.000000
-17.383600 0.000000
-17.358400 0.000000
-17.333200 0.000000
-17.307900 0.000000
-17.282700 0.000000
-17.257500 0.000000
-17.232200 0.000000
-17.207000 0.000000
-17.181800 0.000000
-17.156500 0.000000
-17.131300 0.000000
-17.106100 0.000000
-17.080800 0.000000
-17.055600 0.000000
-17.030400 0.000000
-17.005100 0.000000
-16.979900 0.000000
-16.954700 0.000000
-16.929500 0.000000
-16.904200 0.000000
-16.879000 0.000000
-16.853800 0.000000
-16.828500 0.000000
-16.803300 0.000000
-16.778100 0.000000
-16.752800 0.000000
-16.727600 0.000000
-16.702400 0.000000
-16.677100 0.000000
-16.651900 0.000000
-16.626700 0.000000
-16.601400 0.000000
-16.576200 0.000000
-16.551000 0.000000
-16.525700 0.000000
-16.500500 0.000000
-16.475300 0.000000
-16.450000 0.000000
-16.424800 0.000000
-16.399600 0.000000
-16.374400 0.000000
-16.349100 0.000000
-16.323900 0.000000
-16.298700 0.000000
-16.273400 0.000000
-16.248200 0.000000
-16.223000 0.000000
-16.197700 0.000000
-16.172500 0.000000
-16.147300 0.000000
-16.122000 0.000000
-16.096800 0.000000
-16.071600 0.000000
-16.046300 0.000000
-16.021100 0.000000
-15.995900 0.000000
-15.970600 0.000000
-15.945400 0.000000
-15.920200 0.000000
-15.894900 0.000000
-15.869700 0.000000
-15.844500 0.000000
-15.819300 0.000000
-15.794000 0.000000
-15.768800 0.000000
-15.743600 0.000000
-15.718300 0.000000
-15.693100 0.000000
-15.667900 0.000000
-15.642600 0.000000
-15.617400 0.000000
-15.592200 0.000000
-15.566900 0.000000
-15.541700 0.000000
-15.516500 0.000000
-15.491200 0.000000
-15.466000 0.000000
-15.440800 0.000000
-15.415500 0.000000
-15.390300 0.000000
-15.365100 0.000000
-15.339800 0.000000
-15.314600 0.000000
-15.289400 0.000000
-15.264200 0.000000
-15.238900 0.000000
-15.213700 0.000000
-15.188500 0.000000
-15.163200 0.000000
-15.138000 0.000000
-15.112800 0.000000
-15.087500 0.000000
-15.062300 0.000000
-15.037100 0.000000
-15.011800 0.000000
-14.986600 0.000000
-14.961400 0.000000
-14.936100 0.000000
-14.910900 0.000000
-14.885700 0.000000
-14.860400 0.000000
-14.835200 0.000000
-14.810000 0.000000
-14.784700 0.000000
-14.759500 0.000000
-14.734300 0.000000
-14.709100 0.000000
-14.683800 0.000000
-14.658600 0.000000
-14.633400 0.000000
-14.608100 0.000000
-14.582900 0.000000
-14.557700 0.000000
-14.532400 0.000000
-14.507200 0.000000
-14.482000 0.000000
-14.456700 0.000000
-14.431500 0.000000
-14.406300 0.000000
-14.381000 0.000000
-14.355800 0.000000
-14.330600 0.000000
-14.305300 0.000000
-14.280100 0.000000
-14.254900 0.000000
-14.229600 0.000000
-14.204400 0.000000
-14.179200 0.000000
-14.154000 0.000000
-14.128700 0.000000
-14.103500 0.000000
-14.078300 0.000000
-14.053000 0.000000
-14.027800 0.000000
-14.002600 0.000000
-13.977300 0.000000
-13.952100 0.000000
-13.926900 0.000000
-13.901600 0.000000
-13.876400 0.000000
-13.851200 0.000000
-13.825900 0.000000
-13.800700 0.000000
-13.775500 0.000000
-13.750200 0.000000
-13.725000 0.000000
-13.699800 0.000000
-13.674500 0.000000
-13.649300 0.000000
-13.624100 0.000000
-13.598900 0.000000
-13.573600 0.000000
-13.548400 0.000000
-13.523200 0.000000
-13.497900 0.000000
-13.472700 0.000000
-13.447500 0.000000
-13.422200 0.000000
-13.397000 0.000000
-13.371800 0.000000
-13.346500 0.000000
-13.321300 0.000000
-13.296100 0.000000
-13.270800 0.000000
-13.245600 0.000000
-13.220400 0.000000
-13.195100 0.000000
-13.169900 0.000000
-13.144700 0.000000
-13.119400 0.000000
-13.094200 0.000000
-13.069000 0.000000
-13.043700 0.000000
-13.018500 0.000000
-12.993300 0.000000
-12.968100 0.000000
-12.942800 0.000000
-12.917600 0.000000
-12.892400 0.000000
-12.867100 0.000000
-12.841900 0.000000
-12.816700 0.000000
-12.791400 0.000000
-12.766200 0.000000
-12.741000 0.000000
-12.715700 0.000000
-12.690500 0.000000
-12.665300 0.000000
-12.640000 0.000000
-12.614800 0.000000
-12.589600 0.000000
-12.564300 0.000000
-12.539100 0.000000
-12.513900 0.000000
-12.488600 0.000000
-12.463400 0.000000
-12.438200 0.000000
-12.413000 0.000000
-12.387700 0.000000
-12.362500 0.000000
-12.337300 0.000000
-12.312000 0.000000
-12.286800 0.000000
-12.261600 0.000000
-12.236300 0.000000
-12.211100 0.000000
-12.185900 0.000000
-12.160600 0.000000
-12.135400 0.000000
-12.110200 0.000000
-12.084900 0.000000
-12.059700 0.000000
-12.034500 0.000000
-12.009200 0.000000
-11.984000 0.000000
-11.958800 0.000000
-11.933500 0.000000
-11.908300 0.000000
-11.883100 0.000000
-11.857900 0.000000
-11.832600 0.000000
-11.807400 0.000000
-11.782200 0.000000
-11.756900 0.000000
-11.731700 0.000000
-11.706500 0.000000
-11.681200 0.000000
-11.656000 0.000000
-11.630800 0.000000
-11.605500 0.000000
-11.580300 0.000000
-11.555100 0.000000
-11.529800 0.000000
-11.504600 0.000000
-11.479400 0.000000
-11.454100 0.000000
-11.428900 0.000000
-11.403700 0.000000
-11.378400 0.000000
-11.353200 0.000000
-11.328000 0.000000
-11.302800 0.000000
-11.277500 0.000000
-11.252300 0.000000
-11.227100 0.000000
-11.201800 0.000000
-11.176600 0.000000
-11.151400 0.000000
-11.126100 0.000000
-11.100900 0.000000
-11.075700 0.000000
-11.050400 0.000000
-11.025200 0.000000
-11.000000 0.000000
-10.974700 0.000000
-10.949500 0.000000
-10.924300 0.000000
-10.899000 0.000000
-10.873800 0.000000
-10.848600 0.000000
-10.823300 0.000000
-10.798100 0.000000
-10.772900 0.000000
-10.747700 0.000000
-10.722400 0.000000
-10.697200 0.000000
-10.672000 0.000000
-10.646700 0.000000
-10.621500 0.000000
-10.596300 0.000000
-10.571000 0.000000
-10.545800 0.000000
-10.520600 0.000000
-10.495300 0.000000
-10.470100 0.000000
-10.444900 0.000000
-10.419600 0.000000
-10.394400 0.000000
-10.369200 0.000000
-10.343900 0.000000
-10.318700 0.000000
-10.293500 0.000000
-10.268200 0.000000
-10.243000 0.000000
-10.217800 0.000000
-10.192600 0.000000
-10.167300 0.000000
-10.142100 0.000000
-10.116900 0.000000
-10.091600 0.000000
-10.066400 0.000000
-10.041200 0.000000
-10.015900 0.000000
-9.990700 0.000000
-9.965500 0.000000
-9.940200 0.000000
-9.915000 0.000000
-9.889800 0.000000
-9.864500 0.000000
-9.839300 0.000000
-9.814100 0.000000
-9.788800 0.000000
-9.763600 0.000000
-9.738400 0.000000
-9.713100 0.000000
-9.687900 0.000000
-9.662700 0.000000
-9.637500 0.000000
-9.612200 0.000000
-9.587000 0.000000
-9.561800 0.000000
-9.536500 0.000000
-9.511300 0.000000
-9.486100 0.000000
-9.460800 0.000000
-9.435600 0.000000
-9.410400 0.000000
-9.385100 0.000000
-9.359900 0.000000
-9.334700 0.000000
-9.309400 0.000000
-9.284200 0.000000
-9.259000 0.000000
-9.233700 0.000000
-9.208500 0.000000
-9.183300 0.000000
-9.158000 0.000000
-9.132800 0.000000
-9.107600 0.000000
-9.082400 0.000000
-9.057100 0.000000
-9.031900 0.000000
-9.006700 0.000000
-8.981400 0.000000
-8.956200 0.000000
-8.931000 0.000000
-8.905700 0.000000
-8.880500 0.000000
-8.855300 0.000000
-8.830000 0.000000
-8.804800 0.000000
-8.779600 0.000000
-8.754300 0.000000
-8.729100 0.000000
-8.703900 0.000000
-8.678600 0.000000
-8.653400 0.000000
-8.628200 0.000000
-8.602900 0.000000
-8.577700 0.000000
-8.552500 0.000000
-8.527300 0.000000
-8.502000 0.000000
-8.476800 0.000000
-8.451600 0.000000
-8.426300 0.000000
-8.401100 0.000000
-8.375900 0.000000
-8.350600 0.000000
-8.325400 0.000000
-8.300200 0.000000
-8.274900 0.000000
-8.249700 0.000000
-8.224500 0.000000
-8.199200 0.000000
-8.174000 0.000000
-8.148800 0.000000
-8.123500 0.000000
-8.098300 0.000000
-8.073100 0.000000
-8.047800 0.000000
-8.022600 0.000000
-7.997400 0.000000
-7.972100 0.000000
-7.946900 0.000000
-7.921700 0.000000
-7.896500 0.000000
-7.871200 0.000000
-7.846000 0.000000
-7.820800 0.000000
-7.795500 0.000000
-7.770300 0.000000
-7.745100 0.000000
-7.719800 0.000000
-7.694600 0.000000
-7.669400 0.000000
-7.644100 0.000000
-7.618900 0.000000
-7.593700 0.000000
-7.568400 0.000000
-7.543200 0.000000
-7.518000 0.000000
-7.492700 0.000000
-7.467500 0.000000
-7.442300 0.000000
-7.417000 0.000000
-7.391800 0.000000
-7.366600 0.000000
-7.341400 0.000000
-7.316100 0.000000
-7.290900 0.000000
-7.265700 0.000000
-7.240400 0.000000
-7.215200 0.000000
-7.190000 0.000000
-7.164700 0.000000
-7.139500 0.000000
-7.114300 0.000000
-7.089000 0.000000
-7.063800 0.000000
-7.038600 0.000000
-7.013300 0.000000
-6.988100 0.000000
-6.962900 0.000000
-6.937600 0.000000
-6.912400 0.000000
-6.887200 0.000000
-6.861900 0.000000
-6.836700 0.000000
-6.811500 0.000000
-6.786300 0.000000
-6.761000 0.000000
-6.735800 0.000000
-6.710600 0.000000
-6.685300 0.000000
-6.660100 0.000000
-6.634900 0.000000
-6.609600 0.000000
-6.584400 0.000000
-6.559200 0.000000
-6.533900 0.000000
-6.508700 0.000000
-6.483500 0.000000
-6.458200 0.000000
-6.433000 0.000000
-6.407800 0.000000
-6.382500 0.000000
-6.357300 0.000000
-6.332100 0.000000
-6.306800 0.000000
-6.281600 0.000000
-6.256400 0.000000
-6.231200 0.000000
-6.205900 0.000000
-6.180700 0.000000
-6.155500 0.000000
-6.130200 0.000000
-6.105000 0.000000
-6.079800 0.000000
-6.054500 0.000000
-6.029300 0.000000
-6.004100 0.000000
-5.978800 0.000000
-5.953600 0.000000
-5.928400 0.000000
-5.903100 0.000000
-5.877900 0.000000
-5.852700 0.000000
-5.827400 0.000000
-5.802200 0.000000
-5.777000 0.001000
-5.751700 0.427300
-5.726500 0.707800
-5.701300 0.991300
-5.676100 1.661300
-5.650800 6.280200
-5.625600 20.693500
-5.600400 13.737200
-5.575100 9.838700
-5.549900 9.111800
-5.524700 8.832100
-5.499400 9.349600
-5.474200 9.765600
-5.449000 9.569000
-5.423700 10.416000
-5.398500 9.848400
-5.373300 7.580800
-5.348000 6.787900
-5.322800 7.255500
-5.297600 8.625400
-5.272300 7.980300
-5.247100 4.788300
-5.221900 5.064400
-5.196600 10.102300
-5.171400 11.401900
-5.146200 15.780100
-5.121000 14.230500
-5.095700 15.149900
-5.070500 11.957400
-5.045300 9.232500
-5.020000 6.964400
-4.994800 10.461100
-4.969600 14.154000
-4.944300 11.498100
-4.919100 11.166800
-4.893900 14.431700
-4.868600 16.355200
-4.843400 14.581700
-4.818200 4.855400
-4.792900 13.387600
-4.767700 13.843000
-4.742500 8.466800
-4.717200 3.573700
-4.692000 2.588500
-4.666800 4.071600
-4.641500 4.842800
-4.616300 4.298700
-4.591100 4.178900
-4.565900 5.165700
-4.540600 5.250600
-4.515400 5.254700
-4.490200 5.606100
-4.464900 5.646500
-4.439700 6.158300
-4.414500 6.665000
-4.389200 5.976100
-4.364000 4.059500
-4.338800 3.274900
-4.313500 3.253500
-4.288300 4.313100
-4.263100 4.501600
-4.237800 4.584800
-4.212600 6.536600
-4.187400 12.665300
-4.162100 13.098400
-4.136900 12.268700
-4.111700 10.833100
-4.086400 4.574800
-4.061200 8.261200
-4.036000 15.880200
-4.010800 12.122300
-3.985500 6.956900
-3.960300 5.444900
-3.935100 5.192600
-3.909800 6.267500
-3.884600 9.488800
-3.859400 10.661200
-3.834100 9.447700
-3.808900 6.296300
-3.783700 6.118800
-3.758400 9.951900
-3.733200 9.491400
-3.708000 14.216200
-3.682700 17.149600
-3.657500 8.935200
-3.632300 1.230200
-3.607000 0.000000
-3.581800 0.000000
-3.556600 0.000000
-3.531300 0.000000
-3.506100 0.000000
-3.480900 0.000000
-3.455600 0.000000
-3.430400 0.000000
-3.405200 0.000000
-3.380000 0.000000
-3.354700 0.000000
-3.329500 0.000000
-3.304300 0.000000
-3.279000 0.000000
-3.253800 0.000000
-3.228600 0.000000
-3.203300 0.000000
-3.178100 0.000000
-3.152900 0.000000
-3.127600 0.000000
-3.102400 0.000000
-3.077200 0.000000
-3.051900 0.000000
-3.026700 0.000000
-3.001500 1.712500
-2.976200 5.317600
-2.951000 8.457700
-2.925800 9.661400
-2.900500 17.525500
-2.875300 12.095800
-2.850100 8.616300
-2.824900 5.683200
-2.799600 4.208500
-2.774400 3.509100
-2.749200 5.582000
-2.723900 6.632900
-2.698700 9.525700
-2.673500 19.153900
-2.648200 16.557200
-2.623000 20.314400
-2.597800 19.662800
-2.572500 26.128700
-2.547300 23.064400
-2.522100 23.516200
-2.496800 13.649100
-2.471600 13.748000
-2.446400 23.185100
-2.421100 15.362300
-2.395900 19.844300
-2.370700 20.777500
-2.345400 20.140300
-2.320200 12.916000
-2.295000 17.791300
-2.269800 21.876500
-2.244500 16.856200
-2.219300 15.486400
-2.194100 6.885200
-2.168800 4.435700
-2.143600 3.528000
-2.118400 2.721000
-2.093100 1.864700
-2.067900 1.530500
-2.042700 1.988300
-2.017400 2.726500
-1.992200 4.051000
-1.967000 6.531000
-1.941700 5.540800
-1.916500 4.074100
-1.891300 4.419700
-1.866000 4.278900
-1.840800 4.471000
-1.815600 4.744100
-1.790300 4.982100
-1.765100 4.958300
-1.739900 4.960000
-1.714700 5.517000
-1.689400 6.100000
-1.664200 4.380800
-1.639000 5.216400
-1.613700 6.738500
-1.588500 6.254500
-1.563300 6.438700
-1.538000 5.914600
-1.512800 6.348200
-1.487600 4.980600
-1.462300 4.831900
-1.437100 6.355800
-1.411900 6.419100
-1.386600 6.889200
-1.361400 9.207600
-1.336200 7.617100
-1.310900 1.208300
-1.285700 0.434100
-1.260500 3.298400
-1.235200 9.969600
-1.210000 9.481300
-1.184800 7.789700
-1.159600 7.270800
-1.134300 5.567200
-1.109100 5.732700
-1.083900 6.909000
-1.058600 7.498700
-1.033400 7.163300
-1.008200 6.973000
-0.982900 6.926700
-0.957700 6.911600
-0.932500 8.700100
-0.907200 8.637300
-0.882000 10.889900
-0.856800 10.581600
-0.831500 7.841000
-0.806300 6.440300
-0.781100 5.020900
-0.755800 4.829700
-0.730600 2.896200
-0.705400 0.000000
-0.680100 0.000000
-0.654900 0.000000
-0.629700 0.000000
-0.604500 0.000000
-0.579200 0.000000
-0.554000 0.000000
-0.528800 0.000000
-0.503500 0.000000
-0.478300 0.000000
-0.453100 0.000000
-0.427800 0.000000
-0.402600 0.000000
-0.377400 0.000000
-0.352100 0.000000
-0.326900 0.000000
-0.301700 0.000000
-0.276400 0.000000
-0.251200 0.000000
-0.226000 0.000000
-0.200700 0.000000
-0.175500 0.000000
-0.150300 0.000000
-0.125000 0.000000
-0.099800 0.000000
-0.074600 0.000000
-0.049400 0.000000
-0.024100 0.000000
0.001100 0.000000
0.026300 0.000000
0.051600 0.000000
0.076800 0.000000
0.102000 0.000000
0.127300 0.000000
0.152500 0.000000
0.177700 0.000000
0.203000 0.000000
0.228200 0.000000
0.253400 0.000000
0.278700 0.000000
0.303900 0.000000
0.329100 0.000000
0.354400 0.000000
0.379600 0.000000
0.404800 0.000000
0.430100 0.000000
0.455300 0.000000
0.480500 0.000000
0.505700 0.000000
0.531000 0.000000
0.556200 0.000000
0.581400 0.000000
0.606700 0.000600
0.631900 0.004600
0.657100 0.012300
0.682400 0.023800
0.707600 0.039000
0.732800 0.057900
0.758100 0.073400
0.783300 0.069900
0.808500 0.071000
0.833800 0.076600
0.859000 0.082300
0.884200 0.088100
0.909500 0.094100
0.934700 0.100300
0.959900 0.106600
0.985200 0.113100
1.010400 0.119500
1.035600 0.125500
1.060900 0.130900
1.086100 0.135600
1.111300 0.139600
1.136500 0.143800
1.161800 0.147700
1.187000 0.151700
1.212200 0.156100
1.237500 0.160800
1.262700 0.165700
1.287900 0.170600
1.313200 0.175600
1.338400 0.180600
1.363600 0.185700
1.388900 0.190700
1.414100 0.195900
1.439300 0.201000
1.464600 0.205900
1.489800 0.210700
1.515000 0.215500
1.540300 0.220500
1.565500 0.225500
1.590700 0.230000
1.616000 0.234700
1.641200 0.239600
1.666400 0.244400
1.691600 0.249300
1.716900 0.254300
1.742100 0.259200
1.767300 0.264100
1.792600 0.269100
1.817800 0.274100
1.843000 0.279200
1.868300 0.284300
1.893500 0.289400
1.918700 0.294600
1.944000 0.299900
1.969200 0.305100
1.994400 0.310400
2.019700 0.315600
2.044900 0.320900
2.070100 0.326300
2.095400 0.331700
2.120600 0.337100
2.145800 0.342500
2.171100 0.348000
2.196300 0.353600
2.221500 0.359300
2.246700 0.365200
2.272000 0.371300
2.297200 0.377600
2.322400 0.384200
2.347700 0.392400
2.372900 0.400200
2.398100 0.407600
2.423400 0.414600
2.448600 0.421300
2.473800 0.427600
2.499100 0.433500
2.524300 0.439200
2.549500 0.444800
2.574800 0.450900
2.600000 0.457800
2.625200 0.465500
2.650500 0.474000
2.675700 0.486900
2.700900 0.492400
2.726200 0.499700
2.751400 0.506400
2.776600 0.512500
2.801800 0.518100
2.827100 0.523800
2.852300 0.529800
2.877500 0.536700
2.902800 0.547800
2.928000 0.573600
2.953200 0.611600
2.978500 0.665300
3.003700 0.691800
3.028900 0.664800
3.054200 0.630900
3.079400 0.602900
3.104600 0.597300
3.129900 0.597000
3.155100 0.599000
3.180300 0.604700
3.205600 0.614300
3.230800 0.622900
3.256000 0.644700
3.281300 0.676000
3.306500 0.702900
3.331700 0.743000
3.356900 0.788300
3.382200 0.771100
3.407400 0.739200
3.432600 0.712300
3.457900 0.684700
3.483100 0.664000
3.508300 0.647000
3.533600 0.637200
3.558800 0.627400
3.584000 0.614100
3.609300 0.580700
3.634500 0.449200
3.659700 0.462300
3.685000 0.522600
3.710200 0.587600
3.735400 0.696300
3.760700 0.644300
3.785900 0.669800
3.811100 0.685400
3.836400 0.703700
3.861600 0.726800
3.886800 0.748100
3.912000 0.766600
3.937300 0.783000
3.962500 0.811400
3.987700 0.857600
4.013000 0.838900
4.038200 0.779700
4.063400 0.769200
4.088700 0.770100
4.113900 0.774900
4.139100 0.785200
4.164400 0.800200
4.189600 0.817100
4.214800 0.815500
4.240100 0.764000
4.265300 0.694000
4.290500 0.643600
4.315800 0.677500
4.341000 0.719500
4.366200 0.766400
4.391500 0.824200
4.416700 0.894000
4.441900 0.949000
4.467100 0.969800
4.492400 1.006200
4.517600 1.037000
4.542800 1.059900
4.568100 1.071600
4.593300 1.069800
4.618500 1.058200
4.643800 1.042700
4.669000 1.037400
4.694200 1.050900
4.719500 1.068100
4.744700 1.070500
4.769900 1.074000
4.795200 1.080500
4.820400 1.104400
4.845600 1.139800
4.870900 1.180400
4.896100 1.220700
4.921300 1.260000
4.946600 1.296300
4.971800 1.317300
4.997000 1.331600
5.022200 1.343700
5.047500 1.372800
5.072700 1.426400
5.097900 1.538000
5.123200 1.706200
5.148400 1.764700
5.173600 1.600100
5.198900 1.621200
5.224100 1.639800
5.249300 1.637200
5.274600 1.611200
5.299800 1.599400
5.325000 1.596800
5.350300 1.597300
5.375500 1.599100
5.400700 1.603300
5.426000 1.611300
5.451200 1.625000
5.476400 1.649900
5.501700 1.677600
5.526900 1.682100
5.552100 1.671000
5.577300 1.651700
5.602600 1.622900
5.627800 1.608800
5.653000 1.596300
5.678300 1.578400
5.703500 1.581200
5.728700 1.555200
5.754000 1.455500
5.779200 1.292800
5.804400 1.176600
5.829700 1.100300
5.854900 1.023300
5.880100 0.950800
5.905400 0.894400
5.930600 0.854000
5.955800 0.820900
5.981100 0.792400
6.006300 0.766000
6.031500 0.740300
6.056800 0.731000
6.082000 0.716900
6.107200 0.692300
6.132500 0.651800
6.157700 0.612600
6.182900 0.558100
6.208100 0.547900
6.233400 0.620800
6.258600 0.573900
6.283800 0.600100
6.309100 0.620300
6.334300 0.624700
6.359500 0.621000
6.384800 0.612900
6.410000 0.602000
6.435200 0.604900
6.460500 0.615300
6.485700 0.631200
6.510900 0.645700
6.536200 0.667800
6.561400 0.709000
6.586600 0.761300
6.611900 0.795600
6.637100 0.829200
6.662300 0.869700
6.687600 0.917500
6.712800 1.003200
6.738000 1.261200
6.763200 1.444200
6.788500 1.551000
6.813700 1.594800
6.838900 1.643200
6.864200 1.788200
6.889400 1.916600
6.914600 1.987400
6.939900 1.941600
6.965100 1.860800
6.990300 1.774400
7.015600 1.609400
7.040800 1.515000
7.066000 1.428200
7.091300 1.332300
7.116500 1.224200
7.141700 1.120000
7.167000 1.018900
7.192200 0.965900
7.217400 0.959100
7.242700 0.842500
7.267900 0.786700
7.293100 0.815400
7.318300 0.858800
7.343600 0.921400
7.368800 0.998600
7.394000 1.088500
7.419300 1.230000
7.444500 1.643200
7.469700 1.757400
7.495000 1.768000
7.520200 1.634100
7.545400 1.485900
7.570700 1.444600
7.595900 1.411700
7.621100 1.368800
7.646400 1.380400
7.671600 1.391600
7.696800 1.416000
7.722100 1.478500
7.747300 1.564800
7.772500 1.625100
7.797800 1.709600
7.823000 1.826900
7.848200 1.820400
7.873400 1.657400
7.898700 1.397300
7.923900 1.241800
7.949100 1.063400
7.974400 0.930000
7.999600 0.899400
8.024800 0.951300
8.050100 1.027700
8.075300 1.156900
8.100500 1.426300
8.125800 1.605400
8.151000 1.771200
8.176200 1.957000
8.201500 2.556400
8.226700 2.779600
8.251900 2.905100
8.277200 2.559400
8.302400 2.270400
8.327600 1.857100
8.352900 1.713100
8.378100 1.684700
8.403300 1.652100
8.428500 1.647500
8.453800 1.630500
8.479000 1.601800
8.504200 1.573200
8.529500 1.543600
8.554700 1.642200
8.579900 1.528300
8.605200 1.562300
8.630400 1.571100
8.655600 1.562300
8.680900 1.566100
8.706100 1.553200
8.731300 1.528500
8.756600 1.507000
8.781800 1.522000
8.807000 1.670900
8.832300 1.966400
8.857500 2.439600
8.882700 2.399600
8.908000 2.510900
8.933200 2.207400
8.958400 1.904900
8.983600 1.839100
9.008900 1.856900
9.034100 1.827000
9.059300 1.757200
9.084600 1.684200
9.109800 1.687200
9.135000 1.715500
9.160300 1.737800
9.185500 1.892800
9.210700 1.851700
9.236000 1.801000
9.261200 1.869500
9.286400 1.751900
9.311700 1.753100
9.336900 1.763400
9.362100 1.764900
9.387400 1.772200
9.412600 1.785500
9.437800 1.802900
9.463100 1.935200
9.488300 2.033500
9.513500 2.043400
9.538700 2.125800
9.564000 2.170000
9.589200 2.221800
9.614400 2.285600
9.639700 2.349000
9.664900 2.397200
9.690100 2.434200
9.715400 2.476600
9.740600 2.498800
9.765800 2.466700
9.791100 2.356600
9.816300 2.191000
9.841500 2.115600
9.866800 2.103600
9.892000 2.070600
9.917200 2.000700
9.942500 1.944300
9.967700 1.944000
9.992900 1.845100
10.018200 1.802500
10.043400 1.898600
10.068600 1.919600
10.093800 1.863400
10.119100 1.805100
10.144300 1.785200
10.169500 1.842500
10.194800 1.837600
10.220000 1.846400
10.245200 1.889800
10.270500 2.041200
10.295700 2.263500
10.320900 2.393800
10.346200 2.555300
10.371400 2.365600
10.396600 2.255000
10.421900 2.278900
10.447100 2.243200
10.472300 2.055800
10.497600 1.870500
10.522800 1.721000
10.548000 1.762500
10.573300 1.856700
10.598500 1.853400
10.623700 1.921900
10.649000 1.950900
10.674200 1.965000
10.699400 2.029000
10.724600 2.214200
10.749900 2.318000
10.775100 2.391700
10.800300 2.457000
10.825600 2.919900
10.850800 2.334500
10.876000 2.234200
10.901300 2.123300
10.926500 1.996200
10.951700 1.878000
10.977000 1.770800
11.002200 1.763400
11.027400 1.816100
11.052700 1.925000
11.077900 1.946400
11.103100 1.945400
11.128400 2.031500
11.153600 2.159200
11.178800 2.381600
11.204100 2.479300
11.229300 2.428600
11.254500 2.350500
11.279700 2.253400
11.305000 2.191700
11.330200 2.153200
11.355400 2.154400
11.380700 2.197900
11.405900 2.217700
11.431100 2.209600
11.456400 2.235700
11.481600 2.272400
11.506800 2.299800
11.532100 2.316600
11.557300 3.040600
11.582500 3.161100
11.607800 3.038100
11.633000 2.972000
11.658200 2.661600
11.683500 2.450000
11.708700 2.230400
11.733900 2.090500
11.759200 1.967800
11.784400 1.734000
11.809600 1.681700
11.834800 1.662000
11.860100 1.669600
11.885300 1.668000
11.910500 1.710000
11.935800 1.708400
11.961000 1.705700
11.986200 1.700300
12.011500 1.689900
12.036700 1.701800
12.061900 1.737500
12.087200 1.854600
12.112400 1.972900
12.137600 1.927600
12.162900 1.947000
12.188100 1.941200
12.213300 1.928400
12.238600 1.898900
12.263800 1.911900
12.289000 1.951100
12.314300 2.068100
12.339500 2.158500
12.364700 2.151800
12.389900 2.057400
12.415200 1.941700
12.440400 1.856000
12.465600 1.787000
12.490900 1.730000
12.516100 1.615300
12.541300 1.530300
12.566600 1.468300
12.591800 1.461800
12.617000 1.427500
12.642300 1.406900
12.667500 1.389200
12.692700 1.368700
12.718000 1.307400
12.743200 1.385100
12.768400 1.411700
12.793700 1.429600
12.818900 1.409100
12.844100 1.443300
12.869400 1.480800
12.894600 1.504800
12.919800 1.561400
12.945000 1.633200
12.970300 1.714400
12.995500 1.780400
13.020700 1.733000
13.046000 1.700200
13.071200 1.616800
13.096400 1.531600
13.121700 1.368500
13.146900 1.304400
13.172100 1.210700
13.197400 1.191100
13.222600 1.190800
13.247800 1.204600
13.273100 1.219700
13.298300 1.226200
13.323500 1.229300
13.348800 1.229400
13.374000 1.217400
13.399200 1.234900
13.424500 1.313100
13.449700 1.419700
13.474900 1.569000
13.500100 1.658000
13.525400 1.675900
13.550600 1.610500
13.575800 1.607700
13.601100 1.662000
13.626300 1.744800
13.651500 1.793500
13.676800 1.814400
13.702000 1.805100
13.727200 1.889900
13.752500 1.904700
13.777700 1.814500
13.802900 1.762100
13.828200 1.731600
13.853400 1.632300
13.878600 1.501200
13.903900 1.407000
13.929100 1.396700
13.954300 1.375700
13.979600 1.349700
14.004800 1.412700
14.030000 1.469400
14.055200 1.834900
14.080500 1.989900
14.105700 2.068800
14.130900 2.060600
14.156200 2.036400
14.181400 1.919300
14.206600 1.812600
14.231900 1.680600
14.257100 1.667200
14.282300 1.927700
14.307600 2.662700
14.332800 2.850800
14.358000 2.370000
14.383300 2.106400
14.408500 2.080600
14.433700 1.762000
14.459000 1.761300
14.484200 1.873400
14.509400 1.936400
14.534700 1.723500
14.559900 1.699800
14.585100 1.790400
14.610300 1.924900
14.635600 2.250900
14.660800 1.961100
14.686000 2.051100
14.711300 2.181200
14.736500 2.375200
14.761700 2.527100
14.787000 2.609800
14.812200 2.770900
14.837400 2.949500
14.862700 2.940100
14.887900 2.894500
14.913100 2.684900
14.938400 2.365500
14.963600 2.034700
14.988800 1.919200
15.014100 1.832700
15.039300 1.699000
15.064500 1.692600
15.089800 1.495500
15.115000 1.460700
15.140200 1.528900
15.165500 1.904600
15.190700 2.146200
15.215900 2.466600
15.241100 2.841100
15.266400 3.086600
15.291600 3.127600
15.316800 2.818800
15.342100 2.436200
15.367300 2.361000
15.392500 2.246700
15.417800 2.100800
15.443000 2.083500
15.468200 2.260900
15.493500 2.172000
15.518700 2.180700
15.543900 2.467400
15.569200 3.109700
15.594400 3.765500
15.619600 3.875600
15.644900 4.272500
15.670100 4.190100
15.695300 3.807500
15.720600 3.153000
15.745800 2.957000
15.771000 2.679100
15.796200 2.746400
15.821500 2.794600
15.846700 2.919100
15.871900 2.757700
15.897200 2.538200
15.922400 2.357400
15.947600 2.252100
15.972900 2.172700
15.998100 2.118900
16.023300 2.088300
16.048600 1.898800
16.073800 1.732600
16.099000 1.565500
16.124300 1.540700
16.149500 1.524200
16.174700 1.518300
16.200000 1.531000
16.225200 1.567000
16.250400 1.660000
16.275700 1.749200
16.300900 1.559100
16.326100 1.530200
16.351300 1.494000
16.376600 1.465000
16.401800 1.436200
16.427000 1.426600
16.452300 1.440400
16.477500 1.443500
16.502700 1.450400
16.528000 1.458300
16.553200 1.465100
16.578400 1.614800
16.603700 1.466900
16.628900 1.461200
16.654100 1.415300
16.679400 1.403800
16.704600 1.430000
16.729800 1.446100
16.755100 1.452400
16.780300 1.446500
16.805500 1.430600
16.830800 1.410600
16.856000 1.380900
16.881200 1.349700
16.906400 1.349300
16.931700 1.380000
16.956900 1.408300
16.982100 1.453900
17.007400 1.511800
17.032600 1.552400
17.057800 1.561100
17.083100 1.563200
17.108300 1.514700
17.133500 1.464000
17.158800 1.422100
17.184000 1.370700
17.209200 1.319400
17.234500 1.285400
17.259700 1.264000
17.284900 1.252700
17.310200 1.239200
17.335400 1.262700
17.360600 1.305600
17.385900 1.349300
17.411100 1.376600
17.436300 1.402400
17.461500 1.395000
17.486800 1.385500
17.512000 1.435900
17.537200 1.565900
17.562500 1.679800
17.587700 1.761900
17.612900 1.808200
17.638200 1.764700
17.663400 1.751100
17.688600 1.728800
17.713900 1.705100
17.739100 1.707900
17.764300 1.712900
17.789600 1.724900
17.814800 1.714500
17.840000 1.697600
17.865300 1.679800
17.890500 1.651500
17.915700 1.612000
17.941000 1.554700
17.966200 1.488400
17.991400 1.446700
18.016600 1.420900
18.041900 1.394300
18.067100 1.375400
18.092300 1.374600
18.117600 1.404400
18.142800 1.457500
18.168000 1.507400
18.193300 1.632500
18.218500 1.929500
18.243700 1.816800
18.269000 1.865400
18.294200 1.994500
18.319400 2.119400
18.344700 2.309300
18.369900 2.604300
18.395100 2.528400
18.420400 2.401600
18.445600 2.382200
18.470800 2.224600
18.496100 2.164100
18.521300 2.229300
18.546500 2.214800
18.571700 2.162300
18.597000 2.154800
18.622200 2.183000
18.647400 2.158900
18.672700 2.040100
18.697900 1.963200
18.723100 1.994900
18.748400 2.092100
18.773600 2.209500
18.798800 2.409700
18.824100 2.678000
18.849300 2.926200
18.874500 3.215900
18.899800 3.059700
18.925000 2.794600
18.950200 2.750800
18.975500 2.546100
19.000700 2.329200
19.025900 2.251200
19.051200 2.366700
19.076400 2.484900
19.101600 2.381500
19.126800 2.312300
19.152100 2.251900
19.177300 2.262400
19.202500 2.326800
19.227800 2.431200
19.253000 2.323600
19.278200 1.824000
19.303500 1.389400
19.328700 1.045500
19.353900 0.876500
19.379200 0.876000
19.404400 0.801200
19.429600 0.789400
19.454900 0.887200
19.480100 1.441600
19.505300 1.358700
19.530600 1.484900
19.555800 1.570100
19.581000 1.648300
19.606300 1.711100
19.631500 1.774300
19.656700 1.858400
19.681900 1.977100
19.707200 1.963200
19.732400 2.065300
19.757600 2.568600
19.782900 2.446300
19.808100 2.478300
19.833300 2.547200
19.858600 2.652900
19.883800 2.799400
19.909000 2.858800
19.934300 2.826500
19.959500 2.967000
19.984700 2.741500
20.010000 2.473400
20.035200 2.414500
20.060400 2.382200
20.085700 2.448100
20.110900 3.163500
20.136100 3.503200
20.161400 2.535000
20.186600 2.286900
20.211800 2.246500
20.237100 2.514400
20.262300 2.100100
20.287500 1.372400
20.312700 1.321700
20.338000 1.319400
20.363200 1.327200
20.388400 1.322200
20.413700 1.299800
20.438900 1.298100
20.464100 1.267900
20.489400 1.245500
20.514600 1.222900
20.539800 1.254600
20.565100 1.412500
20.590300 1.635800
20.615500 2.602400
20.640800 2.037800
20.666000 2.133800
20.691200 1.993500
20.716500 2.150900
20.741700 2.327500
20.766900 2.497700
20.792200 2.593400
20.817400 2.683100
20.842600 2.853300
20.867800 2.823000
20.893100 2.608700
20.918300 2.473400
20.943500 2.419900
20.968800 2.446200
20.994000 2.568600
21.019200 2.819200
21.044500 2.948400
21.069700 2.930800
21.094900 3.012600
21.120200 3.276100
21.145400 3.366300
21.170600 3.290900
21.195900 3.089000
21.221100 2.743400
21.246300 2.586400
21.271600 2.587800
21.296800 2.372500
21.322000 1.860600
21.347300 1.622600
21.372500 1.815300
21.397700 1.879700
21.422900 1.962800
21.448200 2.478300
21.473400 2.259100
21.498600 2.256600
21.523900 2.309500
21.549100 2.368900
21.574300 2.334800
21.599600 2.292200
21.624800 2.452500
21.650000 2.497700
21.675300 2.218000
21.700500 2.167900
21.725700 2.188300
21.751000 2.348400
21.776200 2.395900
21.801400 2.413800
21.826700 2.251300
21.851900 2.239300
21.877100 2.163300
21.902400 2.192700
21.927600 2.252700
21.952800 2.473800
21.978000 3.274600
22.003300 3.602800
22.028500 4.061900
22.053700 4.118700
22.079000 3.944700
22.104200 3.665000
22.129400 2.969900
22.154700 2.772100
22.179900 2.409400
22.205100 2.066700
22.230400 2.200500
22.255600 2.292300
22.280800 2.392700
22.306100 2.526400
22.331300 2.805500
22.356500 3.074400
22.381800 2.557600
22.407000 2.420800
22.432200 2.385800
22.457500 2.393200
22.482700 2.460600
22.507900 2.721000
22.533100 2.924500
22.558400 2.984200
22.583600 3.614100
22.608800 3.260800
22.634100 3.254000
22.659300 2.509000
22.684500 2.012000
22.709800 1.727700
22.735000 1.538600
22.760200 1.412200
22.785500 1.290500
22.810700 1.141900
22.835900 0.812100
22.861200 0.609600
22.886400 0.469700
22.911600 0.327000
22.936900 0.187100
22.962100 0.134800
22.987300 0.090100
23.012600 0.041500
23.037800 0.011300
23.063000 0.000100
23.088200 0.000000
23.113500 0.000000
23.138700 0.000000
23.163900 0.000000
23.189200 0.000000
23.214400 0.000000
23.239600 0.000000
23.264900 0.000000
23.290100 0.000000
23.315300 0.000000
23.340600 0.000000
23.365800 0.000000
23.391000 0.000000
23.416300 0.000000
23.441500 0.000000
23.466700 0.000000
23.492000 0.000000
23.517200 0.000000
23.542400 0.000000
23.567700 0.000000
23.592900 0.000000
23.618100 0.000000
23.643300 0.000000
23.668600 0.000000
23.693800 0.000000
23.719000 0.000000
23.744300 0.000000
23.769500 0.000000
23.794700 0.000000
23.820000 0.000000
23.845200 0.000000
23.870400 0.000000
23.895700 0.000000
23.920900 0.000000
23.946100 0.000000
23.971400 0.000000
23.996600 0.000000
24.021800 0.000000
24.047100 0.000000
24.072300 0.000000
24.097500 0.000000
24.122800 0.000000
24.148000 0.000000
24.173200 0.000000
24.198400 0.000000
24.223700 0.000000
24.248900 0.000000
24.274100 0.000000
24.299400 0.000000
24.324600 0.000000
24.349800 0.000000
24.375100 0.000000
24.400300 0.000000
24.425500 0.000000
24.450800 0.000000
24.476000 0.000000
24.501200 0.000000
24.526500 0.000000
24.551700 0.000000
24.576900 0.000000
24.602200 0.000000
24.627400 0.000000
24.652600 0.000000
24.677900 0.000000
24.703100 0.000000
24.728300 0.000000
24.753600 0.000000
24.778800 0.000000
24.804000 0.000000
24.829200 0.000000
24.854500 0.000000
24.879700 0.000000
24.904900 0.000000
24.930200 0.000000
24.955400 0.000000
24.980600 0.000000
25.005900 0.000000
25.031100 0.000000
25.056300 0.000000
25.081600 0.000000
25.106800 0.000000
25.132000 0.000000
25.157300 0.000000
25.182500 0.000000
25.207700 0.000000
25.233000 0.000000
25.258200 0.000000
25.283400 0.000000
25.308700 0.000000
25.333900 0.000000
25.359100 0.000000
e
