set title 'mp-1220321 - Density of States'
set xlabel 'Energy (eV)'
set ylabel 'DOS (states/eV)'
set grid
set xrange [-10:10]
set yrange [0:8.909]
set xzeroaxis lt -1
set terminal png size 800,600
set output 'mp-1220321_dos_gnuplot.png'
plot '-' using 1:2 with lines title 'DOS'
-28.170300 0.000000
-28.134600 0.000000
-28.098900 0.000000
-28.063200 0.000000
-28.027400 0.000000
-27.991700 0.000000
-27.956000 0.000000
-27.920200 0.000000
-27.884500 0.000000
-27.848800 0.000000
-27.813100 0.000000
-27.777300 0.000000
-27.741600 0.000000
-27.705900 0.000000
-27.670100 0.000000
-27.634400 0.000000
-27.598700 0.000000
-27.563000 0.000000
-27.527200 0.000000
-27.491500 0.000000
-27.455800 0.000000
-27.420000 0.000000
-27.384300 0.000000
-27.348600 0.000000
-27.312900 0.000000
-27.277100 0.000000
-27.241400 0.000000
-27.205700 0.000000
-27.169900 0.000000
-27.134200 0.000000
-27.098500 0.000000
-27.062800 0.000000
-27.027000 0.000000
-26.991300 0.000000
-26.955600 0.000000
-26.919800 0.000000
-26.884100 0.000000
-26.848400 0.000000
-26.812700 0.000000
-26.776900 0.000000
-26.741200 0.000000
-26.705500 0.000000
-26.669700 0.000000
-26.634000 0.000000
-26.598300 0.000000
-26.562600 0.000000
-26.526800 0.000000
-26.491100 0.000000
-26.455400 0.000000
-26.419600 0.000000
-26.383900 0.000000
-26.348200 0.000000
-26.312500 0.000000
-26.276700 0.000000
-26.241000 0.000000
-26.205300 0.000000
-26.169500 0.000000
-26.133800 0.000000
-26.098100 0.000000
-26.062400 0.000000
-26.026600 0.000000
-25.990900 0.000000
-25.955200 0.000000
-25.919400 0.000000
-25.883700 0.000000
-25.848000 0.000000
-25.812300 0.000000
-25.776500 0.000000
-25.740800 0.000000
-25.705100 0.000000
-25.669300 0.000000
-25.633600 0.000000
-25.597900 0.000000
-25.562200 0.000000
-25.526400 0.000000
-25.490700 0.000000
-25.455000 0.000000
-25.419200 0.000000
-25.383500 0.000000
-25.347800 0.000000
-25.312100 0.000000
-25.276300 0.000000
-25.240600 0.000000
-25.204900 0.000000
-25.169100 0.000000
-25.133400 0.000000
-25.097700 0.000000
-25.062000 0.000000
-25.026200 0.000000
-24.990500 0.000000
-24.954800 0.000000
-24.919000 0.571800
-24.883300 2.633500
-24.847600 3.135700
-24.811900 3.144900
-24.776100 3.402400
-24.740400 3.920200
-24.704700 4.871800
-24.668900 4.534500
-24.633200 2.627200
-24.597500 2.233500
-24.561800 1.863200
-24.526000 1.438600
-24.490300 5.125300
-24.454600 5.892900
-24.418800 7.547200
-24.383100 0.724900
-24.347400 10.698100
-24.311700 13.531300
-24.275900 17.506000
-24.240200 2.683000
-24.204500 2.336800
-24.168700 2.382600
-24.133000 2.502300
-24.097300 2.794700
-24.061600 2.965200
-24.025800 3.243900
-23.990100 3.890000
-23.954400 4.368800
-23.918600 7.248500
-23.882900 5.357900
-23.847200 4.454200
-23.811500 3.904200
-23.775700 3.707100
-23.740000 3.334000
-23.704300 3.318000
-23.668500 2.998800
-23.632800 3.157400
-23.597100 0.000000
-23.561300 0.000000
-23.525600 0.000000
-23.489900 0.000000
-23.454200 0.000000
-23.418400 0.000000
-23.382700 0.000000
-23.347000 0.000000
-23.311200 0.000000
-23.275500 0.000000
-23.239800 0.000000
-23.204100 0.000000
-23.168300 0.000000
-23.132600 0.000000
-23.096900 0.000000
-23.061100 0.000000
-23.025400 0.000000
-22.989700 0.000000
-22.954000 0.000000
-22.918200 0.000000
-22.882500 0.000000
-22.846800 0.000000
-22.811000 0.000000
-22.775300 0.000000
-22.739600 0.000000
-22.703900 0.000000
-22.668100 0.000000
-22.632400 0.000000
-22.596700 0.000000
-22.560900 0.000000
-22.525200 0.000000
-22.489500 0.000000
-22.453800 0.000000
-22.418000 0.000000
-22.382300 0.000000
-22.346600 0.000000
-22.310800 0.000000
-22.275100 0.000000
-22.239400 0.000000
-22.203700 0.000000
-22.167900 0.000000
-22.132200 0.000000
-22.096500 0.000000
-22.060700 0.000000
-22.025000 0.000000
-21.989300 0.000000
-21.953600 0.000000
-21.917800 0.000000
-21.882100 0.000000
-21.846400 0.000000
-21.810600 0.000000
-21.774900 0.000000
-21.739200 0.000000
-21.703500 0.000000
-21.667700 0.000000
-21.632000 0.000000
-21.596300 0.000000
-21.560500 0.000000
-21.524800 0.000000
-21.489100 0.000000
-21.453400 0.000000
-21.417600 0.000000
-21.381900 0.000000
-21.346200 0.000000
-21.310400 0.000000
-21.274700 0.000000
-21.239000 0.000000
-21.203300 0.000000
-21.167500 0.000000
-21.131800 0.000000
-21.096100 0.000000
-21.060300 0.000000
-21.024600 0.000000
-20.988900 0.000000
-20.953200 0.000000
-20.917400 0.000000
-20.881700 0.000000
-20.846000 0.000000
-20.810200 0.000000
-20.774500 0.000000
-20.738800 0.000000
-20.703100 0.000000
-20.667300 0.000000
-20.631600 0.000000
-20.595900 0.000000
-20.560100 0.000000
-20.524400 0.000000
-20.488700 0.000000
-20.453000 0.000000
-20.417200 0.000000
-20.381500 0.000000
-20.345800 0.000000
-20.310000 0.000000
-20.274300 0.000000
-20.238600 0.000000
-20.202900 0.000000
-20.167100 0.000000
-20.131400 0.000000
-20.095700 0.000000
-20.059900 0.000000
-20.024200 0.000000
-19.988500 0.000000
-19.952800 0.000000
-19.917000 0.000000
-19.881300 0.000000
-19.845600 0.000000
-19.809800 0.000000
-19.774100 0.000000
-19.738400 0.000000
-19.702700 0.000000
-19.666900 0.000000
-19.631200 0.000000
-19.595500 0.000000
-19.559700 0.000000
-19.524000 0.000000
-19.488300 0.000000
-19.452600 0.000000
-19.416800 0.000000
-19.381100 0.000000
-19.345400 0.000000
-19.309600 0.000000
-19.273900 0.000000
-19.238200 0.000000
-19.202500 0.000000
-19.166700 0.000000
-19.131000 0.000000
-19.095300 0.000000
-19.059500 0.000000
-19.023800 0.000000
-18.988100 0.000000
-18.952400 0.000000
-18.916600 0.000000
-18.880900 0.000000
-18.845200 0.000000
-18.809400 0.000000
-18.773700 0.000000
-18.738000 0.000000
-18.702200 0.000000
-18.666500 0.000000
-18.630800 0.000000
-18.595100 0.000000
-18.559300 0.000000
-18.523600 0.000000
-18.487900 0.000000
-18.452100 0.000000
-18.416400 0.000000
-18.380700 0.000000
-18.345000 0.000000
-18.309200 0.000000
-18.273500 0.000000
-18.237800 0.000000
-18.202000 0.000000
-18.166300 0.000000
-18.130600 0.000000
-18.094900 0.000000
-18.059100 0.000000
-18.023400 0.000000
-17.987700 0.000000
-17.951900 0.000000
-17.916200 0.000000
-17.880500 0.000000
-17.844800 0.000000
-17.809000 0.000000
-17.773300 0.000000
-17.737600 0.000000
-17.701800 0.000000
-17.666100 0.000000
-17.630400 0.000000
-17.594700 0.000000
-17.558900 0.000000
-17.523200 0.000000
-17.487500 0.000000
-17.451700 0.000000
-17.416000 0.000000
-17.380300 0.000000
-17.344600 0.000000
-17.308800 0.000000
-17.273100 0.000000
-17.237400 0.000000
-17.201600 0.000000
-17.165900 0.000000
-17.130200 0.000000
-17.094500 0.000000
-17.058700 0.000000
-17.023000 0.000000
-16.987300 0.000000
-16.951500 0.000000
-16.915800 0.000000
-16.880100 0.000000
-16.844400 0.000000
-16.808600 0.000000
-16.772900 0.000000
-16.737200 0.000000
-16.701400 0.000000
-16.665700 0.000000
-16.630000 0.000000
-16.594300 0.000000
-16.558500 0.000000
-16.522800 0.000000
-16.487100 0.000000
-16.451300 0.000000
-16.415600 0.000000
-16.379900 0.000000
-16.344200 0.000000
-16.308400 0.000000
-16.272700 0.000000
-16.237000 0.000000
-16.201200 0.000000
-16.165500 0.000000
-16.129800 0.000000
-16.094100 0.000000
-16.058300 0.000000
-16.022600 0.000000
-15.986900 0.000000
-15.951100 0.000000
-15.915400 0.000000
-15.879700 0.000000
-15.844000 0.000000
-15.808200 0.000000
-15.772500 0.000000
-15.736800 0.000000
-15.701000 0.000000
-15.665300 0.000000
-15.629600 0.000000
-15.593900 0.000000
-15.558100 0.000000
-15.522400 0.000000
-15.486700 0.000000
-15.450900 0.000000
-15.415200 0.000000
-15.379500 0.000000
-15.343800 0.000000
-15.308000 0.000000
-15.272300 0.000000
-15.236600 0.000000
-15.200800 0.000000
-15.165100 0.000000
-15.129400 0.000000
-15.093700 0.000000
-15.057900 0.000000
-15.022200 0.000000
-14.986500 0.000000
-14.950700 0.000000
-14.915000 0.000000
-14.879300 0.000000
-14.843600 0.000000
-14.807800 0.000000
-14.772100 0.000000
-14.736400 0.000000
-14.700600 0.000000
-14.664900 0.000000
-14.629200 0.000000
-14.593500 0.000000
-14.557700 0.000000
-14.522000 0.000000
-14.486300 0.000000
-14.450500 0.000000
-14.414800 0.000000
-14.379100 0.000000
-14.343400 0.000000
-14.307600 0.000000
-14.271900 0.000000
-14.236200 0.000000
-14.200400 0.000000
-14.164700 0.000000
-14.129000 0.000000
-14.093300 0.000000
-14.057500 0.000000
-14.021800 0.000000
-13.986100 0.000000
-13.950300 0.000000
-13.914600 0.000000
-13.878900 0.000000
-13.843200 0.000000
-13.807400 0.000000
-13.771700 0.000000
-13.736000 0.000000
-13.700200 0.000000
-13.664500 0.000000
-13.628800 0.000000
-13.593000 0.000000
-13.557300 0.000000
-13.521600 0.000000
-13.485900 0.000000
-13.450100 0.000000
-13.414400 0.000000
-13.378700 0.000000
-13.342900 0.000000
-13.307200 0.000000
-13.271500 0.000000
-13.235800 0.000000
-13.200000 0.000000
-13.164300 0.000000
-13.128600 0.000000
-13.092800 0.000000
-13.057100 0.000000
-13.021400 0.000000
-12.985700 0.000000
-12.949900 0.000000
-12.914200 0.000000
-12.878500 0.000000
-12.842700 0.000000
-12.807000 0.000000
-12.771300 0.000000
-12.735600 0.000000
-12.699800 0.000000
-12.664100 0.000000
-12.628400 0.000000
-12.592600 0.000000
-12.556900 0.000000
-12.521200 0.000000
-12.485500 0.000000
-12.449700 0.000000
-12.414000 0.000000
-12.378300 0.000000
-12.342500 0.000000
-12.306800 0.000000
-12.271100 0.000000
-12.235400 0.000000
-12.199600 0.000000
-12.163900 0.000000
-12.128200 0.000000
-12.092400 0.000000
-12.056700 0.000000
-12.021000 0.000000
-11.985300 0.000000
-11.949500 0.000000
-11.913800 0.000000
-11.878100 0.000000
-11.842300 0.000000
-11.806600 0.000000
-11.770900 0.000000
-11.735200 0.000000
-11.699400 0.000000
-11.663700 0.000000
-11.628000 0.000000
-11.592200 0.000000
-11.556500 0.000000
-11.520800 0.000000
-11.485100 0.000000
-11.449300 0.000000
-11.413600 0.000000
-11.377900 0.000000
-11.342100 0.000000
-11.306400 0.000000
-11.270700 0.000000
-11.235000 0.000000
-11.199200 0.000000
-11.163500 0.000000
-11.127800 0.000000
-11.092000 0.000000
-11.056300 0.000000
-11.020600 0.000000
-10.984900 0.000000
-10.949100 0.000000
-10.913400 0.000000
-10.877700 0.000000
-10.841900 0.000000
-10.806200 0.000000
-10.770500 0.000000
-10.734800 0.000000
-10.699000 0.000000
-10.663300 0.000000
-10.627600 0.000000
-10.591800 0.000000
-10.556100 0.000000
-10.520400 0.000000
-10.484700 0.000000
-10.448900 0.000000
-10.413200 0.000000
-10.377500 0.000000
-10.341700 0.000000
-10.306000 0.000000
-10.270300 0.000000
-10.234600 0.000000
-10.198800 0.000000
-10.163100 0.000000
-10.127400 0.000000
-10.091600 0.000000
-10.055900 0.000000
-10.020200 0.000000
-9.984500 0.000000
-9.948700 0.000000
-9.913000 0.000000
-9.877300 0.000000
-9.841500 0.000000
-9.805800 0.000000
-9.770100 0.000000
-9.734400 0.000000
-9.698600 0.000000
-9.662900 0.000000
-9.627200 0.000000
-9.591400 0.000000
-9.555700 0.000000
-9.520000 0.000000
-9.484300 0.000000
-9.448500 0.000000
-9.412800 0.000000
-9.377100 0.000000
-9.341300 0.000000
-9.305600 0.000000
-9.269900 0.000000
-9.234200 0.000000
-9.198400 0.000000
-9.162700 0.000000
-9.127000 0.000000
-9.091200 0.000000
-9.055500 0.000000
-9.019800 0.000000
-8.984100 0.000000
-8.948300 0.000000
-8.912600 0.000000
-8.876900 0.000000
-8.841100 0.000000
-8.805400 0.000000
-8.769700 0.000000
-8.733900 0.000000
-8.698200 0.000000
-8.662500 0.000000
-8.626800 0.000000
-8.591000 0.000000
-8.555300 0.000000
-8.519600 0.000000
-8.483800 0.000000
-8.448100 0.000000
-8.412400 0.000000
-8.376700 0.000000
-8.340900 0.000000
-8.305200 0.000000
-8.269500 0.000000
-8.233700 0.000000
-8.198000 0.000000
-8.162300 0.000000
-8.126600 0.000000
-8.090800 0.000000
-8.055100 0.000000
-8.019400 0.000000
-7.983600 0.000000
-7.947900 0.000000
-7.912200 0.000000
-7.876500 0.000000
-7.840700 0.000000
-7.805000 0.000000
-7.769300 0.000000
-7.733500 0.000000
-7.697800 0.000000
-7.662100 0.000000
-7.626400 0.000000
-7.590600 0.000000
-7.554900 0.000000
-7.519200 0.000000
-7.483400 0.000000
-7.447700 0.000000
-7.412000 0.000000
-7.376300 0.000000
-7.340500 0.000000
-7.304800 0.000000
-7.269100 0.000000
-7.233300 0.000000
-7.197600 0.000000
-7.161900 0.000000
-7.126200 0.000000
-7.090400 0.000000
-7.054700 0.000000
-7.019000 0.000000
-6.983200 0.000000
-6.947500 0.000000
-6.911800 0.000000
-6.876100 0.000000
-6.840300 0.000000
-6.804600 0.000000
-6.768900 0.000000
-6.733100 0.000000
-6.697400 0.000000
-6.661700 0.000000
-6.626000 0.000000
-6.590200 0.000000
-6.554500 0.000000
-6.518800 0.000000
-6.483000 0.000000
-6.447300 0.000000
-6.411600 0.000000
-6.375900 0.000000
-6.340100 0.000000
-6.304400 0.000000
-6.268700 0.000000
-6.232900 0.000000
-6.197200 0.000000
-6.161500 0.000000
-6.125800 0.000000
-6.090000 0.000000
-6.054300 0.000000
-6.018600 0.000000
-5.982800 0.000000
-5.947100 0.000000
-5.911400 0.000000
-5.875700 0.000000
-5.839900 0.000000
-5.804200 0.000000
-5.768500 0.000000
-5.732700 0.000000
-5.697000 0.000000
-5.661300 0.000000
-5.625600 0.000000
-5.589800 0.000000
-5.554100 0.000000
-5.518400 0.000000
-5.482600 0.000000
-5.446900 0.000000
-5.411200 0.000000
-5.375500 0.000000
-5.339700 0.000000
-5.304000 0.000000
-5.268300 0.000000
-5.232500 0.000000
-5.196800 0.000000
-5.161100 0.000000
-5.125400 0.000000
-5.089600 0.000000
-5.053900 0.000000
-5.018200 0.000000
-4.982400 0.000000
-4.946700 0.000000
-4.911000 0.000000
-4.875300 0.000000
-4.839500 0.000000
-4.803800 0.000000
-4.768100 0.000000
-4.732300 0.000000
-4.696600 0.000000
-4.660900 0.000000
-4.625200 0.000000
-4.589400 0.000000
-4.553700 0.000000
-4.518000 0.000000
-4.482200 0.000000
-4.446500 0.000000
-4.410800 0.000000
-4.375100 0.000000
-4.339300 0.000000
-4.303600 0.000000
-4.267900 0.000000
-4.232100 0.000000
-4.196400 0.000000
-4.160700 0.000000
-4.125000 0.000000
-4.089200 0.000000
-4.053500 0.000000
-4.017800 0.000000
-3.982000 0.000000
-3.946300 0.000000
-3.910600 0.000000
-3.874800 0.000000
-3.839100 0.000000
-3.803400 0.000000
-3.767700 0.000000
-3.731900 0.000000
-3.696200 0.000000
-3.660500 0.000000
-3.624700 0.000000
-3.589000 0.000000
-3.553300 0.000000
-3.517600 0.000000
-3.481800 0.000000
-3.446100 0.000000
-3.410400 0.000000
-3.374600 0.000000
-3.338900 0.000000
-3.303200 0.000000
-3.267500 0.000000
-3.231700 0.000000
-3.196000 0.000000
-3.160300 0.000000
-3.124500 0.000000
-3.088800 0.000000
-3.053100 0.000000
-3.017400 0.000000
-2.981600 0.000000
-2.945900 0.000000
-2.910200 0.000000
-2.874400 0.000000
-2.838700 0.000000
-2.803000 0.000000
-2.767300 0.000000
-2.731500 0.000000
-2.695800 0.000000
-2.660100 0.000000
-2.624300 0.000000
-2.588600 0.000000
-2.552900 0.000000
-2.517200 0.000000
-2.481400 0.000000
-2.445700 0.000000
-2.410000 0.000000
-2.374200 0.000000
-2.338500 0.000000
-2.302800 0.000000
-2.267100 0.000000
-2.231300 0.001300
-2.195600 0.015800
-2.159900 0.046000
-2.124100 0.072700
-2.088400 0.080100
-2.052700 0.084200
-2.017000 0.096700
-1.981200 0.109800
-1.945500 0.123400
-1.909800 0.136000
-1.874000 0.145300
-1.838300 0.152800
-1.802600 0.160800
-1.766900 0.170400
-1.731100 0.181000
-1.695400 0.196000
-1.659700 0.223000
-1.623900 0.244800
-1.588200 0.229600
-1.552500 0.235100
-1.516800 0.238800
-1.481000 0.240900
-1.445300 0.243000
-1.409600 0.244000
-1.373800 0.242700
-1.338100 0.242200
-1.302400 0.244400
-1.266700 0.247300
-1.230900 0.250200
-1.195200 0.253000
-1.159500 0.255700
-1.123700 0.258500
-1.088000 0.261100
-1.052300 0.261600
-1.016600 0.263700
-0.980800 0.265400
-0.945100 0.267500
-0.909400 0.270100
-0.873600 0.273200
-0.837900 0.276400
-0.802200 0.279600
-0.766500 0.282700
-0.730700 0.288400
-0.695000 0.313400
-0.659300 0.343200
-0.623500 0.344100
-0.587800 0.356600
-0.552100 0.370400
-0.516400 0.384700
-0.480600 0.399700
-0.444900 0.415200
-0.409200 0.429200
-0.373400 0.444000
-0.337700 0.460000
-0.302000 0.477700
-0.266300 0.496000
-0.230500 0.515000
-0.194800 0.536700
-0.159100 0.569400
-0.123300 0.613900
-0.087600 0.641600
-0.051900 0.649500
-0.016200 0.658200
0.019600 0.675300
0.055300 0.692400
0.091000 0.709600
0.126800 0.727200
0.162500 0.764000
0.198200 0.802000
0.233900 0.847000
0.269700 0.894800
0.305400 0.947800
0.341100 1.027600
0.376900 1.253900
0.412600 1.569400
0.448300 1.714100
0.484000 1.677500
0.519800 1.976300
0.555500 2.015900
0.591200 1.945400
0.627000 1.893500
0.662700 1.849300
0.698400 1.722900
0.734100 1.561000
0.769900 1.953400
0.805600 2.432300
0.841300 2.764600
0.877100 3.040100
0.912800 3.131300
0.948500 3.367800
0.984300 3.600900
1.020000 3.409300
1.055700 3.412000
1.091400 3.452600
1.127200 3.518100
1.162900 3.478600
1.198600 3.363000
1.234400 3.380700
1.270100 3.443300
1.305800 3.475200
1.341500 3.543000
1.377300 3.718300
1.413000 3.690400
1.448700 3.660300
1.484500 3.548700
1.520200 3.454500
1.555900 3.492600
1.591600 3.540200
1.627400 4.128800
1.663100 3.931000
1.698800 3.753200
1.734600 3.581800
1.770300 3.686100
1.806000 4.315200
1.841700 4.537200
1.877500 4.842400
1.913200 4.789500
1.948900 4.526900
1.984700 4.246400
2.020400 3.717100
2.056100 3.752100
2.091800 3.926300
2.127600 3.799200
2.163300 3.895500
2.199000 4.801400
2.234800 4.341900
2.270500 4.067700
2.306200 3.983200
2.341900 3.907800
2.377700 3.663800
2.413400 3.261800
2.449100 3.112900
2.484900 3.454600
2.520600 5.540300
2.556300 8.099000
2.592000 7.549600
2.627800 7.236000
2.663500 5.365500
2.699200 4.614900
2.735000 4.378400
2.770700 3.928700
2.806400 3.577100
2.842100 3.444400
2.877900 3.282100
2.913600 3.379500
2.949300 3.521500
2.985100 3.842500
3.020800 4.147600
3.056500 4.043500
3.092200 4.195300
3.128000 4.283200
3.163700 4.191800
3.199400 4.284900
3.235200 4.934100
3.270900 5.157500
3.306600 5.593800
3.342300 5.330300
3.378100 4.879800
3.413800 4.245300
3.449500 4.292400
3.485300 4.106700
3.521000 4.310800
3.556700 4.454200
3.592400 4.547000
3.628200 4.306000
3.663900 4.166300
3.699600 4.152200
3.735400 4.615300
3.771100 4.979400
3.806800 4.893000
3.842500 4.923600
3.878300 4.907900
3.914000 4.978800
3.949700 5.875100
3.985500 5.132800
4.021200 4.673000
4.056900 4.710000
4.092600 4.540200
4.128400 4.274000
4.164100 4.288400
4.199800 4.509300
4.235600 3.976200
4.271300 3.303000
4.307000 2.900900
4.342700 2.979000
4.378500 4.032900
4.414200 4.427000
4.449900 4.157300
4.485700 3.667800
4.521400 3.497300
4.557100 3.789000
4.592800 4.585200
4.628600 5.747000
4.664300 6.334000
4.700000 7.028500
4.735800 6.454100
4.771500 6.512300
4.807200 6.483000
4.842900 6.795300
4.878700 6.635900
4.914400 5.429500
4.950100 4.328400
4.985900 3.593400
5.021600 3.144600
5.057300 3.160000
5.093000 3.201800
5.128800 3.709200
5.164500 3.865200
5.200200 4.015100
5.236000 3.723600
5.271700 3.683900
5.307400 3.411900
5.343100 3.252200
5.378900 3.513700
5.414600 3.494600
5.450300 3.801500
5.486100 3.521800
5.521800 3.117900
5.557500 2.917300
5.593200 2.927200
5.629000 3.045500
5.664700 3.251300
5.700400 3.574300
5.736200 3.496700
5.771900 3.036700
5.807600 2.835000
5.843400 2.666100
5.879100 2.531700
5.914800 2.462200
5.950500 2.450500
5.986300 2.337000
6.022000 2.114700
6.057700 1.968900
6.093500 1.917600
6.129200 1.891100
6.164900 1.881700
6.200600 1.868300
6.236400 1.743500
6.272100 1.748600
6.307800 1.869600
6.343600 1.959400
6.379300 2.114800
6.415000 2.287500
6.450700 2.431600
6.486500 2.521400
6.522200 2.499800
6.557900 2.534900
6.593700 2.622300
6.629400 2.815700
6.665100 2.815100
6.700800 2.773200
6.736600 2.556300
6.772300 2.498000
6.808000 2.456600
6.843800 2.485300
6.879500 2.390200
6.915200 2.197600
6.950900 2.131300
6.986700 2.148700
7.022400 2.396100
7.058100 3.552900
7.093900 3.026100
7.129600 2.731700
7.165300 2.499200
7.201000 2.432400
7.236800 2.523100
7.272500 2.691400
7.308200 2.778300
7.344000 2.948400
7.379700 3.169200
7.415400 2.543400
7.451100 3.082400
7.486900 2.983600
7.522600 2.767100
7.558300 2.621200
7.594100 2.488400
7.629800 2.537700
7.665500 2.606500
7.701200 2.679000
7.737000 2.445300
7.772700 2.439000
7.808400 2.447700
7.844200 2.426800
7.879900 2.405300
7.915600 2.376400
7.951300 2.351000
7.987100 2.299500
8.022800 2.218300
8.058500 2.148200
8.094300 2.105700
8.130000 2.024800
8.165700 1.957000
8.201400 2.057200
8.237200 2.047600
8.272900 2.006800
8.308600 1.886500
8.344400 1.889200
8.380100 1.986400
8.415800 1.865700
8.451500 1.846900
8.487300 1.857200
8.523000 1.792700
8.558700 1.654900
8.594500 1.581400
8.630200 1.541600
8.665900 1.530100
8.701600 1.526200
8.737400 1.530500
8.773100 1.652300
8.808800 1.742600
8.844600 1.741900
8.880300 1.696900
8.916000 1.637400
8.951700 1.616600
8.987500 1.677400
9.023200 1.689600
9.058900 1.732600
9.094700 1.746000
9.130400 1.771800
9.166100 1.778300
9.201800 1.754900
9.237600 1.725300
9.273300 1.706800
9.309000 1.702900
9.344800 1.941300
9.380500 2.102300
9.416200 2.216700
9.451900 2.204000
9.487700 2.100600
9.523400 2.000100
9.559100 1.686000
9.594900 1.406700
9.630600 1.233900
9.666300 1.176000
9.702000 1.382400
9.737800 1.528800
9.773500 1.686900
9.809200 1.867300
9.845000 2.063400
9.880700 2.324400
9.916400 2.703500
9.952100 3.261200
9.987900 3.450700
10.023600 3.294100
10.059300 2.854800
10.095100 2.365700
10.130800 2.058500
10.166500 1.692400
10.202200 1.404200
10.238000 1.370600
10.273700 1.358100
10.309400 1.341400
10.345200 1.323400
10.380900 1.293400
10.416600 1.265800
10.452300 1.250300
10.488100 1.244300
10.523800 1.245000
10.559500 1.235000
10.595300 1.224700
10.631000 1.226500
10.666700 1.241600
10.702400 1.260400
10.738200 1.269500
10.773900 1.280900
10.809600 1.391200
10.845400 1.375500
10.881100 1.264900
10.916800 1.115100
10.952600 1.032600
10.988300 0.971300
11.024000 0.968600
11.059700 0.968900
11.095500 0.965200
11.131200 0.962200
11.166900 0.958200
11.202700 0.986700
11.238400 0.986100
11.274100 1.001100
11.309800 1.027300
11.345600 1.057300
11.381300 1.095000
11.417000 1.138800
11.452800 1.321200
11.488500 1.412500
11.524200 1.526000
11.559900 1.596600
11.595700 1.649700
11.631400 1.745200
11.667100 1.815900
11.702900 1.840700
11.738600 1.801800
11.774300 1.700800
11.810000 1.691000
11.845800 1.381100
11.881500 1.262600
11.917200 1.203100
11.953000 1.181800
11.988700 1.174500
12.024400 1.146400
12.060100 1.439400
12.095900 1.301600
12.131600 1.292200
12.167300 1.254900
12.203100 1.165800
12.238800 1.118600
12.274500 1.085900
12.310200 1.097300
12.346000 1.057300
12.381700 1.009800
12.417400 0.955300
12.453200 0.898900
12.488900 0.839300
12.524600 0.797700
12.560300 0.785500
12.596100 0.788500
12.631800 0.777400
12.667500 0.775900
12.703300 0.796200
12.739000 0.834900
12.774700 0.883100
12.810400 0.938700
12.846200 1.022300
12.881900 1.104900
12.917600 1.181200
12.953400 1.266400
12.989100 1.287600
13.024800 1.270700
13.060500 1.240700
13.096300 1.196800
13.132000 1.146700
13.167700 1.100100
13.203500 1.049900
13.239200 1.000000
13.274900 0.935200
13.310600 0.873600
13.346400 0.809200
13.382100 0.747700
13.417800 0.697000
13.453600 0.665400
13.489300 0.688500
13.525000 0.667100
13.560700 0.680600
13.596500 0.706400
13.632200 0.731100
13.667900 0.763500
13.703700 0.812900
13.739400 0.786600
13.775100 0.796000
13.810800 0.826200
13.846600 0.879900
13.882300 0.925300
13.918000 0.984600
13.953800 1.110900
13.989500 1.193600
14.025200 1.372100
14.060900 2.437200
14.096700 1.452000
14.132400 1.436000
14.168100 1.248500
14.203900 1.175800
14.239600 1.093300
14.275300 1.036800
14.311000 0.996000
14.346800 0.916100
14.382500 0.849100
14.418200 0.800400
14.454000 0.770300
14.489700 0.747600
14.525400 0.730100
14.561100 0.721700
14.596900 0.717800
14.632600 0.716600
14.668300 0.716400
14.704100 0.717400
14.739800 0.725400
14.775500 0.743700
14.811200 0.772800
14.847000 0.796400
14.882700 0.819700
14.918400 0.846500
14.954200 0.864000
14.989900 0.886400
15.025600 0.930700
15.061300 1.022300
15.097100 1.101900
15.132800 1.172200
15.168500 1.226800
15.204300 1.240800
15.240000 1.233000
15.275700 1.226400
15.311400 1.230100
15.347200 1.254200
15.382900 1.270400
15.418600 1.276200
15.454400 1.266300
15.490100 1.255000
15.525800 1.202000
15.561500 1.137100
15.597300 1.095200
15.633000 1.065400
15.668700 1.042400
15.704500 1.024300
15.740200 1.012100
15.775900 1.016900
15.811700 1.035100
15.847400 1.040800
15.883100 0.996200
15.918800 0.943400
15.954600 0.899600
15.990300 0.863800
16.026000 0.837100
16.061800 0.817100
16.097500 0.860600
16.133200 0.747100
16.168900 0.753100
16.204700 0.758700
16.240400 0.752500
16.276100 0.751600
16.311900 0.756800
16.347600 0.764700
16.383300 0.772300
16.419000 0.778000
16.454800 0.782900
16.490500 0.790500
16.526200 0.800800
16.562000 0.815000
16.597700 0.834000
16.633400 0.861500
16.669100 0.916900
16.704900 0.948900
16.740600 0.922700
16.776300 0.903000
16.812100 0.902700
16.847800 0.905500
16.883500 0.906000
16.919200 0.904600
16.955000 0.924800
16.990700 0.910200
17.026400 0.914600
17.062200 0.909500
17.097900 0.907600
17.133600 0.906700
17.169300 0.913900
17.205100 0.922300
17.240800 0.928900
17.276500 0.933300
17.312300 0.933700
17.348000 0.941800
17.383700 0.952500
17.419400 0.947400
17.455200 0.941400
17.490900 0.965700
17.526600 1.005700
17.562400 0.990400
17.598100 1.000200
17.633800 1.021100
17.669500 1.046500
17.705300 1.117800
17.741000 1.162000
17.776700 1.184900
17.812500 1.188000
17.848200 1.170000
17.883900 1.162200
17.919600 1.168500
17.955400 1.171200
17.991100 1.174400
18.026800 1.179000
18.062600 1.185800
18.098300 1.193700
18.134000 1.178100
18.169700 1.146200
18.205500 1.090700
18.241200 1.073300
18.276900 1.066700
18.312700 1.073500
18.348400 1.088800
18.384100 1.117200
18.419800 1.198000
18.455600 1.244800
18.491300 1.292400
18.527000 1.326700
18.562800 1.345700
18.598500 1.364900
18.634200 1.387600
18.669900 1.403200
18.705700 1.445100
18.741400 1.586200
18.777100 1.526600
18.812900 1.502400
18.848600 1.500900
18.884300 1.508000
18.920000 1.527300
18.955800 1.573900
18.991500 1.640000
19.027200 1.704200
19.063000 1.736500
19.098700 1.721400
19.134400 1.732200
19.170100 1.739100
19.205900 1.750200
19.241600 1.741600
19.277300 1.739500
19.313100 1.739600
19.348800 1.728900
19.384500 1.716000
19.420200 1.695600
19.456000 1.664600
19.491700 1.637100
19.527400 1.609600
19.563200 1.658100
19.598900 1.645800
19.634600 1.629500
19.670300 1.618800
19.706100 1.608600
19.741800 1.595000
19.777500 1.580800
19.813300 1.570200
19.849000 1.517600
19.884700 1.478800
19.920400 1.464800
19.956200 1.453400
19.991900 1.437500
20.027600 1.417900
20.063400 1.412500
20.099100 1.413100
20.134800 1.417400
20.170500 1.421400
20.206300 1.439600
20.242000 1.491000
20.277700 1.522800
20.313500 1.554300
20.349200 1.587600
20.384900 1.609400
20.420600 1.627300
20.456400 1.640200
20.492100 1.640000
20.527800 1.628100
20.563600 1.585200
20.599300 1.585900
20.635000 1.519100
20.670800 1.501900
20.706500 1.481900
20.742200 1.450100
20.777900 1.431400
20.813700 1.419800
20.849400 1.412800
20.885100 1.404500
20.920900 1.399800
20.956600 1.410300
20.992300 1.456800
21.028000 1.539900
21.063800 1.647200
21.099500 1.694900
21.135200 1.787800
21.171000 1.986200
21.206700 2.174600
21.242400 2.271800
21.278100 2.346400
21.313900 2.412400
21.349600 2.475600
21.385300 2.662500
21.421100 2.628000
21.456800 2.597400
21.492500 2.549600
21.528200 2.535800
21.564000 2.519000
21.599700 2.619800
21.635400 2.525800
21.671200 2.465700
21.706900 2.399900
21.742600 2.374300
21.778300 2.330200
21.814100 2.239600
21.849800 2.178500
21.885500 2.140400
21.921300 2.119700
21.957000 2.118300
21.992700 2.125600
22.028400 2.140100
22.064200 2.115100
22.099900 2.108400
22.135600 2.117400
22.171400 2.178100
22.207100 2.129700
22.242800 2.107100
22.278500 2.105000
22.314300 2.115400
22.350000 2.131700
22.385700 2.080400
22.421500 2.078100
22.457200 2.138500
22.492900 2.187300
22.528600 2.153300
22.564400 2.150400
22.600100 2.161400
22.635800 2.195000
22.671600 2.216600
22.707300 2.236300
22.743000 2.231200
22.778700 2.207500
22.814500 2.200400
22.850200 2.154400
22.885900 2.086000
22.921700 2.060600
22.957400 2.038400
22.993100 2.038400
23.028800 2.057600
23.064600 2.075900
23.100300 2.140400
23.136000 2.290100
23.171800 2.282900
23.207500 2.264300
23.243200 2.234100
23.278900 2.138900
23.314700 2.065700
23.350400 2.053400
23.386100 2.094000
23.421900 2.164400
23.457600 2.275600
23.493300 2.348600
23.529000 2.373700
23.564800 2.413000
23.600500 2.311400
23.636200 2.124500
23.672000 2.062100
23.707700 1.957400
23.743400 2.212000
23.779100 1.920100
23.814900 1.832500
23.850600 1.800900
23.886300 1.783400
23.922100 1.778400
23.957800 1.793400
23.993500 1.815000
24.029200 1.839800
24.065000 1.857700
24.100700 1.867300
24.136400 1.865200
24.172200 1.839700
24.207900 1.776400
24.243600 1.695800
24.279300 1.614400
24.315100 1.537000
24.350800 1.461000
24.386500 1.432800
24.422300 1.401000
24.458000 1.369300
24.493700 1.339200
24.529400 1.311500
24.565200 1.535100
24.600900 1.213600
24.636600 1.180900
24.672400 1.283700
24.708100 1.241000
24.743800 1.156900
24.779500 1.084500
24.815300 1.020000
24.851000 1.001700
24.886700 0.989900
24.922500 0.980600
24.958200 0.980100
24.993900 0.991000
25.029600 1.014800
25.065400 1.036600
25.101100 1.065900
25.136800 1.143200
25.172600 1.222000
25.208300 1.182800
25.244000 1.084800
25.279700 1.078300
25.315500 1.100100
25.351200 1.135200
25.386900 1.177200
25.422700 1.236700
25.458400 1.357900
25.494100 1.506500
25.529900 1.652600
25.565600 1.755900
25.601300 1.764200
25.637000 1.755400
25.672800 1.757600
25.708500 1.797200
25.744200 1.855900
25.780000 1.901900
25.815700 1.938900
25.851400 1.948200
25.887100 2.009500
25.922900 2.031500
25.958600 2.059300
25.994300 2.092100
26.030100 2.116300
26.065800 2.105800
26.101500 2.080700
26.137200 2.121300
26.173000 2.173800
26.208700 2.194500
26.244400 2.166700
26.280200 2.205800
26.315900 2.191300
26.351600 2.182500
26.387300 2.180300
26.423100 2.206900
26.458800 2.292100
26.494500 2.307200
26.530300 2.302900
26.566000 2.253000
26.601700 2.264700
26.637400 2.319000
26.673200 2.288400
26.708900 2.308800
26.744600 2.311500
26.780400 2.281100
26.816100 2.235200
26.851800 2.148600
26.887500 1.998600
26.923300 1.890000
26.959000 1.820100
26.994700 1.791400
27.030500 1.788500
27.066200 1.812000
27.101900 1.873800
27.137600 2.016800
27.173400 2.127600
27.209100 2.188000
27.244800 2.212500
27.280600 2.269700
27.316300 2.252400
27.352000 2.289800
27.387700 2.265100
27.423500 2.286600
27.459200 2.249000
27.494900 2.225000
27.530700 2.185000
27.566400 2.175900
27.602100 2.161500
27.637800 2.146200
27.673600 2.140600
27.709300 2.143400
27.745000 2.149700
27.780800 2.154300
27.816500 2.132000
27.852200 2.114200
27.887900 2.102000
27.923700 2.090500
27.959400 2.081600
27.995100 2.080100
28.030900 2.038400
28.066600 1.970500
28.102300 1.886700
28.138000 1.761400
28.173800 1.712500
28.209500 1.692300
28.245200 1.707800
28.281000 1.720300
28.316700 1.634100
28.352400 1.579500
28.388100 1.514400
28.423900 1.456700
28.459600 1.417700
28.495300 1.391500
28.531100 1.356200
28.566800 1.293200
28.602500 1.213900
28.638200 1.138200
28.674000 1.064200
28.709700 0.989800
28.745400 0.920300
28.781200 0.860400
28.816900 0.840900
28.852600 0.821400
28.888300 0.811200
28.924100 0.810700
28.959800 0.810400
28.995500 0.819700
29.031300 0.853600
29.067000 0.915600
29.102700 0.989200
29.138400 1.061400
29.174200 1.124700
29.209900 1.171800
29.245600 1.236400
29.281400 1.323000
29.317100 1.398600
29.352800 1.443400
29.388500 1.548800
29.424300 1.479400
29.460000 1.504100
29.495700 1.592600
29.531500 1.759600
29.567200 2.094400
29.602900 1.656800
29.638600 1.440800
29.674400 1.402100
29.710100 1.394000
29.745800 1.386100
29.781600 1.292200
29.817300 1.208600
29.853000 1.162500
29.888700 1.145200
29.924500 1.146100
29.960200 1.138900
29.995900 1.126200
30.031700 1.133000
30.067400 1.160500
30.103100 1.191900
30.138800 1.226700
30.174600 1.264100
30.210300 1.298600
30.246000 1.379900
30.281800 1.469000
30.317500 1.529600
30.353200 1.593400
30.389000 1.503000
30.424700 1.513000
30.460400 1.515900
30.496100 1.501000
30.531900 1.481500
30.567600 1.477100
30.603300 1.492600
30.639100 1.529800
30.674800 1.554200
30.710500 1.546100
30.746200 1.514800
30.782000 1.477800
30.817700 1.437000
30.853400 1.412300
30.889200 1.404400
30.924900 1.406700
30.960600 1.417300
30.996300 1.451700
31.032100 1.522100
31.067800 1.532400
31.103500 1.547200
31.139300 1.553600
31.175000 1.549900
31.210700 1.570600
31.246400 1.575400
31.282200 1.552300
31.317900 1.612800
31.353600 1.675300
31.389400 1.693900
31.425100 1.687300
31.460800 1.695200
31.496500 1.721900
31.532300 1.751300
31.568000 1.762900
31.603700 1.871600
31.639500 2.064300
31.675200 1.988400
31.710900 1.918700
31.746600 1.865600
31.782400 1.856000
31.818100 1.846600
31.853800 1.798100
31.889600 1.757900
31.925300 1.745100
31.961000 1.746800
31.996700 1.760300
32.032500 1.766600
32.068200 1.788000
32.103900 1.818300
32.139700 1.823100
32.175400 1.796900
32.211100 1.752500
32.246800 1.727600
32.282600 1.706100
32.318300 1.698600
32.354000 1.705400
32.389800 1.757000
32.425500 1.878800
32.461200 1.959400
32.496900 2.031800
32.532700 2.097300
32.568400 2.070100
32.604100 2.050600
32.639900 2.051900
32.675600 2.093700
32.711300 2.095300
32.747000 2.114800
32.782800 2.108600
32.818500 2.099700
32.854200 2.080100
32.890000 2.052200
32.925700 2.310900
32.961400 2.186900
32.997100 2.239100
33.032900 2.243700
33.068600 2.270200
33.104300 2.305300
33.140100 2.326100
33.175800 2.355900
33.211500 2.331000
33.247200 2.370100
33.283000 2.385000
33.318700 2.428100
33.354400 2.416900
33.390200 2.457500
33.425900 2.485400
33.461600 2.378900
33.497300 2.358800
33.533100 2.187900
33.568800 2.062700
33.604500 1.919300
33.640300 1.893400
33.676000 1.937400
33.711700 2.068500
33.747400 2.241100
33.783200 2.412300
33.818900 2.561600
33.854600 2.591900
33.890400 2.703200
33.926100 2.850700
33.961800 2.939800
33.997500 2.999500
34.033300 3.022800
34.069000 3.013100
34.104700 2.906400
34.140500 2.759500
34.176200 2.824200
34.211900 2.923600
34.247600 3.070000
34.283400 3.096500
34.319100 3.092400
34.354800 3.207400
34.390600 3.261600
34.426300 3.151600
34.462000 3.075700
34.497700 3.124100
34.533500 3.171000
34.569200 3.217300
34.604900 3.236400
34.640700 3.258500
34.676400 3.258900
34.712100 3.232000
34.747800 3.090100
34.783600 3.031300
34.819300 3.120200
34.855000 3.120400
34.890800 3.126900
34.926500 3.129600
34.962200 3.099200
34.997900 3.046400
35.033700 3.003300
35.069400 2.981500
35.105100 2.988900
35.140900 2.976900
35.176600 2.959400
35.212300 2.980700
35.248100 2.854000
35.283800 2.830900
35.319500 2.815800
35.355200 2.769800
35.391000 2.659100
35.426700 2.576800
35.462400 2.481300
35.498200 2.403400
35.533900 2.375700
35.569600 2.344000
35.605300 2.356400
35.641100 2.374600
35.676800 2.389700
35.712500 2.482400
35.748300 2.470300
35.784000 2.504200
35.819700 2.461500
35.855400 2.376900
35.891200 2.320600
35.926900 2.306300
35.962600 2.266300
35.998400 2.239200
36.034100 2.235400
36.069800 2.235900
36.105500 2.247700
36.141300 2.297600
36.177000 2.167900
36.212700 2.045400
36.248500 1.997100
36.284200 1.935100
36.319900 1.906700
36.355600 1.899100
36.391400 1.901300
36.427100 1.907100
36.462800 1.933100
36.498600 1.960900
36.534300 1.993700
36.570000 2.010600
36.605700 2.040600
36.641500 2.085000
36.677200 2.128400
36.712900 2.171000
36.748700 2.174200
36.784400 2.181000
36.820100 2.211500
36.855800 2.238300
36.891600 2.243800
36.927300 2.245600
36.963000 2.234300
36.998800 2.222200
37.034500 2.210400
37.070200 2.207400
37.105900 2.202500
37.141700 2.155500
37.177400 2.118500
37.213100 2.104600
37.248900 2.081600
37.284600 2.053400
37.320300 2.033100
37.356000 2.005500
37.391800 2.034300
37.427500 2.071400
37.463200 2.063200
37.499000 2.027500
37.534700 1.981500
37.570400 1.966900
37.606100 1.987000
37.641900 1.974600
37.677600 1.954600
37.713300 1.968900
37.749100 1.973100
37.784800 2.006700
37.820500 2.004300
37.856200 2.035500
37.892000 2.068500
37.927700 2.082000
37.963400 2.018600
37.999200 2.025300
38.034900 2.042400
38.070600 2.041700
38.106300 2.030400
38.142100 2.052500
38.177800 2.098800
38.213500 2.178400
38.249300 2.232700
38.285000 2.328900
38.320700 2.397100
38.356400 2.465000
38.392200 2.523000
38.427900 2.581100
38.463600 2.631300
38.499400 2.674300
38.535100 2.708700
38.570800 2.795300
38.606500 2.884300
38.642300 2.932400
38.678000 2.991200
38.713700 3.051300
38.749500 3.173200
38.785200 3.335000
38.820900 3.509200
38.856600 3.612100
38.892400 3.764000
38.928100 3.810200
38.963800 3.701400
38.999600 3.733500
39.035300 3.872900
39.071000 4.433800
39.106700 4.684100
39.142500 5.231100
39.178200 6.187700
39.213900 8.628800
39.249700 13.650600
39.285400 23.845700
39.321100 26.982600
39.356800 28.049800
39.392600 25.958300
39.428300 29.804800
39.464000 13.605100
39.499800 10.436600
39.535500 10.512700
39.571200 7.357800
39.606900 6.042800
39.642700 4.820000
39.678400 2.264900
39.714100 0.943700
39.749900 0.369700
39.785600 0.117800
39.821300 0.044500
39.857000 0.022300
39.892800 0.010500
39.928500 0.005600
39.964200 0.002500
40.000000 0.000700
40.035700 0.000000
40.071400 0.000000
40.107100 0.000000
40.142900 0.000000
40.178600 0.000000
40.214300 0.000000
40.250100 0.000000
40.285800 0.000000
40.321500 0.000000
40.357300 0.000000
40.393000 0.000000
40.428700 0.000000
40.464400 0.000000
40.500200 0.000000
40.535900 0.000000
40.571600 0.000000
40.607400 0.000000
40.643100 0.000000
40.678800 0.000000
40.714500 0.000000
40.750300 0.000000
40.786000 0.000000
40.821700 0.000000
40.857500 0.000000
40.893200 0.000000
40.928900 0.000000
40.964600 0.000000
41.000400 0.000000
41.036100 0.000000
41.071800 0.000000
41.107600 0.000000
41.143300 0.000000
41.179000 0.000000
41.214700 0.000000
41.250500 0.000000
41.286200 0.000000
41.321900 0.000000
41.357700 0.000000
41.393400 0.000000
41.429100 0.000000
41.464800 0.000000
41.500600 0.000000
41.536300 0.000000
41.572000 0.000000
41.607800 0.000000
41.643500 0.000000
41.679200 0.000000
41.714900 0.000000
41.750700 0.000000
41.786400 0.000000
41.822100 0.000000
41.857900 0.000000
41.893600 0.000000
41.929300 0.000000
41.965000 0.000000
42.000800 0.000000
42.036500 0.000000
42.072200 0.000000
42.108000 0.000000
42.143700 0.000000
42.179400 0.000000
42.215100 0.000000
42.250900 0.000000
42.286600 0.000000
42.322300 0.000000
42.358100 0.000000
42.393800 0.000000
42.429500 0.000000
42.465200 0.000000
42.501000 0.000000
42.536700 0.000000
42.572400 0.000000
42.608200 0.000000
42.643900 0.000000
42.679600 0.000000
42.715300 0.000000
42.751100 0.000000
42.786800 0.000000
42.822500 0.000000
42.858300 0.000000
42.894000 0.000000
42.929700 0.000000
42.965400 0.000000
43.001200 0.000000
43.036900 0.000000
43.072600 0.000000
43.108400 0.000000
43.144100 0.000000
43.179800 0.000000
43.215500 0.000000
43.251300 0.000000
43.287000 0.000000
e
