set title 'mp-1218021 - Density of States'
set xlabel 'Energy (eV)'
set ylabel 'DOS (states/eV)'
set grid
set xrange [-10:10]
set yrange [0:14.279]
set xzeroaxis lt -1
set terminal png size 800,600
set output 'mp-1218021_dos_gnuplot.png'
plot '-' using 1:2 with lines title 'DOS'
-30.629200 0.000000
-30.598200 0.000000
-30.567200 0.000000
-30.536200 0.000000
-30.505300 0.000000
-30.474300 0.000000
-30.443300 0.000000
-30.412300 0.000000
-30.381300 0.000000
-30.350400 0.000000
-30.319400 0.000000
-30.288400 0.000000
-30.257400 0.000000
-30.226500 0.000000
-30.195500 0.000000
-30.164500 0.000000
-30.133500 0.000000
-30.102600 0.000000
-30.071600 0.000000
-30.040600 0.000000
-30.009600 0.000000
-29.978600 0.000000
-29.947700 0.000000
-29.916700 0.000000
-29.885700 0.000000
-29.854700 0.000000
-29.823800 0.000000
-29.792800 0.000000
-29.761800 0.000000
-29.730800 0.000000
-29.699900 0.000000
-29.668900 0.000000
-29.637900 0.000000
-29.606900 0.000000
-29.575900 0.000000
-29.545000 0.000000
-29.514000 0.000000
-29.483000 0.000000
-29.452000 0.000000
-29.421100 0.000000
-29.390100 0.000000
-29.359100 0.000000
-29.328100 0.000000
-29.297200 0.000000
-29.266200 0.000000
-29.235200 0.000000
-29.204200 0.000000
-29.173200 0.000000
-29.142300 0.000000
-29.111300 0.000000
-29.080300 0.000000
-29.049300 0.000000
-29.018400 0.000000
-28.987400 0.000000
-28.956400 0.000000
-28.925400 0.000000
-28.894500 0.000000
-28.863500 0.000000
-28.832500 0.000000
-28.801500 0.000000
-28.770500 0.000000
-28.739600 0.000000
-28.708600 0.000000
-28.677600 0.000000
-28.646600 0.000000
-28.615700 0.000000
-28.584700 0.000000
-28.553700 0.000000
-28.522700 0.000000
-28.491800 0.000000
-28.460800 0.000000
-28.429800 0.000000
-28.398800 0.000000
-28.367800 0.000000
-28.336900 0.000000
-28.305900 0.000000
-28.274900 0.000000
-28.243900 0.000000
-28.213000 0.000000
-28.182000 0.000000
-28.151000 0.000000
-28.120000 0.000000
-28.089000 0.000000
-28.058100 0.000000
-28.027100 0.000000
-27.996100 0.000000
-27.965100 0.000000
-27.934200 0.000000
-27.903200 0.000000
-27.872200 0.000000
-27.841200 0.000000
-27.810300 0.389800
-27.779300 2.637400
-27.748300 4.189500
-27.717300 5.122100
-27.686300 7.338200
-27.655400 10.142600
-27.624400 15.128700
-27.593400 22.576500
-27.562400 17.501400
-27.531500 14.390400
-27.500500 14.854200
-27.469500 8.827300
-27.438500 16.136800
-27.407600 20.552900
-27.376600 28.973700
-27.345600 9.080000
-27.314600 8.789800
-27.283600 14.642700
-27.252700 37.261800
-27.221700 37.478800
-27.190700 42.274900
-27.159700 25.894600
-27.128800 12.473400
-27.097800 8.933100
-27.066800 5.393700
-27.035800 1.278600
-27.004900 57.202500
-26.973900 30.001700
-26.942900 13.626700
-26.911900 30.301300
-26.880900 27.642200
-26.850000 30.758400
-26.819000 38.649400
-26.788000 29.861600
-26.757000 6.517600
-26.726100 3.703800
-26.695100 2.037500
-26.664100 0.000000
-26.633100 0.000000
-26.602200 0.000000
-26.571200 0.000000
-26.540200 0.000000
-26.509200 0.000000
-26.478200 14.121200
-26.447300 13.811000
-26.416300 15.793500
-26.385300 14.327600
-26.354300 34.640500
-26.323400 16.175500
-26.292400 11.311600
-26.261400 8.792500
-26.230400 0.000000
-26.199500 0.000000
-26.168500 0.000000
-26.137500 0.000000
-26.106500 0.000000
-26.075500 0.000000
-26.044600 0.000000
-26.013600 0.000000
-25.982600 0.000000
-25.951600 0.000000
-25.920700 0.000000
-25.889700 0.000000
-25.858700 0.000000
-25.827700 0.000000
-25.796800 0.000000
-25.765800 0.000000
-25.734800 0.000000
-25.703800 0.000000
-25.672800 0.000000
-25.641900 0.000000
-25.610900 0.000000
-25.579900 0.000000
-25.548900 0.000000
-25.518000 0.000000
-25.487000 0.000000
-25.456000 0.000000
-25.425000 0.000000
-25.394100 0.000000
-25.363100 0.000000
-25.332100 0.000000
-25.301100 0.000000
-25.270100 0.000000
-25.239200 0.000000
-25.208200 0.000000
-25.177200 0.000000
-25.146200 0.000000
-25.115300 0.000000
-25.084300 0.000000
-25.053300 0.000000
-25.022300 0.000000
-24.991400 0.000000
-24.960400 0.000000
-24.929400 0.000000
-24.898400 0.000000
-24.867400 0.000000
-24.836500 0.000000
-24.805500 0.000000
-24.774500 0.000000
-24.743500 0.000000
-24.712600 0.000000
-24.681600 0.000000
-24.650600 0.000000
-24.619600 0.000000
-24.588700 0.000000
-24.557700 0.000000
-24.526700 0.000000
-24.495700 0.000000
-24.464700 0.000000
-24.433800 0.000000
-24.402800 0.000000
-24.371800 0.000000
-24.340800 0.000000
-24.309900 0.000000
-24.278900 0.000000
-24.247900 0.000000
-24.216900 0.000000
-24.186000 0.000000
-24.155000 0.000000
-24.124000 0.000000
-24.093000 0.000000
-24.062000 0.000000
-24.031100 0.000000
-24.000100 0.000000
-23.969100 0.000000
-23.938100 0.000000
-23.907200 0.000000
-23.876200 0.000000
-23.845200 0.000000
-23.814200 0.000000
-23.783300 0.000000
-23.752300 0.000000
-23.721300 0.000000
-23.690300 0.000000
-23.659300 0.000000
-23.628400 0.000000
-23.597400 0.000000
-23.566400 0.000000
-23.535400 0.000000
-23.504500 0.000000
-23.473500 0.000000
-23.442500 0.000000
-23.411500 0.000000
-23.380600 0.000000
-23.349600 0.000000
-23.318600 0.000000
-23.287600 0.000000
-23.256600 0.000000
-23.225700 0.000000
-23.194700 0.000000
-23.163700 0.000000
-23.132700 0.000000
-23.101800 0.000000
-23.070800 0.000000
-23.039800 0.000000
-23.008800 0.000000
-22.977900 0.000000
-22.946900 0.000000
-22.915900 0.000000
-22.884900 0.000000
-22.853900 0.000000
-22.823000 0.000000
-22.792000 0.000000
-22.761000 0.000000
-22.730000 0.000000
-22.699100 0.000000
-22.668100 0.000000
-22.637100 0.000000
-22.606100 0.000000
-22.575200 0.000000
-22.544200 0.000000
-22.513200 0.000000
-22.482200 0.000000
-22.451200 0.000000
-22.420300 0.000000
-22.389300 0.000000
-22.358300 0.000000
-22.327300 0.000000
-22.296400 0.000000
-22.265400 0.000000
-22.234400 0.000000
-22.203400 0.000000
-22.172400 0.000000
-22.141500 0.000000
-22.110500 0.000000
-22.079500 0.000000
-22.048500 0.000000
-22.017600 0.000000
-21.986600 0.000000
-21.955600 0.000000
-21.924600 0.000000
-21.893700 0.000000
-21.862700 0.000000
-21.831700 0.000000
-21.800700 0.000000
-21.769700 0.000000
-21.738800 0.000000
-21.707800 0.000000
-21.676800 0.000000
-21.645800 0.000000
-21.614900 0.000000
-21.583900 0.000000
-21.552900 0.000000
-21.521900 0.000000
-21.491000 0.000000
-21.460000 0.000000
-21.429000 0.000000
-21.398000 0.000000
-21.367000 0.000000
-21.336100 0.000000
-21.305100 0.000000
-21.274100 0.000000
-21.243100 0.000000
-21.212200 0.000000
-21.181200 0.000000
-21.150200 0.000000
-21.119200 0.000000
-21.088300 0.000000
-21.057300 0.000000
-21.026300 0.000000
-20.995300 0.000000
-20.964300 0.000000
-20.933400 0.000000
-20.902400 0.000000
-20.871400 0.000000
-20.840400 0.000000
-20.809500 0.000000
-20.778500 0.000000
-20.747500 0.000000
-20.716500 0.000000
-20.685600 0.000000
-20.654600 0.000000
-20.623600 0.000000
-20.592600 0.000000
-20.561600 0.000000
-20.530700 0.000000
-20.499700 0.000000
-20.468700 0.000000
-20.437700 0.000000
-20.406800 0.000000
-20.375800 0.000000
-20.344800 0.000000
-20.313800 0.000000
-20.282900 0.000000
-20.251900 0.000000
-20.220900 0.000000
-20.189900 0.000000
-20.158900 0.000000
-20.128000 0.000000
-20.097000 0.000000
-20.066000 0.000000
-20.035000 0.000000
-20.004100 0.000000
-19.973100 0.000000
-19.942100 0.000000
-19.911100 0.000000
-19.880200 0.000000
-19.849200 0.000000
-19.818200 0.000000
-19.787200 0.000000
-19.756200 0.000000
-19.725300 0.000000
-19.694300 0.000000
-19.663300 0.000000
-19.632300 0.000000
-19.601400 0.000000
-19.570400 0.000000
-19.539400 0.000000
-19.508400 0.000000
-19.477500 0.000000
-19.446500 0.000000
-19.415500 0.000000
-19.384500 0.000000
-19.353500 0.000000
-19.322600 0.000000
-19.291600 0.000000
-19.260600 0.000000
-19.229600 0.000000
-19.198700 0.000000
-19.167700 0.000000
-19.136700 0.000000
-19.105700 0.000000
-19.074800 0.000000
-19.043800 0.000000
-19.012800 0.000000
-18.981800 0.000000
-18.950800 0.000000
-18.919900 0.000000
-18.888900 0.000000
-18.857900 0.000000
-18.826900 0.000000
-18.796000 0.000000
-18.765000 0.000000
-18.734000 0.000000
-18.703000 0.000000
-18.672100 0.000000
-18.641100 0.000000
-18.610100 0.000000
-18.579100 0.000000
-18.548100 0.000000
-18.517200 0.000000
-18.486200 0.000000
-18.455200 0.000000
-18.424200 0.000000
-18.393300 0.000000
-18.362300 0.000000
-18.331300 0.000000
-18.300300 0.000000
-18.269400 0.000000
-18.238400 0.000000
-18.207400 0.000000
-18.176400 0.000000
-18.145400 0.000000
-18.114500 0.000000
-18.083500 0.000000
-18.052500 0.000000
-18.021500 0.000000
-17.990600 0.000000
-17.959600 0.000000
-17.928600 0.000000
-17.897600 0.000000
-17.866700 0.000000
-17.835700 0.000000
-17.804700 0.000000
-17.773700 0.000000
-17.742700 0.000000
-17.711800 0.000000
-17.680800 0.000000
-17.649800 0.000000
-17.618800 0.000000
-17.587900 0.000000
-17.556900 0.000000
-17.525900 0.000000
-17.494900 0.000000
-17.464000 0.000000
-17.433000 0.000000
-17.402000 0.000000
-17.371000 0.000000
-17.340000 0.000000
-17.309100 0.000000
-17.278100 0.000000
-17.247100 0.000000
-17.216100 0.000000
-17.185200 0.000000
-17.154200 0.000000
-17.123200 0.000000
-17.092200 0.000000
-17.061300 0.000000
-17.030300 0.000000
-16.999300 0.000000
-16.968300 0.000000
-16.937300 0.000000
-16.906400 0.000000
-16.875400 0.000000
-16.844400 0.000000
-16.813400 0.000000
-16.782500 0.000000
-16.751500 0.000000
-16.720500 0.000000
-16.689500 0.000000
-16.658600 0.000000
-16.627600 0.000000
-16.596600 0.000000
-16.565600 0.000000
-16.534600 0.000000
-16.503700 0.000000
-16.472700 0.000000
-16.441700 0.000000
-16.410700 0.000000
-16.379800 0.000000
-16.348800 0.000000
-16.317800 0.000000
-16.286800 0.000000
-16.255800 0.000000
-16.224900 0.000000
-16.193900 0.000000
-16.162900 0.000000
-16.131900 0.000000
-16.101000 0.000000
-16.070000 0.000000
-16.039000 0.000000
-16.008000 0.000000
-15.977100 0.000000
-15.946100 0.000000
-15.915100 0.000000
-15.884100 0.000000
-15.853100 0.000000
-15.822200 0.000000
-15.791200 0.000000
-15.760200 0.000000
-15.729200 0.000000
-15.698300 0.000000
-15.667300 0.000000
-15.636300 0.000000
-15.605300 0.000000
-15.574400 0.000000
-15.543400 0.000000
-15.512400 0.000000
-15.481400 0.000000
-15.450400 0.000000
-15.419500 0.000000
-15.388500 0.000000
-15.357500 0.000000
-15.326500 0.000000
-15.295600 0.000000
-15.264600 0.000000
-15.233600 0.000000
-15.202600 0.000000
-15.171700 0.000000
-15.140700 0.000000
-15.109700 0.000000
-15.078700 0.000000
-15.047700 0.000000
-15.016800 0.000000
-14.985800 0.000000
-14.954800 0.000000
-14.923800 0.000000
-14.892900 0.000000
-14.861900 0.000000
-14.830900 0.000000
-14.799900 0.000000
-14.769000 0.000000
-14.738000 0.000000
-14.707000 0.000000
-14.676000 0.000000
-14.645000 0.000000
-14.614100 0.000000
-14.583100 0.000000
-14.552100 0.000000
-14.521100 0.000000
-14.490200 0.000000
-14.459200 0.000000
-14.428200 0.000000
-14.397200 0.000000
-14.366300 0.000000
-14.335300 0.000000
-14.304300 0.000000
-14.273300 0.000000
-14.242300 0.000000
-14.211400 0.000000
-14.180400 0.000000
-14.149400 0.000000
-14.118400 0.000000
-14.087500 0.000000
-14.056500 0.000000
-14.025500 0.000000
-13.994500 0.000000
-13.963600 0.000000
-13.932600 0.000000
-13.901600 0.000000
-13.870600 0.000000
-13.839600 0.000000
-13.808700 0.000000
-13.777700 0.000000
-13.746700 0.000000
-13.715700 0.000000
-13.684800 0.000000
-13.653800 0.000000
-13.622800 0.000000
-13.591800 0.000000
-13.560900 0.000000
-13.529900 0.000000
-13.498900 0.000000
-13.467900 0.000000
-13.436900 0.000000
-13.406000 0.000000
-13.375000 0.000000
-13.344000 0.000000
-13.313000 0.000000
-13.282100 0.000000
-13.251100 0.000000
-13.220100 0.000000
-13.189100 0.000000
-13.158200 0.000000
-13.127200 0.000000
-13.096200 0.000000
-13.065200 0.000000
-13.034200 0.000000
-13.003300 0.000000
-12.972300 0.000000
-12.941300 0.000000
-12.910300 0.000000
-12.879400 0.000000
-12.848400 0.000000
-12.817400 0.000000
-12.786400 0.000000
-12.755500 0.000000
-12.724500 0.000000
-12.693500 0.000000
-12.662500 0.000000
-12.631500 0.000000
-12.600600 0.000000
-12.569600 0.000000
-12.538600 0.000000
-12.507600 0.000000
-12.476700 0.000000
-12.445700 0.000000
-12.414700 0.000000
-12.383700 0.000000
-12.352800 0.000000
-12.321800 0.000000
-12.290800 0.000000
-12.259800 0.000000
-12.228800 0.000000
-12.197900 0.000000
-12.166900 0.000000
-12.135900 0.000000
-12.104900 0.000000
-12.074000 0.000000
-12.043000 0.000000
-12.012000 0.000000
-11.981000 0.000000
-11.950100 0.000000
-11.919100 0.000000
-11.888100 0.000000
-11.857100 0.000000
-11.826100 0.000000
-11.795200 0.000000
-11.764200 0.000000
-11.733200 0.000000
-11.702200 0.000000
-11.671300 0.000000
-11.640300 0.000000
-11.609300 0.000000
-11.578300 0.000000
-11.547400 0.000000
-11.516400 0.000000
-11.485400 0.000000
-11.454400 0.000000
-11.423400 0.000000
-11.392500 0.000000
-11.361500 0.000000
-11.330500 0.000000
-11.299500 0.000000
-11.268600 0.000000
-11.237600 0.000000
-11.206600 0.000000
-11.175600 0.000000
-11.144700 0.000000
-11.113700 0.000000
-11.082700 0.000000
-11.051700 0.000000
-11.020700 0.000000
-10.989800 0.000000
-10.958800 0.000000
-10.927800 0.000000
-10.896800 0.000000
-10.865900 0.000000
-10.834900 0.000000
-10.803900 0.000000
-10.772900 0.000000
-10.742000 0.000000
-10.711000 0.000000
-10.680000 0.000000
-10.649000 0.000000
-10.618000 0.000000
-10.587100 0.000000
-10.556100 0.000000
-10.525100 0.000000
-10.494100 0.000000
-10.463200 0.000000
-10.432200 0.000000
-10.401200 0.000000
-10.370200 0.000000
-10.339300 0.000000
-10.308300 0.000000
-10.277300 0.000000
-10.246300 0.000000
-10.215300 0.000000
-10.184400 0.000000
-10.153400 0.000000
-10.122400 0.000000
-10.091400 0.000000
-10.060500 0.000000
-10.029500 0.000000
-9.998500 0.000000
-9.967500 0.000000
-9.936500 0.000000
-9.905600 0.006700
-9.874600 0.063200
-9.843600 0.172400
-9.812600 0.183700
-9.781700 0.210900
-9.750700 0.246400
-9.719700 0.277600
-9.688700 0.313100
-9.657800 0.344400
-9.626800 0.362700
-9.595800 0.388800
-9.564800 0.417600
-9.533800 0.445100
-9.502900 0.470200
-9.471900 0.495600
-9.440900 0.523600
-9.409900 0.553400
-9.379000 0.583200
-9.348000 0.613400
-9.317000 0.643400
-9.286000 0.673800
-9.255100 0.704100
-9.224100 0.736300
-9.193100 0.771700
-9.162100 0.807900
-9.131100 0.850000
-9.100200 0.902600
-9.069200 0.960300
-9.038200 1.165900
-9.007200 1.367200
-8.976300 1.395200
-8.945300 1.573400
-8.914300 1.698900
-8.883300 1.825000
-8.852400 1.975100
-8.821400 2.169400
-8.790400 2.384900
-8.759400 2.645700
-8.728400 3.055600
-8.697500 3.169700
-8.666500 3.273300
-8.635500 3.423200
-8.604500 3.542200
-8.573600 3.681200
-8.542600 4.026900
-8.511600 4.006300
-8.480600 3.907200
-8.449700 4.045700
-8.418700 4.164100
-8.387700 4.136500
-8.356700 4.398700
-8.325700 4.459300
-8.294800 4.546300
-8.263800 4.764800
-8.232800 4.894100
-8.201800 4.950200
-8.170900 4.993800
-8.139900 5.039700
-8.108900 5.112200
-8.077900 5.065900
-8.047000 5.140300
-8.016000 5.178300
-7.985000 4.903600
-7.954000 5.706500
-7.923000 5.452700
-7.892100 4.465500
-7.861100 3.811400
-7.830100 3.550100
-7.799100 3.240600
-7.768200 2.964400
-7.737200 2.850500
-7.706200 2.651100
-7.675200 2.508900
-7.644300 2.342500
-7.613300 2.195100
-7.582300 2.066200
-7.551300 1.982300
-7.520300 1.843600
-7.489400 1.805500
-7.458400 1.544000
-7.427400 1.317600
-7.396400 0.613400
-7.365500 0.451000
-7.334500 0.318100
-7.303500 0.214000
-7.272500 0.082100
-7.241600 0.000000
-7.210600 0.000000
-7.179600 0.000000
-7.148600 0.000000
-7.117600 0.000000
-7.086700 0.000000
-7.055700 0.000000
-7.024700 0.000000
-6.993700 0.000000
-6.962800 0.000000
-6.931800 0.000000
-6.900800 0.000000
-6.869800 0.000000
-6.838900 0.000000
-6.807900 0.000000
-6.776900 0.000000
-6.745900 0.000000
-6.714900 0.000000
-6.684000 0.000000
-6.653000 0.000000
-6.622000 0.000000
-6.591000 0.000000
-6.560100 0.000000
-6.529100 0.000000
-6.498100 0.000000
-6.467100 0.000000
-6.436200 0.000000
-6.405200 0.000000
-6.374200 0.000000
-6.343200 0.000000
-6.312200 0.000000
-6.281300 0.000000
-6.250300 0.000000
-6.219300 0.000000
-6.188300 0.000000
-6.157400 0.000000
-6.126400 0.000000
-6.095400 0.000000
-6.064400 0.000000
-6.033500 0.000000
-6.002500 0.000000
-5.971500 0.000000
-5.940500 0.000000
-5.909500 0.000000
-5.878600 0.000000
-5.847600 0.000000
-5.816600 0.000000
-5.785600 0.000000
-5.754700 0.000000
-5.723700 0.000000
-5.692700 0.000000
-5.661700 0.000000
-5.630800 0.000000
-5.599800 0.000000
-5.568800 0.000000
-5.537800 0.000000
-5.506800 0.000000
-5.475900 0.000000
-5.444900 0.000000
-5.413900 0.000000
-5.382900 0.000000
-5.352000 0.000000
-5.321000 0.000000
-5.290000 0.000000
-5.259000 0.000000
-5.228100 0.000000
-5.197100 0.000000
-5.166100 0.000000
-5.135100 0.000000
-5.104100 0.000000
-5.073200 0.000000
-5.042200 0.000000
-5.011200 0.000000
-4.980200 0.000000
-4.949300 0.000000
-4.918300 0.000000
-4.887300 0.000000
-4.856300 0.000000
-4.825400 0.000000
-4.794400 0.000000
-4.763400 0.000000
-4.732400 0.000000
-4.701400 0.000000
-4.670500 0.000000
-4.639500 0.000000
-4.608500 0.000000
-4.577500 0.000000
-4.546600 0.000000
-4.515600 0.000000
-4.484600 0.000000
-4.453600 0.000000
-4.422700 0.000000
-4.391700 0.000000
-4.360700 0.000000
-4.329700 0.000000
-4.298700 0.000000
-4.267800 0.000000
-4.236800 0.000000
-4.205800 0.000000
-4.174800 0.000000
-4.143900 0.000000
-4.112900 0.000000
-4.081900 0.000000
-4.050900 0.000000
-4.019900 0.000000
-3.989000 0.000000
-3.958000 0.000000
-3.927000 0.000000
-3.896000 0.000000
-3.865100 0.000000
-3.834100 0.000000
-3.803100 0.000000
-3.772100 0.000000
-3.741200 0.000000
-3.710200 0.000000
-3.679200 0.000000
-3.648200 0.000000
-3.617200 0.000000
-3.586300 0.000000
-3.555300 0.000000
-3.524300 0.000000
-3.493300 0.000000
-3.462400 0.000000
-3.431400 0.000000
-3.400400 0.000000
-3.369400 0.000000
-3.338500 0.000000
-3.307500 0.000000
-3.276500 0.000000
-3.245500 0.000000
-3.214500 0.000000
-3.183600 0.000000
-3.152600 0.000000
-3.121600 0.000000
-3.090600 0.000000
-3.059700 0.000000
-3.028700 0.000000
-2.997700 0.000000
-2.966700 0.000000
-2.935800 0.000000
-2.904800 0.000000
-2.873800 0.000000
-2.842800 0.000000
-2.811800 0.000000
-2.780900 0.000000
-2.749900 0.000000
-2.718900 0.000000
-2.687900 0.000000
-2.657000 0.000000
-2.626000 0.000000
-2.595000 0.000000
-2.564000 0.000000
-2.533100 0.000000
-2.502100 0.000000
-2.471100 0.000000
-2.440100 0.000000
-2.409100 0.000000
-2.378200 0.000000
-2.347200 0.000000
-2.316200 0.000000
-2.285200 0.000000
-2.254300 0.000000
-2.223300 0.000000
-2.192300 0.000000
-2.161300 0.000000
-2.130400 0.000000
-2.099400 0.000000
-2.068400 0.000000
-2.037400 0.000000
-2.006400 0.000000
-1.975500 0.000000
-1.944500 0.000000
-1.913500 0.000000
-1.882500 0.000000
-1.851600 0.000000
-1.820600 0.000000
-1.789600 0.000000
-1.758600 0.000000
-1.727700 0.000000
-1.696700 0.000000
-1.665700 0.000000
-1.634700 0.000000
-1.603700 0.000000
-1.572800 0.000000
-1.541800 0.000000
-1.510800 0.000000
-1.479800 0.000000
-1.448900 0.000000
-1.417900 0.000000
-1.386900 0.000000
-1.355900 0.170600
-1.325000 0.185300
-1.294000 0.233000
-1.263000 0.280900
-1.232000 0.350300
-1.201000 0.447200
-1.170100 0.456900
-1.139100 0.489300
-1.108100 0.506500
-1.077100 0.518500
-1.046200 0.530100
-1.015200 0.539900
-0.984200 0.548100
-0.953200 0.531300
-0.922300 0.544600
-0.891300 0.558700
-0.860300 0.588100
-0.829300 0.773500
-0.798300 0.871700
-0.767400 0.984500
-0.736400 1.190800
-0.705400 1.392300
-0.674400 1.399700
-0.643500 1.456200
-0.612500 1.506400
-0.581500 1.547200
-0.550500 1.570200
-0.519600 1.575900
-0.488600 1.721200
-0.457600 1.924100
-0.426600 1.931500
-0.395600 2.028900
-0.364700 2.130000
-0.333700 2.238100
-0.302700 2.378700
-0.271700 2.507900
-0.240800 2.620700
-0.209800 2.894900
-0.178800 3.022400
-0.147800 3.201000
-0.116900 3.390300
-0.085900 3.606700
-0.054900 3.740300
-0.023900 3.747500
0.007100 3.628900
0.038000 3.380300
0.069000 3.253100
0.100000 3.225300
0.131000 3.192700
0.161900 3.186000
0.192900 3.180900
0.223900 3.196600
0.254900 3.227300
0.285800 3.277100
0.316800 3.219800
0.347800 3.178000
0.378800 3.165400
0.409800 3.112300
0.440700 3.066500
0.471700 3.050600
0.502700 3.101800
0.533700 3.608300
0.564600 3.348600
0.595600 3.304100
0.626600 3.296700
0.657600 3.380400
0.688500 3.532900
0.719500 3.473900
0.750500 3.292000
0.781500 3.155700
0.812500 3.064100
0.843400 3.040500
0.874400 2.992000
0.905400 2.935400
0.936400 2.893600
0.967300 2.862500
0.998300 2.846400
1.029300 3.218400
1.060300 3.251500
1.091200 3.390200
1.122200 3.572000
1.153200 3.700800
1.184200 3.725400
1.215200 3.785000
1.246100 3.972000
1.277100 4.024600
1.308100 4.643700
1.339100 5.201500
1.370000 5.365800
1.401000 5.619400
1.432000 5.757600
1.463000 5.566900
1.493900 5.523900
1.524900 5.687100
1.555900 5.971100
1.586900 6.306900
1.617900 6.669500
1.648800 6.958300
1.679800 7.442700
1.710800 10.552800
1.741800 11.221600
1.772700 11.290400
1.803700 12.581000
1.834700 12.980800
1.865700 11.282100
1.896700 8.813600
1.927600 8.213300
1.958600 8.097700
1.989600 7.857000
2.020600 7.363100
2.051500 6.840500
2.082500 6.415100
2.113500 5.682700
2.144500 5.216900
2.175400 4.916600
2.206400 4.720600
2.237400 4.409900
2.268400 4.248600
2.299400 4.205500
2.330300 4.253800
2.361300 4.361600
2.392300 4.344400
2.423300 4.444800
2.454200 4.694800
2.485200 4.628500
2.516200 4.484700
2.547200 4.362800
2.578100 4.270900
2.609100 4.170900
2.640100 4.029900
2.671100 3.900100
2.702100 3.826000
2.733000 3.808100
2.764000 3.870600
2.795000 3.779000
2.826000 3.659400
2.856900 3.657800
2.887900 3.563400
2.918900 3.297800
2.949900 3.201900
2.980800 3.134900
3.011800 3.159100
3.042800 3.202200
3.073800 3.311200
3.104800 3.510700
3.135700 3.184300
3.166700 3.095800
3.197700 3.023100
3.228700 2.908200
3.259600 2.738200
3.290600 2.615500
3.321600 2.516200
3.352600 2.390800
3.383500 2.300500
3.414500 2.159300
3.445500 2.140600
3.476500 1.878300
3.507500 1.816500
3.538400 1.748900
3.569400 1.221000
3.600400 1.085200
3.631400 0.996800
3.662300 0.832500
3.693300 0.739400
3.724300 0.679000
3.755300 0.543500
3.786200 0.447500
3.817200 0.355600
3.848200 0.352600
3.879200 0.508700
3.910200 0.764700
3.941100 1.245700
3.972100 0.979800
4.003100 0.857400
4.034100 0.807100
4.065000 0.804600
4.096000 0.880800
4.127000 1.047800
4.158000 1.111700
4.188900 1.150600
4.219900 1.241100
4.250900 1.341200
4.281900 1.419300
4.312900 1.650300
4.343800 1.615300
4.374800 1.669300
4.405800 1.759300
4.436800 1.813100
4.467700 1.894600
4.498700 1.893000
4.529700 2.043600
4.560700 1.851200
4.591600 1.864000
4.622600 1.875400
4.653600 1.905500
4.684600 1.955100
4.715600 2.004600
4.746500 2.138600
4.777500 2.227800
4.808500 2.279300
4.839500 2.296300
4.870400 2.318200
4.901400 2.355300
4.932400 2.402400
4.963400 2.429300
4.994300 2.439500
5.025300 2.437300
5.056300 2.432000
5.087300 2.430800
5.118300 2.435500
5.149200 2.486700
5.180200 2.519400
5.211200 2.344200
5.242200 2.282400
5.273100 2.279800
5.304100 2.281900
5.335100 2.290400
5.366100 2.284800
5.397000 2.328200
5.428000 2.388400
5.459000 2.540400
5.490000 2.601300
5.521000 2.610300
5.551900 2.506400
5.582900 2.396800
5.613900 2.311900
5.644900 2.253000
5.675800 2.212900
5.706800 2.182400
5.737800 2.139300
5.768800 2.099700
5.799700 2.089300
5.830700 2.077700
5.861700 2.060000
5.892700 2.038300
5.923700 2.031000
5.954600 2.035100
5.985600 2.051000
6.016600 2.088900
6.047600 2.148800
6.078500 2.226700
6.109500 2.310400
6.140500 2.408400
6.171500 2.611600
6.202400 2.807100
6.233400 2.954200
6.264400 3.093000
6.295400 3.300000
6.326400 3.721700
6.357300 5.041000
6.388300 6.178400
6.419300 7.343300
6.450300 7.465200
6.481200 7.382400
6.512200 6.688300
6.543200 4.783500
6.574200 2.884400
6.605100 2.277700
6.636100 2.706100
6.667100 3.363200
6.698100 3.362000
6.729100 3.343300
6.760000 3.758000
6.791000 3.915500
6.822000 3.821700
6.853000 4.227700
6.883900 4.181600
6.914900 3.700300
6.945900 4.339300
6.976900 3.711500
7.007800 4.021700
7.038800 3.443700
7.069800 3.246000
7.100800 3.354400
7.131800 2.676500
7.162700 2.481200
7.193700 2.392200
7.224700 2.155200
7.255700 2.077300
7.286600 2.441200
7.317600 2.440500
7.348600 2.266100
7.379600 2.229800
7.410500 2.212000
7.441500 2.248200
7.472500 2.312700
7.503500 2.382700
7.534500 2.452300
7.565400 2.421700
7.596400 2.671100
7.627400 3.089500
7.658400 2.695400
7.689300 2.614100
7.720300 2.673100
7.751300 2.937100
7.782300 3.260200
7.813300 3.929000
7.844200 3.800800
7.875200 3.427500
7.906200 3.130700
7.937200 2.869200
7.968100 2.748400
7.999100 2.677300
8.030100 2.526400
8.061100 2.409300
8.092000 2.335700
8.123000 2.270900
8.154000 2.196100
8.185000 2.134600
8.216000 2.085900
8.246900 2.038800
8.277900 2.000700
8.308900 1.974300
8.339900 1.960700
8.370800 1.964200
8.401800 1.956900
8.432800 1.952100
8.463800 1.952600
8.494700 1.943200
8.525700 1.937600
8.556700 1.938900
8.587700 1.948100
8.618700 1.923400
8.649600 1.906700
8.680600 1.937300
8.711600 1.978000
8.742600 2.086000
8.773500 2.314000
8.804500 2.420000
8.835500 2.472600
8.866500 2.383900
8.897400 2.262600
8.928400 2.205300
8.959400 2.134300
8.990400 2.112800
9.021400 2.089100
9.052300 2.097600
9.083300 2.376300
9.114300 2.633800
9.145300 2.918300
9.176200 3.576800
9.207200 4.344600
9.238200 5.111100
9.269200 5.635500
9.300100 6.584700
9.331100 5.717400
9.362100 6.174000
9.393100 5.956000
9.424100 6.585900
9.455000 7.307100
9.486000 6.116700
9.517000 6.304500
9.548000 5.823300
9.578900 5.244600
9.609900 5.258800
9.640900 5.129300
9.671900 4.998700
9.702800 4.674400
9.733800 4.396700
9.764800 4.097500
9.795800 4.000800
9.826800 3.931000
9.857700 3.912800
9.888700 3.863600
9.919700 3.786400
9.950700 3.738600
9.981600 3.692600
10.012600 3.761800
10.043600 3.711800
10.074600 3.708700
10.105500 3.984500
10.136500 4.410000
10.167500 4.403000
10.198500 4.166900
10.229500 4.149000
10.260400 4.134600
10.291400 4.192500
10.322400 4.488800
10.353400 5.051800
10.384300 5.101400
10.415300 5.494300
10.446300 5.868000
10.477300 6.264000
10.508200 5.966900
10.539200 5.676100
10.570200 5.410700
10.601200 5.191600
10.632200 5.211700
10.663100 4.915900
10.694100 5.053000
10.725100 5.594800
10.756100 6.818700
10.787000 7.344100
10.818000 6.324700
10.849000 6.168700
10.880000 6.328900
10.910900 6.740700
10.941900 6.534400
10.972900 6.510500
11.003900 6.471200
11.034900 6.343300
11.065800 6.464700
11.096800 6.683000
11.127800 6.356000
11.158800 6.746700
11.189700 6.250600
11.220700 6.685900
11.251700 5.567900
11.282700 5.231100
11.313600 5.021300
11.344600 4.895100
11.375600 4.578500
11.406600 4.500200
11.437600 4.543300
11.468500 5.129400
11.499500 6.122100
11.530500 5.845400
11.561500 5.797800
11.592400 5.845900
11.623400 6.184300
11.654400 5.924500
11.685400 5.105500
11.716300 4.726900
11.747300 4.710800
11.778300 5.283500
11.809300 5.292100
11.840300 5.842100
11.871200 6.455900
11.902200 6.515300
11.933200 6.461900
11.964200 6.543300
11.995100 5.827700
12.026100 5.401500
12.057100 4.931500
12.088100 4.754600
12.119000 5.285100
12.150000 5.469000
12.181000 5.795500
12.212000 5.298600
12.243000 5.559900
12.273900 5.428900
12.304900 5.671700
12.335900 5.044400
12.366900 4.544000
12.397800 4.641900
12.428800 5.097500
12.459800 5.998700
12.490800 7.165800
12.521700 7.999300
12.552700 7.372600
12.583700 6.754300
12.614700 6.854900
12.645700 7.535800
12.676600 7.428800
12.707600 7.001400
12.738600 7.726200
12.769600 7.114300
12.800500 5.527400
12.831500 6.302400
12.862500 5.566600
12.893500 5.169000
12.924400 5.024300
12.955400 4.646000
12.986400 4.182500
13.017400 3.857300
13.048400 3.531200
13.079300 3.314000
13.110300 3.223900
13.141300 2.876700
13.172300 2.777900
13.203200 2.932900
13.234200 2.996100
13.265200 3.168600
13.296200 3.399900
13.327100 3.678700
13.358100 4.301500
13.389100 4.847400
13.420100 5.017900
13.451100 4.913400
13.482000 4.851900
13.513000 4.636000
13.544000 4.300000
13.575000 4.130500
13.605900 3.962400
13.636900 3.891400
13.667900 3.886700
13.698900 4.026200
13.729900 3.979800
13.760800 3.792800
13.791800 3.671700
13.822800 3.635300
13.853800 3.677100
13.884700 3.729200
13.915700 3.762500
13.946700 3.835000
13.977700 3.817200
14.008600 3.676500
14.039600 3.657600
14.070600 3.248400
14.101600 3.204700
14.132600 3.293000
14.163500 3.430800
14.194500 3.725700
14.225500 3.951100
14.256500 3.427000
14.287400 3.143100
14.318400 2.708000
14.349400 2.596200
14.380400 2.556700
14.411300 2.622800
14.442300 2.479800
14.473300 2.452000
14.504300 2.430700
14.535300 2.399500
14.566200 2.358900
14.597200 2.324900
14.628200 2.337600
14.659200 2.335600
14.690100 2.308400
14.721100 2.281800
14.752100 2.212400
14.783100 2.210900
14.814000 2.215400
14.845000 2.236400
14.876000 2.275900
14.907000 2.289100
14.938000 2.235600
14.968900 2.468900
14.999900 2.458400
15.030900 1.989000
15.061900 1.834400
15.092800 1.921000
15.123800 2.069700
15.154800 2.414100
15.185800 2.731800
15.216700 2.964400
15.247700 3.314600
15.278700 3.635500
15.309700 3.792800
15.340700 3.951500
15.371600 4.096400
15.402600 3.986800
15.433600 4.248000
15.464600 4.078500
15.495500 4.045300
15.526500 4.035400
15.557500 4.128200
15.588500 3.516400
15.619400 3.281200
15.650400 3.052100
15.681400 2.885900
15.712400 2.681700
15.743400 2.717200
15.774300 2.704200
15.805300 2.507900
15.836300 2.169300
15.867300 2.003500
15.898200 2.021600
15.929200 1.795900
15.960200 1.698000
15.991200 1.644600
16.022100 1.629800
16.053100 1.817500
16.084100 1.786800
16.115100 1.898100
16.146100 2.129200
16.177000 2.264200
16.208000 2.563400
16.239000 2.814400
16.270000 3.176700
16.300900 3.258400
16.331900 3.187300
16.362900 3.099900
16.393900 3.078400
16.424800 3.091200
16.455800 2.915000
16.486800 2.771800
16.517800 2.629200
16.548800 2.558800
16.579700 2.528000
16.610700 2.496000
16.641700 2.458300
16.672700 2.416000
16.703600 2.396500
16.734600 2.386600
16.765600 2.407000
16.796600 2.574800
16.827500 2.616600
16.858500 2.643000
16.889500 2.703200
16.920500 2.742500
16.951500 2.671900
16.982400 2.485900
17.013400 2.471600
17.044400 2.388700
17.075400 2.377400
17.106300 2.357700
17.137300 2.335800
17.168300 2.265300
17.199300 2.221700
17.230200 2.172500
17.261200 2.093500
17.292200 2.051100
17.323200 2.015800
17.354200 1.977100
17.385100 1.946800
17.416100 1.916800
17.447100 1.883700
17.478100 1.827000
17.509000 1.790700
17.540000 1.783300
17.571000 1.841600
17.602000 1.836800
17.632900 1.870600
17.663900 1.915600
17.694900 1.958000
17.725900 2.004800
17.756900 2.063000
17.787800 2.163800
17.818800 2.310000
17.849800 2.391500
17.880800 2.407900
17.911700 2.422300
17.942700 2.474300
17.973700 2.517700
18.004700 2.642200
18.035600 2.513800
18.066600 2.541900
18.097600 2.645000
18.128600 2.676100
18.159600 2.673100
18.190500 2.627600
18.221500 2.584800
18.252500 2.529100
18.283500 2.431900
18.314400 2.319300
18.345400 2.237000
18.376400 2.199600
18.407400 2.175100
18.438300 2.126200
18.469300 2.107300
18.500300 2.114800
18.531300 2.060100
18.562300 2.036900
18.593200 2.020300
18.624200 2.049700
18.655200 1.963700
18.686200 1.879300
18.717100 1.836600
18.748100 1.837300
18.779100 1.851600
18.810100 1.816800
18.841000 1.886200
18.872000 2.022200
18.903000 2.197700
18.934000 2.308300
18.965000 2.637600
18.995900 3.069700
19.026900 3.165700
19.057900 3.055000
19.088900 3.137000
19.119800 3.163800
19.150800 3.177200
19.181800 3.216800
19.212800 3.237000
19.243700 3.288000
19.274700 3.292000
19.305700 3.254800
19.336700 3.428100
19.367700 3.694900
19.398600 3.811700
19.429600 4.191400
19.460600 4.804500
19.491600 5.228400
19.522500 5.751000
19.553500 7.429700
19.584500 24.934200
19.615500 17.310500
19.646500 8.034700
19.677400 5.546100
19.708400 4.471300
19.739400 3.924700
19.770400 3.623300
19.801300 3.348900
19.832300 3.188700
19.863300 3.290200
19.894300 3.150200
19.925200 3.268700
19.956200 3.490700
19.987200 4.022500
20.018200 5.120400
20.049200 9.778300
20.080100 61.695200
20.111100 8.882700
20.142100 4.722300
20.173100 3.935900
20.204000 3.655400
20.235000 3.463200
20.266000 3.209100
20.297000 3.005700
20.327900 2.910200
20.358900 2.824900
20.389900 2.636900
20.420900 2.481600
20.451900 2.351100
20.482800 2.249800
20.513800 2.293800
20.544800 2.320800
20.575800 2.242400
20.606700 2.189300
20.637700 2.208800
20.668700 2.245600
20.699700 2.280300
20.730600 2.320200
20.761600 2.377900
20.792600 2.421600
20.823600 2.470100
20.854600 2.519200
20.885500 2.594900
20.916500 2.694300
20.947500 2.769800
20.978500 2.805300
21.009400 2.899700
21.040400 2.876200
21.071400 2.896600
21.102400 2.930300
21.133300 2.856500
21.164300 2.753600
21.195300 2.749900
21.226300 2.699000
21.257300 2.624400
21.288200 2.652300
21.319200 2.740500
21.350200 2.902700
21.381200 3.140900
21.412100 3.289600
21.443100 3.324800
21.474100 3.388400
21.505100 3.519300
21.536000 3.423100
21.567000 3.369900
21.598000 3.337600
21.629000 3.442800
21.660000 3.512000
21.690900 3.599400
21.721900 3.723200
21.752900 3.727000
21.783900 3.750800
21.814800 3.751300
21.845800 3.659100
21.876800 3.776000
21.907800 4.100200
21.938700 4.434700
21.969700 4.368200
22.000700 4.084900
22.031700 4.132300
22.062700 4.248400
22.093600 4.442200
22.124600 5.031100
22.155600 5.199700
22.186600 5.291500
22.217500 4.927800
22.248500 4.574700
22.279500 4.518400
22.310500 4.484600
22.341400 4.272200
22.372400 4.087100
22.403400 3.972900
22.434400 3.943700
22.465400 3.676200
22.496300 3.479700
22.527300 3.380900
22.558300 3.370200
22.589300 3.504700
22.620200 3.662500
22.651200 3.782500
22.682200 3.960700
22.713200 3.918300
22.744100 3.932100
22.775100 3.932200
22.806100 3.876900
22.837100 3.867300
22.868100 3.791200
22.899000 3.798600
22.930000 3.914100
22.961000 3.983400
22.992000 4.041700
23.022900 4.087800
23.053900 4.187700
23.084900 3.996900
23.115900 3.876700
23.146800 3.844600
23.177800 3.599500
23.208800 3.589900
23.239800 3.578100
23.270800 3.583900
23.301700 3.478500
23.332700 3.313000
23.363700 3.160800
23.394700 3.051200
23.425600 2.979400
23.456600 2.971000
23.487600 2.993100
23.518600 3.070400
23.549500 3.090600
23.580500 3.229000
23.611500 3.275100
23.642500 3.315400
23.673500 3.471300
23.704400 3.559600
23.735400 3.548700
23.766400 3.502500
23.797400 3.465200
23.828300 3.514500
23.859300 3.650000
23.890300 3.598000
23.921300 3.055500
23.952200 2.724000
23.983200 2.576800
24.014200 2.522300
24.045200 2.500900
24.076200 2.442100
24.107100 2.423500
24.138100 2.778800
24.169100 2.709400
24.200100 2.678000
24.231000 2.785600
24.262000 2.808300
24.293000 2.829000
24.324000 2.733200
24.354900 2.667100
24.385900 2.654300
24.416900 2.680500
24.447900 2.695100
24.478900 2.808500
24.509800 2.637500
24.540800 2.482600
24.571800 2.542200
24.602800 2.607900
24.633700 2.623400
24.664700 2.762500
24.695700 2.944600
24.726700 3.004400
24.757600 2.984900
24.788600 2.996200
24.819600 2.980500
24.850600 2.962400
24.881600 2.957400
24.912500 3.015300
24.943500 2.993800
24.974500 2.908400
25.005500 2.847300
25.036400 2.842900
25.067400 2.836900
25.098400 2.836900
25.129400 2.689100
25.160300 2.601900
25.191300 2.534000
25.222300 2.490400
25.253300 2.446500
25.284300 2.474700
25.315200 2.806500
25.346200 2.796700
25.377200 2.574500
25.408200 2.414900
25.439100 2.302800
25.470100 2.144100
25.501100 1.908200
25.532100 1.666100
25.563100 1.451600
25.594000 1.383500
25.625000 1.346100
25.656000 1.363300
25.687000 1.387000
25.717900 1.488300
25.748900 1.594300
25.779900 1.687100
25.810900 1.700600
25.841800 1.655800
25.872800 1.570900
25.903800 1.441500
25.934800 1.303600
25.965800 1.255700
25.996700 1.193500
26.027700 1.094500
26.058700 0.999100
26.089700 0.897900
26.120600 0.816100
26.151600 0.757700
26.182600 0.707200
26.213600 0.659500
26.244500 0.621100
26.275500 0.587400
26.306500 0.557700
26.337500 0.532100
26.368500 0.510400
26.399400 0.477200
26.430400 0.442200
26.461400 0.424200
26.492400 0.402700
26.523300 0.383300
26.554300 0.372800
26.585300 0.366800
26.616300 0.361500
26.647200 0.356300
26.678200 0.351000
26.709200 0.345700
26.740200 0.340400
26.771200 0.335200
26.802100 0.330100
26.833100 0.324900
26.864100 0.319700
26.895100 0.314300
26.926000 0.308800
26.957000 0.303300
26.988000 0.297600
27.019000 0.291900
27.049900 0.285900
27.080900 0.279700
27.111900 0.272900
27.142900 0.265300
27.173900 0.257200
27.204800 0.250600
27.235800 0.245300
27.266800 0.241500
27.297800 0.237700
27.328700 0.233900
27.359700 0.230000
27.390700 0.226100
27.421700 0.222100
27.452600 0.218100
27.483600 0.214000
27.514600 0.209900
27.545600 0.205700
27.576600 0.201500
27.607500 0.197200
27.638500 0.193600
27.669500 0.190000
27.700500 0.186600
27.731400 0.182500
27.762400 0.178200
27.793400 0.173700
27.824400 0.169100
27.855300 0.164400
27.886300 0.166800
27.917300 0.159200
27.948300 0.151900
27.979300 0.168800
28.010200 0.155300
28.041200 0.136300
28.072200 0.119900
28.103200 0.107200
28.134100 0.098000
28.165100 0.089400
28.196100 0.081100
28.227100 0.072900
28.258000 0.064900
28.289000 0.057200
28.320000 0.049600
28.351000 0.042200
28.382000 0.035100
28.412900 0.025000
28.443900 0.010700
28.474900 0.002900
28.505900 0.000000
28.536800 0.000000
28.567800 0.000000
28.598800 0.000000
28.629800 0.000000
28.660700 0.000000
28.691700 0.000000
28.722700 0.000000
28.753700 0.000000
28.784700 0.000000
28.815600 0.000000
28.846600 0.000000
28.877600 0.000000
28.908600 0.000000
28.939500 0.000000
28.970500 0.000000
29.001500 0.000000
29.032500 0.000000
29.063400 0.000000
29.094400 0.000000
29.125400 0.000000
29.156400 0.000000
29.187400 0.000000
29.218300 0.000000
29.249300 0.000000
29.280300 0.000000
29.311300 0.000000
29.342200 0.000000
29.373200 0.000000
29.404200 0.000000
29.435200 0.000000
29.466100 0.000000
29.497100 0.000000
29.528100 0.000000
29.559100 0.000000
29.590100 0.000000
29.621000 0.000000
29.652000 0.000000
29.683000 0.000000
29.714000 0.000000
29.744900 0.000000
29.775900 0.000000
29.806900 0.000000
29.837900 0.000000
29.868800 0.000000
29.899800 0.000000
29.930800 0.000000
29.961800 0.000000
29.992800 0.000000
30.023700 0.000000
30.054700 0.000000
30.085700 0.000000
30.116700 0.000000
30.147600 0.000000
30.178600 0.000000
30.209600 0.000000
30.240600 0.000000
30.271500 0.000000
30.302500 0.000000
30.333500 0.000000
30.364500 0.000000
30.395500 0.000000
30.426400 0.000000
30.457400 0.000000
30.488400 0.000000
30.519400 0.000000
30.550300 0.000000
30.581300 0.000000
30.612300 0.000000
30.643300 0.000000
30.674200 0.000000
30.705200 0.000000
30.736200 0.000000
30.767200 0.000000
30.798200 0.000000
30.829100 0.000000
30.860100 0.000000
30.891100 0.000000
30.922100 0.000000
30.953000 0.000000
30.984000 0.000000
31.015000 0.000000
31.046000 0.000000
31.076900 0.000000
31.107900 0.000000
31.138900 0.000000
31.169900 0.000000
31.200900 0.000000
31.231800 0.000000
31.262800 0.000000
31.293800 0.000000
31.324800 0.000000
e
