set title 'mp-1179682 - Density of States'
set xlabel 'Energy (eV)'
set ylabel 'DOS (states/eV)'
set grid
set xrange [-10:10]
set yrange [0:9.389]
set xzeroaxis lt -1
set terminal png size 800,600
set output 'mp-1179682_dos_gnuplot.png'
plot '-' using 1:2 with lines title 'DOS'
-28.514200 0.000000
-28.478400 0.000000
-28.442600 0.000000
-28.406700 0.000000
-28.370900 0.000000
-28.335100 0.000000
-28.299300 0.000000
-28.263500 0.000000
-28.227600 0.000000
-28.191800 0.000000
-28.156000 0.000000
-28.120200 0.000000
-28.084300 0.000000
-28.048500 0.000000
-28.012700 0.000000
-27.976900 0.000000
-27.941100 0.000000
-27.905200 0.000000
-27.869400 0.000000
-27.833600 0.000000
-27.797800 0.000000
-27.762000 0.000000
-27.726100 0.000000
-27.690300 0.000000
-27.654500 0.000000
-27.618700 0.000000
-27.582800 0.000000
-27.547000 0.000000
-27.511200 0.000000
-27.475400 0.000000
-27.439600 0.000000
-27.403700 0.000000
-27.367900 0.000000
-27.332100 0.000000
-27.296300 0.000000
-27.260400 0.000000
-27.224600 0.000000
-27.188800 0.000000
-27.153000 0.000000
-27.117200 0.000000
-27.081300 0.000000
-27.045500 0.000000
-27.009700 0.000000
-26.973900 0.000000
-26.938100 0.000000
-26.902200 0.000000
-26.866400 0.000000
-26.830600 0.000000
-26.794800 0.000000
-26.758900 0.000000
-26.723100 0.000000
-26.687300 0.000000
-26.651500 0.000000
-26.615700 0.000000
-26.579800 0.000000
-26.544000 0.000000
-26.508200 0.000000
-26.472400 0.000000
-26.436600 0.000000
-26.400700 0.000000
-26.364900 0.000000
-26.329100 0.000000
-26.293300 0.000000
-26.257400 0.000000
-26.221600 0.000000
-26.185800 0.000000
-26.150000 0.000000
-26.114200 0.000000
-26.078300 0.000000
-26.042500 0.000000
-26.006700 0.000000
-25.970900 0.000000
-25.935100 0.000000
-25.899200 0.000000
-25.863400 0.000000
-25.827600 0.000000
-25.791800 0.000000
-25.755900 0.000000
-25.720100 0.000000
-25.684300 0.000000
-25.648500 0.000000
-25.612700 0.000000
-25.576800 0.000000
-25.541000 0.000000
-25.505200 0.000000
-25.469400 0.000000
-25.433500 0.000000
-25.397700 0.000000
-25.361900 0.000000
-25.326100 0.000000
-25.290300 0.000000
-25.254400 2.978000
-25.218600 22.121200
-25.182800 3.263500
-25.147000 0.000000
-25.111200 0.000000
-25.075300 0.000000
-25.039500 0.000000
-25.003700 0.000000
-24.967900 0.000000
-24.932000 0.000000
-24.896200 0.000000
-24.860400 0.000000
-24.824600 0.000000
-24.788800 0.000000
-24.752900 0.000000
-24.717100 0.000000
-24.681300 0.000000
-24.645500 0.000000
-24.609700 0.000000
-24.573800 0.000000
-24.538000 0.000000
-24.502200 0.000000
-24.466400 0.000000
-24.430500 0.000000
-24.394700 0.000000
-24.358900 0.000000
-24.323100 0.000000
-24.287300 0.000000
-24.251400 0.000000
-24.215600 0.000000
-24.179800 0.000000
-24.144000 0.000000
-24.108200 0.000000
-24.072300 0.000000
-24.036500 0.000000
-24.000700 0.000000
-23.964900 0.000000
-23.929000 0.000000
-23.893200 0.000000
-23.857400 0.000000
-23.821600 0.000000
-23.785800 0.000000
-23.749900 0.000000
-23.714100 0.000000
-23.678300 0.000000
-23.642500 0.000000
-23.606600 0.000000
-23.570800 0.000000
-23.535000 0.000000
-23.499200 0.000000
-23.463400 0.000000
-23.427500 0.000000
-23.391700 0.000000
-23.355900 0.000000
-23.320100 0.000000
-23.284300 0.000000
-23.248400 0.000000
-23.212600 0.000000
-23.176800 0.000000
-23.141000 0.000000
-23.105100 0.000000
-23.069300 0.000000
-23.033500 0.000000
-22.997700 0.000000
-22.961900 0.000000
-22.926000 0.000000
-22.890200 0.000000
-22.854400 0.000000
-22.818600 0.000000
-22.782800 0.000000
-22.746900 0.000000
-22.711100 0.000000
-22.675300 0.000000
-22.639500 0.000000
-22.603600 0.000000
-22.567800 0.000000
-22.532000 0.000000
-22.496200 0.000000
-22.460400 0.000000
-22.424500 0.000000
-22.388700 0.000000
-22.352900 0.000000
-22.317100 0.000000
-22.281200 0.000000
-22.245400 0.000000
-22.209600 0.000000
-22.173800 0.000000
-22.138000 0.000000
-22.102100 0.000000
-22.066300 0.000000
-22.030500 0.000000
-21.994700 0.000000
-21.958900 0.000000
-21.923000 0.000000
-21.887200 0.000000
-21.851400 0.000000
-21.815600 0.000000
-21.779700 0.000000
-21.743900 0.000000
-21.708100 0.000000
-21.672300 0.000000
-21.636500 0.000000
-21.600600 0.000000
-21.564800 0.000000
-21.529000 0.000000
-21.493200 0.000000
-21.457400 0.000000
-21.421500 0.000000
-21.385700 0.000000
-21.349900 0.000000
-21.314100 0.000000
-21.278200 0.000000
-21.242400 0.000000
-21.206600 0.000000
-21.170800 0.000000
-21.135000 0.000000
-21.099100 0.000000
-21.063300 0.000000
-21.027500 0.000000
-20.991700 0.000000
-20.955900 0.000000
-20.920000 0.000000
-20.884200 0.000000
-20.848400 0.000000
-20.812600 0.000000
-20.776700 0.000000
-20.740900 0.000000
-20.705100 0.000000
-20.669300 0.000000
-20.633500 0.000000
-20.597600 0.000000
-20.561800 0.000000
-20.526000 0.000000
-20.490200 0.000000
-20.454300 0.000000
-20.418500 0.000000
-20.382700 0.000000
-20.346900 0.000000
-20.311100 0.000000
-20.275200 0.000000
-20.239400 0.000000
-20.203600 0.000000
-20.167800 0.000000
-20.132000 0.000000
-20.096100 0.000000
-20.060300 0.000000
-20.024500 0.000000
-19.988700 0.000000
-19.952800 0.000000
-19.917000 0.000000
-19.881200 0.000000
-19.845400 0.000000
-19.809600 0.000000
-19.773700 0.000000
-19.737900 0.000000
-19.702100 0.000000
-19.666300 0.000000
-19.630500 0.000000
-19.594600 0.000000
-19.558800 0.000000
-19.523000 0.000000
-19.487200 0.000000
-19.451300 0.000000
-19.415500 0.000000
-19.379700 0.000000
-19.343900 0.000000
-19.308100 0.000000
-19.272200 0.000000
-19.236400 0.000000
-19.200600 0.000000
-19.164800 0.000000
-19.129000 0.000000
-19.093100 0.000000
-19.057300 0.000000
-19.021500 0.000000
-18.985700 0.000000
-18.949800 0.000000
-18.914000 0.000000
-18.878200 0.000000
-18.842400 0.000000
-18.806600 0.000000
-18.770700 0.000000
-18.734900 0.000000
-18.699100 0.000000
-18.663300 0.000000
-18.627400 0.000000
-18.591600 0.000000
-18.555800 0.000000
-18.520000 0.000000
-18.484200 0.000000
-18.448300 0.000000
-18.412500 0.000000
-18.376700 0.000000
-18.340900 0.000000
-18.305100 0.000000
-18.269200 0.000000
-18.233400 0.000000
-18.197600 0.000000
-18.161800 0.000000
-18.125900 0.000000
-18.090100 0.000000
-18.054300 0.000000
-18.018500 0.000000
-17.982700 0.000000
-17.946800 0.000000
-17.911000 0.000000
-17.875200 0.000000
-17.839400 0.000000
-17.803600 0.000000
-17.767700 0.000000
-17.731900 0.000000
-17.696100 0.000000
-17.660300 0.000000
-17.624400 0.000000
-17.588600 0.000000
-17.552800 0.000000
-17.517000 0.000000
-17.481200 0.000000
-17.445300 0.000000
-17.409500 0.000000
-17.373700 0.000000
-17.337900 0.000000
-17.302000 0.000000
-17.266200 0.000000
-17.230400 0.000000
-17.194600 0.000000
-17.158800 0.000000
-17.122900 0.000000
-17.087100 0.000000
-17.051300 0.000000
-17.015500 0.000000
-16.979700 0.000000
-16.943800 0.000000
-16.908000 0.000000
-16.872200 0.000000
-16.836400 0.000000
-16.800500 0.000000
-16.764700 0.000000
-16.728900 0.000000
-16.693100 0.000000
-16.657300 0.000000
-16.621400 0.000000
-16.585600 0.000000
-16.549800 0.000000
-16.514000 0.000000
-16.478200 0.000000
-16.442300 0.000000
-16.406500 0.000000
-16.370700 0.000000
-16.334900 0.000000
-16.299000 0.000000
-16.263200 0.000000
-16.227400 0.000000
-16.191600 0.000000
-16.155800 0.000000
-16.119900 0.000000
-16.084100 0.000000
-16.048300 0.000000
-16.012500 0.000000
-15.976700 0.000000
-15.940800 0.000000
-15.905000 0.000000
-15.869200 0.000000
-15.833400 0.000000
-15.797500 0.000000
-15.761700 0.000000
-15.725900 0.000000
-15.690100 0.000000
-15.654300 0.000000
-15.618400 0.000000
-15.582600 0.000000
-15.546800 0.000000
-15.511000 0.000000
-15.475100 0.000000
-15.439300 0.000000
-15.403500 0.000000
-15.367700 0.000000
-15.331900 0.000000
-15.296000 0.000000
-15.260200 0.000000
-15.224400 0.000000
-15.188600 0.000000
-15.152800 0.000000
-15.116900 0.000000
-15.081100 0.000000
-15.045300 0.000000
-15.009500 0.000000
-14.973600 0.000000
-14.937800 0.000000
-14.902000 0.000000
-14.866200 0.000000
-14.830400 0.000000
-14.794500 0.000000
-14.758700 0.000000
-14.722900 0.000000
-14.687100 0.000000
-14.651300 0.000000
-14.615400 0.000000
-14.579600 0.000000
-14.543800 0.000000
-14.508000 0.000000
-14.472100 0.000000
-14.436300 0.000000
-14.400500 0.000000
-14.364700 0.000000
-14.328900 0.000000
-14.293000 0.000000
-14.257200 0.000000
-14.221400 0.000000
-14.185600 0.000000
-14.149700 0.000000
-14.113900 0.000000
-14.078100 0.000000
-14.042300 0.000000
-14.006500 0.000000
-13.970600 0.000000
-13.934800 0.000000
-13.899000 0.000000
-13.863200 0.000000
-13.827400 0.000000
-13.791500 0.000000
-13.755700 0.000000
-13.719900 0.000000
-13.684100 0.000000
-13.648200 0.000000
-13.612400 0.000000
-13.576600 0.000000
-13.540800 0.000000
-13.505000 0.000000
-13.469100 0.000000
-13.433300 0.000000
-13.397500 0.000000
-13.361700 0.000000
-13.325900 0.000000
-13.290000 0.000000
-13.254200 0.000000
-13.218400 0.000000
-13.182600 0.000000
-13.146700 0.000000
-13.110900 0.000000
-13.075100 0.000000
-13.039300 0.000000
-13.003500 0.000000
-12.967600 0.000000
-12.931800 0.000000
-12.896000 0.000000
-12.860200 0.000000
-12.824400 0.000000
-12.788500 0.000000
-12.752700 0.000000
-12.716900 0.000000
-12.681100 0.000000
-12.645200 0.000000
-12.609400 0.000000
-12.573600 0.000000
-12.537800 0.000000
-12.502000 0.000000
-12.466100 0.000000
-12.430300 0.000000
-12.394500 0.000000
-12.358700 0.000000
-12.322800 0.000000
-12.287000 0.000000
-12.251200 0.000000
-12.215400 0.000000
-12.179600 0.000000
-12.143700 0.000000
-12.107900 0.000000
-12.072100 0.000000
-12.036300 0.000000
-12.000500 0.000000
-11.964600 0.000000
-11.928800 0.000000
-11.893000 0.000000
-11.857200 0.000000
-11.821300 0.000000
-11.785500 0.000000
-11.749700 0.000000
-11.713900 0.000000
-11.678100 0.000000
-11.642200 0.000000
-11.606400 0.000000
-11.570600 0.000000
-11.534800 0.000000
-11.499000 0.000000
-11.463100 0.000000
-11.427300 0.000000
-11.391500 0.000000
-11.355700 0.000000
-11.319800 0.000000
-11.284000 0.000000
-11.248200 0.000000
-11.212400 0.000000
-11.176600 0.000000
-11.140700 0.199600
-11.104900 0.737800
-11.069100 1.262700
-11.033300 1.944800
-10.997500 4.204000
-10.961600 3.174200
-10.925800 2.028600
-10.890000 1.802300
-10.854200 1.646900
-10.818300 1.525800
-10.782500 1.422900
-10.746700 1.375400
-10.710900 1.320200
-10.675100 1.231700
-10.639200 1.100500
-10.603400 0.888600
-10.567600 0.708500
-10.531800 0.553700
-10.495900 0.414700
-10.460100 0.181800
-10.424300 0.000000
-10.388500 0.000000
-10.352700 0.000000
-10.316800 0.000000
-10.281000 0.000000
-10.245200 0.000000
-10.209400 0.000000
-10.173600 0.000000
-10.137700 0.000000
-10.101900 0.000000
-10.066100 0.000000
-10.030300 0.000000
-9.994400 0.000000
-9.958600 0.000000
-9.922800 0.000000
-9.887000 0.000000
-9.851200 0.000000
-9.815300 0.000000
-9.779500 0.000000
-9.743700 0.000000
-9.707900 0.000000
-9.672100 0.374300
-9.636200 1.583500
-9.600400 3.181300
-9.564600 4.560700
-9.528800 5.363700
-9.492900 5.139000
-9.457100 5.573300
-9.421300 5.434600
-9.385500 5.892600
-9.349700 5.940900
-9.313800 7.130200
-9.278000 7.650800
-9.242200 8.535800
-9.206400 5.903700
-9.170500 5.491200
-9.134700 1.596400
-9.098900 0.000000
-9.063100 0.000000
-9.027300 0.000000
-8.991400 0.000000
-8.955600 0.000000
-8.919800 0.000000
-8.884000 0.000000
-8.848200 0.000000
-8.812300 0.000000
-8.776500 0.000000
-8.740700 0.000000
-8.704900 0.000000
-8.669000 0.000000
-8.633200 0.000000
-8.597400 0.000000
-8.561600 0.000000
-8.525800 0.000000
-8.489900 0.000000
-8.454100 0.000000
-8.418300 0.000000
-8.382500 0.000000
-8.346700 0.000000
-8.310800 0.000000
-8.275000 0.000000
-8.239200 0.000000
-8.203400 0.000000
-8.167500 0.000000
-8.131700 0.000000
-8.095900 0.000000
-8.060100 0.000000
-8.024300 0.000000
-7.988400 0.000000
-7.952600 0.000000
-7.916800 0.000000
-7.881000 0.000000
-7.845200 0.000000
-7.809300 0.000000
-7.773500 0.000000
-7.737700 0.000000
-7.701900 0.000000
-7.666000 0.000000
-7.630200 0.000000
-7.594400 0.000000
-7.558600 0.000000
-7.522800 0.000000
-7.486900 0.000000
-7.451100 0.000000
-7.415300 0.000000
-7.379500 0.000000
-7.343600 0.000000
-7.307800 0.000000
-7.272000 0.000000
-7.236200 0.000000
-7.200400 0.000000
-7.164500 0.000000
-7.128700 0.000000
-7.092900 0.000000
-7.057100 0.000000
-7.021300 0.000000
-6.985400 0.000000
-6.949600 0.000000
-6.913800 0.000000
-6.878000 0.000000
-6.842100 0.000000
-6.806300 0.000000
-6.770500 0.000000
-6.734700 0.000000
-6.698900 0.000000
-6.663000 0.000000
-6.627200 0.000000
-6.591400 0.000000
-6.555600 0.000000
-6.519800 0.000000
-6.483900 0.000000
-6.448100 0.000000
-6.412300 0.000000
-6.376500 0.000000
-6.340600 0.000000
-6.304800 0.000000
-6.269000 0.000000
-6.233200 0.000000
-6.197400 0.000000
-6.161500 0.000000
-6.125700 0.000000
-6.089900 0.000000
-6.054100 0.000000
-6.018300 0.000000
-5.982400 0.000000
-5.946600 0.000000
-5.910800 0.000000
-5.875000 0.000000
-5.839100 0.000000
-5.803300 0.000000
-5.767500 0.000000
-5.731700 0.000000
-5.695900 0.000000
-5.660000 0.000000
-5.624200 0.000000
-5.588400 0.000000
-5.552600 0.000000
-5.516700 0.000000
-5.480900 0.000000
-5.445100 0.000000
-5.409300 0.000000
-5.373500 0.000000
-5.337600 0.000000
-5.301800 0.000000
-5.266000 0.000000
-5.230200 0.000000
-5.194400 0.000000
-5.158500 0.000000
-5.122700 0.000000
-5.086900 0.000000
-5.051100 0.000000
-5.015200 0.000000
-4.979400 0.000000
-4.943600 0.000000
-4.907800 0.000000
-4.872000 0.000000
-4.836100 0.000000
-4.800300 0.000000
-4.764500 0.000000
-4.728700 0.000000
-4.692900 0.000000
-4.657000 0.000000
-4.621200 0.000000
-4.585400 0.000000
-4.549600 0.000000
-4.513700 0.000000
-4.477900 0.000000
-4.442100 0.000000
-4.406300 0.000000
-4.370500 0.000000
-4.334600 0.000000
-4.298800 0.000000
-4.263000 0.000000
-4.227200 0.000000
-4.191300 0.000000
-4.155500 0.000000
-4.119700 0.000000
-4.083900 0.000000
-4.048100 0.000000
-4.012200 0.000000
-3.976400 0.000000
-3.940600 0.000000
-3.904800 0.000000
-3.869000 0.000000
-3.833100 0.000000
-3.797300 0.000000
-3.761500 0.000000
-3.725700 0.000000
-3.689800 0.000000
-3.654000 0.000000
-3.618200 0.000000
-3.582400 0.000000
-3.546600 0.000000
-3.510700 0.000000
-3.474900 0.000000
-3.439100 0.000000
-3.403300 0.000000
-3.367500 0.000000
-3.331600 0.000000
-3.295800 0.000000
-3.260000 0.000000
-3.224200 0.000000
-3.188300 0.000000
-3.152500 0.000000
-3.116700 0.000000
-3.080900 0.000000
-3.045100 0.000000
-3.009200 0.000000
-2.973400 0.000000
-2.937600 0.000000
-2.901800 0.000000
-2.866000 0.000000
-2.830100 0.000000
-2.794300 0.000000
-2.758500 0.000000
-2.722700 0.000000
-2.686800 0.000000
-2.651000 0.000000
-2.615200 0.000000
-2.579400 0.000000
-2.543600 0.000000
-2.507700 0.000000
-2.471900 0.000000
-2.436100 0.000000
-2.400300 0.000000
-2.364400 0.000000
-2.328600 0.000000
-2.292800 0.000000
-2.257000 0.000000
-2.221200 0.000000
-2.185300 0.000000
-2.149500 0.000000
-2.113700 0.000000
-2.077900 0.000000
-2.042100 0.000000
-2.006200 0.000000
-1.970400 0.000000
-1.934600 0.000000
-1.898800 0.000000
-1.862900 0.096400
-1.827100 0.148400
-1.791300 0.187300
-1.755500 0.266400
-1.719700 0.333300
-1.683800 0.402800
-1.648000 0.463700
-1.612200 0.529000
-1.576400 0.603100
-1.540600 0.680800
-1.504700 0.956200
-1.468900 1.256400
-1.433100 1.571200
-1.397300 2.316300
-1.361400 2.193000
-1.325600 2.538700
-1.289800 2.889300
-1.254000 3.082900
-1.218200 2.970400
-1.182300 2.264400
-1.146500 1.784100
-1.110700 1.672300
-1.074900 1.776800
-1.039100 1.775200
-1.003200 1.804800
-0.967400 1.759200
-0.931600 1.782200
-0.895800 1.601800
-0.859900 1.519000
-0.824100 1.491200
-0.788300 1.457700
-0.752500 1.480800
-0.716700 1.537000
-0.680800 1.628200
-0.645000 1.755000
-0.609200 1.582500
-0.573400 1.601400
-0.537500 1.624800
-0.501700 1.621800
-0.465900 1.640100
-0.430100 1.810700
-0.394300 2.399200
-0.358400 2.289300
-0.322600 2.474100
-0.286800 2.655700
-0.251000 3.690200
-0.215200 3.630400
-0.179300 2.986700
-0.143500 1.108200
-0.107700 0.749200
-0.071900 0.507600
-0.036000 0.218800
-0.000200 0.000000
0.035600 0.000000
0.071400 0.000000
0.107200 0.000000
0.143100 0.000000
0.178900 0.000000
0.214700 0.000000
0.250500 0.000000
0.286300 0.000000
0.322200 0.000000
0.358000 0.000000
0.393800 0.000000
0.429600 0.000000
0.465500 0.000000
0.501300 0.000000
0.537100 0.000000
0.572900 0.000000
0.608700 0.000000
0.644600 0.000000
0.680400 0.000000
0.716200 0.000000
0.752000 0.000000
0.787900 0.000000
0.823700 0.000000
0.859500 0.000000
0.895300 0.000000
0.931100 0.000000
0.967000 0.000000
1.002800 0.000000
1.038600 0.000000
1.074400 0.000000
1.110200 0.000000
1.146100 0.000000
1.181900 0.000000
1.217700 0.000000
1.253500 0.000000
1.289400 0.000000
1.325200 0.000000
1.361000 0.000000
1.396800 0.000000
1.432600 0.000000
1.468500 0.000000
1.504300 0.000000
1.540100 0.000000
1.575900 0.000000
1.611700 0.000000
1.647600 0.000000
1.683400 0.000000
1.719200 0.000000
1.755000 0.000000
1.790900 0.000000
1.826700 0.000000
1.862500 0.000000
1.898300 0.000000
1.934100 0.000000
1.970000 0.000000
2.005800 0.000000
2.041600 0.000000
2.077400 0.000000
2.113200 0.000000
2.149100 0.000000
2.184900 0.000000
2.220700 0.000000
2.256500 0.000000
2.292400 0.000000
2.328200 0.000000
2.364000 0.000000
2.399800 0.000000
2.435600 0.000000
2.471500 0.000000
2.507300 0.000000
2.543100 0.000000
2.578900 0.000000
2.614800 0.000000
2.650600 0.000000
2.686400 0.000000
2.722200 0.000000
2.758000 0.000000
2.793900 0.000000
2.829700 0.000000
2.865500 0.000000
2.901300 0.000000
2.937100 0.000000
2.973000 0.000000
3.008800 0.000000
3.044600 0.000000
3.080400 0.000000
3.116300 0.000000
3.152100 0.000000
3.187900 0.000000
3.223700 0.000000
3.259500 0.000000
3.295400 0.000000
3.331200 0.000000
3.367000 0.000000
3.402800 0.000000
3.438600 0.000000
3.474500 0.000000
3.510300 0.000000
3.546100 0.000000
3.581900 0.000000
3.617800 0.000000
3.653600 0.000000
3.689400 0.000000
3.725200 0.000000
3.761000 0.000000
3.796900 0.000000
3.832700 0.000000
3.868500 0.000000
3.904300 0.000000
3.940200 0.000000
3.976000 0.000000
4.011800 0.000000
4.047600 0.000000
4.083400 0.000000
4.119300 0.000000
4.155100 0.000000
4.190900 0.000000
4.226700 0.000000
4.262500 0.000000
4.298400 0.000000
4.334200 0.000000
4.370000 0.000000
4.405800 0.000000
4.441700 0.011400
4.477500 0.014000
4.513300 0.016800
4.549100 0.019700
4.584900 0.022900
4.620800 0.026200
4.656600 0.029800
4.692400 0.033500
4.728200 0.037400
4.764000 0.039700
4.799900 0.041700
4.835700 0.044300
4.871500 0.046900
4.907300 0.049400
4.943200 0.051800
4.979000 0.054200
5.014800 0.056600
5.050600 0.059300
5.086400 0.115700
5.122300 0.134600
5.158100 0.177800
5.193900 0.209700
5.229700 0.244500
5.265500 0.295600
5.301400 0.318300
5.337200 0.348700
5.373000 0.371700
5.408800 0.399100
5.444700 0.427500
5.480500 0.452500
5.516300 0.485800
5.552100 0.514200
5.587900 0.544300
5.623800 0.575800
5.659600 0.607500
5.695400 0.637800
5.731200 0.666900
5.767100 0.709500
5.802900 0.752000
5.838700 0.813000
5.874500 0.879700
5.910300 0.937000
5.946200 1.000100
5.982000 1.054200
6.017800 1.103000
6.053600 1.146200
6.089400 1.187800
6.125300 1.208200
6.161100 1.234000
6.196900 1.244800
6.232700 1.317800
6.268600 1.376400
6.304400 1.442300
6.340200 1.519700
6.376000 1.599400
6.411800 1.628700
6.447700 1.627100
6.483500 1.668600
6.519300 1.658000
6.555100 1.669200
6.590900 1.581600
6.626800 1.394300
6.662600 1.322800
6.698400 1.184600
6.734200 1.133600
6.770100 1.099000
6.805900 1.074500
6.841700 1.047000
6.877500 1.055800
6.913300 1.091700
6.949200 1.100600
6.985000 1.105300
7.020800 1.007000
7.056600 0.937000
7.092400 0.817700
7.128300 0.782400
7.164100 0.746400
7.199900 0.748700
7.235700 0.807800
7.271600 0.928200
7.307400 1.096900
7.343200 1.494300
7.379000 1.692000
7.414800 1.753600
7.450700 1.755500
7.486500 1.869000
7.522300 1.824900
7.558100 1.784600
7.594000 1.639200
7.629800 1.490700
7.665600 1.688900
7.701400 1.638800
7.737200 1.498700
7.773100 1.413800
7.808900 1.293700
7.844700 1.033300
7.880500 0.926400
7.916300 0.912400
7.952200 0.903200
7.988000 0.897100
8.023800 0.832500
8.059600 0.830600
8.095500 0.762300
8.131300 0.756300
8.167100 0.811800
8.202900 0.869900
8.238700 0.930800
8.274600 1.115900
8.310400 1.320600
8.346200 1.526900
8.382000 1.565900
8.417800 1.448500
8.453700 1.391600
8.489500 1.480600
8.525300 1.391800
8.561100 1.253700
8.597000 1.151700
8.632800 1.140600
8.668600 1.136200
8.704400 1.161500
8.740200 1.458100
8.776100 1.396600
8.811900 1.558300
8.847700 1.665900
8.883500 1.780400
8.919400 1.936200
8.955200 2.141800
8.991000 2.040500
9.026800 1.969300
9.062600 1.894400
9.098500 1.909500
9.134300 1.982900
9.170100 2.014600
9.205900 1.992300
9.241700 2.005400
9.277600 1.988800
9.313400 1.962600
9.349200 1.855700
9.385000 1.715200
9.420900 1.679900
9.456700 1.521900
9.492500 1.452100
9.528300 1.266000
9.564100 1.127500
9.600000 1.123800
9.635800 0.865000
9.671600 0.815800
9.707400 0.788900
9.743200 0.814800
9.779100 0.650800
9.814900 0.615700
9.850700 0.636700
9.886500 0.661500
9.922400 0.661500
9.958200 0.575600
9.994000 0.570100
10.029800 0.674800
10.065600 0.744600
10.101500 0.709600
10.137300 0.705100
10.173100 0.697800
10.208900 0.754600
10.244700 0.808700
10.280600 0.717600
10.316400 0.655300
10.352200 0.570900
10.388000 0.529500
10.423900 0.510900
10.459700 0.536400
10.495500 0.544900
10.531300 0.540400
10.567100 0.527800
10.603000 0.511300
10.638800 0.561100
10.674600 0.549800
10.710400 0.523300
10.746300 0.521800
10.782100 0.535200
10.817900 0.551300
10.853700 0.712300
10.889500 0.653600
10.925400 0.682200
10.961200 0.719100
10.997000 0.760700
11.032800 0.765400
11.068600 0.803700
11.104500 0.831300
11.140300 0.833800
11.176100 0.864700
11.211900 0.892500
11.247800 0.960700
11.283600 0.962500
11.319400 0.993300
11.355200 1.053700
11.391000 1.072700
11.426900 1.114500
11.462700 1.149100
11.498500 1.185100
11.534300 1.306600
11.570100 1.366200
11.606000 1.276300
11.641800 1.250600
11.677600 1.245100
11.713400 1.245800
11.749300 1.256400
11.785100 1.261400
11.820900 1.257600
11.856700 1.267000
11.892500 1.284400
11.928400 1.289600
11.964200 1.329400
12.000000 1.367200
12.035800 1.352000
12.071600 1.351500
12.107500 1.319200
12.143300 1.386200
12.179100 1.495300
12.214900 1.538900
12.250800 1.621700
12.286600 1.942500
12.322400 1.689700
12.358200 1.800900
12.394000 2.377900
12.429900 1.891600
12.465700 1.583100
12.501500 1.497700
12.537300 1.486200
12.573200 1.455700
12.609000 1.627600
12.644800 1.743200
12.680600 1.910500
12.716400 2.164800
12.752300 1.892700
12.788100 1.611900
12.823900 1.501700
12.859700 1.572000
12.895500 1.362800
12.931400 1.217900
12.967200 1.105800
13.003000 0.817800
13.038800 0.696400
13.074700 0.570300
13.110500 0.543900
13.146300 0.523900
13.182100 0.506100
13.217900 0.506500
13.253800 0.494700
13.289600 0.484300
13.325400 0.477000
13.361200 0.466300
13.397000 0.474400
13.432900 0.483600
13.468700 0.485700
13.504500 0.494400
13.540300 0.505600
13.576200 0.519300
13.612000 0.545200
13.647800 0.573800
13.683600 0.609100
13.719400 0.678000
13.755300 0.745400
13.791100 0.800300
13.826900 0.858900
13.862700 0.946400
13.898600 0.992400
13.934400 1.017200
13.970200 1.025000
14.006000 1.018200
14.041800 1.026800
14.077700 1.089400
14.113500 1.016100
14.149300 0.965300
14.185100 0.975500
14.220900 0.975700
14.256800 0.995100
14.292600 1.030800
14.328400 1.114200
14.364200 1.185800
14.400100 1.195400
14.435900 1.200800
14.471700 1.285900
14.507500 1.293900
14.543300 1.272200
14.579200 1.253100
14.615000 1.241200
14.650800 1.429900
14.686600 1.412100
14.722400 1.123500
14.758300 0.984200
14.794100 0.806900
14.829900 0.689300
14.865700 0.647200
14.901600 0.615200
14.937400 0.599200
14.973200 0.603000
15.009000 0.653300
15.044800 0.782100
15.080700 0.786500
15.116500 0.794500
15.152300 0.752100
15.188100 0.737000
15.223900 0.741200
15.259800 0.793500
15.295600 0.770000
15.331400 0.693200
15.367200 0.661900
15.403100 0.613700
15.438900 0.595400
15.474700 0.579400
15.510500 0.560600
15.546300 0.577800
15.582200 0.557800
15.618000 0.557200
15.653800 0.542300
15.689600 0.535700
15.725500 0.563700
15.761300 0.590400
15.797100 0.581400
15.832900 0.550300
15.868700 0.560600
15.904600 0.579000
15.940400 0.600900
15.976200 0.584100
16.012000 0.599300
16.047800 0.599300
16.083700 0.605200
16.119500 0.787900
16.155300 0.730300
16.191100 0.728300
16.227000 2.121600
16.262800 0.804500
16.298600 0.812100
16.334400 0.764500
16.370200 0.706300
16.406100 0.702600
16.441900 0.708600
16.477700 0.777300
16.513500 0.753200
16.549300 0.765800
16.585200 0.782400
16.621000 0.811000
16.656800 0.974700
16.692600 0.991600
16.728500 1.081100
16.764300 1.061300
16.800100 1.112100
16.835900 1.250200
16.871700 1.203900
16.907600 1.078400
16.943400 1.015800
16.979200 1.006800
17.015000 1.057800
17.050900 1.139000
17.086700 1.314500
17.122500 1.382700
17.158300 1.405300
17.194100 1.460900
17.230000 1.476300
17.265800 1.405700
17.301600 1.426100
17.337400 1.498400
17.373200 1.544000
17.409100 1.601000
17.444900 1.671800
17.480700 1.771100
17.516500 1.792700
17.552400 1.824700
17.588200 1.804000
17.624000 1.676700
17.659800 1.560900
17.695600 1.457400
17.731500 1.404000
17.767300 1.472600
17.803100 1.558700
17.838900 1.615300
17.874700 1.615700
17.910600 1.574200
17.946400 1.563100
17.982200 1.547200
18.018000 1.600400
18.053900 1.585600
18.089700 1.470600
18.125500 1.313900
18.161300 1.280000
18.197100 1.155900
18.233000 1.066300
18.268800 1.030200
18.304600 0.998100
18.340400 0.968800
18.376200 0.938800
18.412100 0.915900
18.447900 0.903600
18.483700 0.955400
18.519500 1.025500
18.555400 1.052800
18.591200 1.106300
18.627000 1.261500
18.662800 1.403400
18.698600 1.212500
18.734500 1.192200
18.770300 1.214800
18.806100 1.185100
18.841900 1.154900
18.877800 1.134000
18.913600 1.116500
18.949400 1.103100
18.985200 1.089200
19.021000 1.089400
19.056900 1.063300
19.092700 1.002800
19.128500 1.007400
19.164300 1.003300
19.200100 0.983000
19.236000 0.986600
19.271800 0.986400
19.307600 1.007000
19.343400 1.050300
19.379300 1.104100
19.415100 1.112500
19.450900 1.128500
19.486700 1.195600
19.522500 1.259500
19.558400 1.284200
19.594200 1.381600
19.630000 1.442600
19.665800 1.400700
19.701600 1.373100
19.737500 1.318500
19.773300 1.228000
19.809100 1.118300
19.844900 1.106100
19.880800 1.103500
19.916600 1.125100
19.952400 1.141800
19.988200 1.283900
20.024000 1.357200
20.059900 1.399000
20.095700 1.384200
20.131500 1.372600
20.167300 1.399900
20.203100 1.208500
20.239000 1.182600
20.274800 1.135200
20.310600 1.078400
20.346400 1.041700
20.382300 0.992700
20.418100 0.962400
20.453900 0.929900
20.489700 0.892600
20.525500 0.864900
20.561400 0.850400
20.597200 0.841300
20.633000 0.836000
20.668800 0.834600
20.704700 0.841700
20.740500 0.850400
20.776300 0.890300
20.812100 0.899500
20.847900 0.887800
20.883800 0.913000
20.919600 0.941000
20.955400 0.983900
20.991200 1.021100
21.027000 1.053200
21.062900 1.078100
21.098700 1.126500
21.134500 1.174200
21.170300 1.211800
21.206200 1.207800
21.242000 1.179300
21.277800 1.243800
21.313600 1.305800
21.349400 1.422800
21.385300 1.564600
21.421100 1.463700
21.456900 1.412300
21.492700 1.326000
21.528500 1.300400
21.564400 1.288400
21.600200 1.350400
21.636000 1.355000
21.671800 1.340500
21.707700 1.272800
21.743500 1.323700
21.779300 1.429800
21.815100 1.477600
21.850900 1.496800
21.886800 1.510500
21.922600 1.555100
21.958400 1.826200
21.994200 1.725400
22.030100 1.735100
22.065900 1.724100
22.101700 1.791100
22.137500 1.781600
22.173300 1.880700
22.209200 1.868400
22.245000 1.838500
22.280800 1.688800
22.316600 1.519400
22.352400 1.432300
22.388300 1.398700
22.424100 1.355800
22.459900 1.290400
22.495700 1.296000
22.531600 1.381400
22.567400 1.263600
22.603200 1.153800
22.639000 1.096000
22.674800 1.069700
22.710700 0.979500
22.746500 0.884400
22.782300 0.887300
22.818100 0.846500
22.853900 0.683300
22.889800 0.745700
22.925600 0.740000
22.961400 0.758000
22.997200 0.845600
23.033100 0.687800
23.068900 0.726500
23.104700 0.813900
23.140500 0.798100
23.176300 0.808500
23.212200 0.819800
23.248000 0.894600
23.283800 0.836300
23.319600 0.926200
23.355400 0.973800
23.391300 1.134000
23.427100 1.195300
23.462900 1.265800
23.498700 1.356400
23.534600 1.394800
23.570400 1.508000
23.606200 1.464000
23.642000 1.459100
23.677800 1.493100
23.713700 1.558500
23.749500 1.457200
23.785300 1.349100
23.821100 1.213400
23.857000 1.110700
23.892800 1.001300
23.928600 0.900600
23.964400 0.809500
24.000200 0.735400
24.036100 0.714800
24.071900 0.712100
24.107700 0.750500
24.143500 0.804300
24.179300 0.809800
24.215200 0.824000
24.251000 0.840700
24.286800 0.884500
24.322600 0.873900
24.358500 0.849900
24.394300 0.843900
24.430100 0.834300
24.465900 0.816200
24.501700 0.815200
24.537600 0.854900
24.573400 0.918100
24.609200 1.118900
24.645000 1.176900
24.680800 1.213800
24.716700 1.207400
24.752500 1.150000
24.788300 1.194000
24.824100 1.333800
24.860000 1.210000
24.895800 1.168300
24.931600 1.242200
24.967400 1.129600
25.003200 1.492300
25.039100 1.059900
25.074900 1.031000
25.110700 1.067500
25.146500 1.095100
25.182300 1.222700
25.218200 1.236600
25.254000 1.243800
25.289800 1.191500
25.325600 1.156900
25.361500 1.179900
25.397300 1.185100
25.433100 1.187200
25.468900 1.192500
25.504700 1.227400
25.540600 1.242600
25.576400 1.486800
25.612200 1.169700
25.648000 1.181600
25.683900 1.180800
25.719700 1.257400
25.755500 1.142700
25.791300 1.129500
25.827100 1.165700
25.863000 1.258200
25.898800 1.289000
25.934600 1.381200
25.970400 1.242000
26.006200 1.242300
26.042100 1.250400
26.077900 1.227100
26.113700 1.246800
26.149500 1.254500
26.185400 1.300000
26.221200 1.344400
26.257000 1.414600
26.292800 1.463800
26.328600 1.617000
26.364500 2.365100
26.400300 1.598300
26.436100 1.567400
26.471900 1.618000
26.507700 1.573900
26.543600 1.490100
26.579400 1.466000
26.615200 1.502100
26.651000 1.516100
26.686900 1.521200
26.722700 1.576700
26.758500 1.431200
26.794300 1.354400
26.830100 1.196600
26.866000 1.028000
26.901800 0.916500
26.937600 0.858000
26.973400 0.867300
27.009300 1.019400
27.045100 1.107400
27.080900 1.153200
27.116700 1.174200
27.152500 1.106200
27.188400 1.077500
27.224200 0.987100
27.260000 0.960100
27.295800 1.001000
27.331600 1.048100
27.367500 1.134700
27.403300 1.177900
27.439100 1.247600
27.474900 1.300900
27.510800 1.363300
27.546600 1.398500
27.582400 1.434100
27.618200 1.536500
27.654000 1.437800
27.689900 1.475100
27.725700 1.401100
27.761500 1.361500
27.797300 1.299300
27.833100 1.259800
27.869000 1.222400
27.904800 1.279600
27.940600 1.251400
27.976400 1.260300
28.012300 1.133500
28.048100 1.056000
28.083900 1.125500
28.119700 1.205100
28.155500 1.254400
28.191400 1.310700
28.227200 1.367300
28.263000 1.424600
28.298800 1.424100
28.334600 1.308200
28.370500 1.273200
28.406300 1.277100
28.442100 1.270400
28.477900 1.283600
28.513800 1.303000
28.549600 1.530800
28.585400 1.342500
28.621200 1.327400
28.657000 1.304700
28.692900 1.300700
28.728700 1.303300
28.764500 1.309800
28.800300 1.304600
28.836200 1.342100
28.872000 1.332900
28.907800 1.345600
28.943600 1.380100
28.979400 1.412500
29.015300 1.446900
29.051100 1.489400
29.086900 1.510800
29.122700 1.518600
29.158500 1.512300
29.194400 1.496200
29.230200 1.490300
29.266000 1.515200
29.301800 1.484100
29.337700 1.413700
29.373500 1.382300
29.409300 1.429600
29.445100 1.368300
29.480900 1.281800
29.516800 1.235300
29.552600 1.210400
29.588400 1.230500
29.624200 1.194800
29.660000 1.200800
29.695900 1.267300
29.731700 1.292100
29.767500 1.226600
29.803300 1.217800
29.839200 1.222700
29.875000 1.210100
29.910800 1.198700
29.946600 1.211700
29.982400 1.244600
30.018300 1.409500
30.054100 1.376800
30.089900 1.359800
30.125700 1.303900
30.161600 1.252400
30.197400 1.212700
30.233200 1.165300
30.269000 1.170500
30.304800 1.168900
30.340700 1.175300
30.376500 1.138300
30.412300 1.135200
30.448100 1.164100
30.483900 1.185100
30.519800 1.224100
30.555600 1.268800
30.591400 1.342000
30.627200 1.393200
30.663100 1.409500
30.698900 1.410100
30.734700 1.379900
30.770500 1.356800
30.806300 1.336000
30.842200 1.459400
30.878000 1.233800
30.913800 1.228700
30.949600 1.232000
30.985400 1.279500
31.021300 1.197200
31.057100 1.179900
31.092900 1.172900
31.128700 1.184400
31.164600 1.300700
31.200400 1.319200
31.236200 1.323300
31.272000 1.356400
31.307800 1.471800
31.343700 1.566000
31.379500 1.631700
31.415300 1.658700
31.451100 1.732100
31.486900 1.718300
31.522800 1.704800
31.558600 1.656200
31.594400 1.596200
31.630200 1.499000
31.666100 1.468900
31.701900 1.371000
31.737700 1.344300
31.773500 1.410100
31.809300 1.466200
31.845200 1.597400
31.881000 1.512100
31.916800 1.463500
31.952600 1.443500
31.988500 1.436600
32.024300 1.462300
32.060100 1.452400
32.095900 1.433100
32.131700 1.441500
32.167600 1.443700
32.203400 1.492900
32.239200 1.547300
32.275000 1.582300
32.310800 1.555800
32.346700 1.543200
32.382500 1.523600
32.418300 1.500600
32.454100 1.481400
32.490000 1.468300
32.525800 1.488300
32.561600 1.487000
32.597400 1.520700
32.633200 1.546500
32.669100 1.566500
32.704900 1.736100
32.740700 1.543800
32.776500 1.540500
32.812300 1.519700
32.848200 1.449500
32.884000 1.497400
32.919800 1.469300
32.955600 1.448500
32.991500 1.433900
33.027300 1.433400
33.063100 1.440000
33.098900 1.415500
33.134700 1.413500
33.170600 1.414800
33.206400 1.395300
33.242200 1.432100
33.278000 1.441200
33.313800 1.457600
33.349700 1.475900
33.385500 1.501600
33.421300 1.484700
33.457100 1.472600
33.493000 1.485200
33.528800 1.502700
33.564600 1.458800
33.600400 1.497200
33.636200 1.545600
33.672100 1.557200
33.707900 1.575200
33.743700 1.569200
33.779500 1.617000
33.815400 1.598500
33.851200 1.519400
33.887000 1.460300
33.922800 1.460400
33.958600 1.507000
33.994500 1.512100
34.030300 1.509200
34.066100 1.460900
34.101900 1.372300
34.137700 1.347000
34.173600 1.348200
34.209400 1.336000
34.245200 1.305100
34.281000 1.287500
34.316900 1.201800
34.352700 1.208400
34.388500 1.194500
34.424300 1.188900
34.460100 1.187700
34.496000 1.215100
34.531800 1.329400
34.567600 1.316300
34.603400 1.328000
34.639200 1.306000
34.675100 1.372000
34.710900 1.442000
34.746700 1.381300
34.782500 1.313900
34.818400 1.291700
34.854200 1.273000
34.890000 1.270700
34.925800 1.252900
34.961600 1.300800
34.997500 1.894500
35.033300 1.271200
35.069100 1.218500
35.104900 1.295000
35.140800 1.252100
35.176600 1.235300
35.212400 1.184900
35.248200 1.221600
35.284000 1.172900
35.319900 1.192100
35.355700 1.171400
35.391500 1.161600
35.427300 1.134100
35.463100 1.116800
35.499000 1.124700
35.534800 1.088500
35.570600 1.105600
35.606400 1.162200
35.642300 1.236100
35.678100 1.324800
35.713900 1.308200
35.749700 1.353200
35.785500 1.404200
35.821400 1.422900
35.857200 1.496000
35.893000 1.461800
35.928800 1.375000
35.964600 1.394400
36.000500 1.345400
36.036300 1.320100
36.072100 1.308600
36.107900 1.262100
36.143800 1.266700
36.179600 1.256300
36.215400 1.218200
36.251200 1.228800
36.287000 1.256400
36.322900 1.441300
36.358700 1.307200
36.394500 1.497400
36.430300 1.432200
36.466100 1.452800
36.502000 1.495000
36.537800 1.506000
36.573600 1.492900
36.609400 1.543200
36.645300 1.568200
36.681100 1.601400
36.716900 1.544700
36.752700 1.511100
36.788500 1.475800
36.824400 1.438100
36.860200 1.400700
36.896000 1.413100
36.931800 1.414100
36.967700 1.422100
37.003500 1.320900
37.039300 1.329200
37.075100 1.360900
37.110900 1.344600
37.146800 1.359500
37.182600 1.361200
37.218400 1.407000
37.254200 1.336700
37.290000 1.446500
37.325900 1.366000
37.361700 1.333800
37.397500 1.324300
37.433300 1.308900
37.469200 1.302800
37.505000 1.308900
37.540800 1.350800
37.576600 1.357600
37.612400 1.410000
37.648300 1.365600
37.684100 1.282100
37.719900 1.207400
37.755700 1.156600
37.791500 1.136100
37.827400 1.111400
37.863200 1.101900
37.899000 1.075100
37.934800 1.027900
37.970700 1.014500
38.006500 0.995100
38.042300 0.990400
38.078100 0.936600
38.113900 0.902800
38.149800 0.904100
38.185600 0.866800
38.221400 0.831100
38.257200 0.807000
38.293000 0.780800
38.328900 0.843300
38.364700 0.828600
38.400500 0.750200
38.436300 0.648500
38.472200 0.615200
38.508000 0.538200
38.543800 0.481000
38.579600 0.408600
38.615400 0.388300
38.651300 0.374700
38.687100 0.351300
38.722900 0.319100
38.758700 0.292200
38.794600 0.226400
38.830400 0.146500
38.866200 0.121700
38.902000 0.101400
38.937800 0.083500
38.973700 0.067800
39.009500 0.044300
39.045300 0.053200
39.081100 0.012900
39.116900 0.011000
39.152800 0.010100
39.188600 0.009500
39.224400 0.009000
39.260200 0.008500
39.296100 0.007900
39.331900 0.007500
39.367700 0.007000
39.403500 0.006500
39.439300 0.006100
39.475200 0.005600
39.511000 0.005200
39.546800 0.004800
39.582600 0.004400
39.618400 0.004000
39.654300 0.003600
39.690100 0.000000
39.725900 0.000000
39.761700 0.000000
39.797600 0.000000
39.833400 0.000000
39.869200 0.000000
39.905000 0.000000
39.940800 0.000000
39.976700 0.000000
40.012500 0.000000
40.048300 0.000000
40.084100 0.000000
40.120000 0.000000
40.155800 0.000000
40.191600 0.000000
40.227400 0.000000
40.263200 0.000000
40.299100 0.000000
40.334900 0.000000
40.370700 0.000000
40.406500 0.000000
40.442300 0.000000
40.478200 0.000000
40.514000 0.000000
40.549800 0.000000
40.585600 0.000000
40.621500 0.000000
40.657300 0.000000
40.693100 0.000000
40.728900 0.000000
40.764700 0.000000
40.800600 0.000000
40.836400 0.000000
40.872200 0.000000
40.908000 0.000000
40.943800 0.000000
40.979700 0.000000
41.015500 0.000000
41.051300 0.000000
41.087100 0.000000
41.123000 0.000000
41.158800 0.000000
41.194600 0.000000
41.230400 0.000000
41.266200 0.000000
41.302100 0.000000
41.337900 0.000000
41.373700 0.000000
41.409500 0.000000
41.445300 0.000000
41.481200 0.000000
41.517000 0.000000
41.552800 0.000000
41.588600 0.000000
41.624500 0.000000
41.660300 0.000000
41.696100 0.000000
41.731900 0.000000
41.767700 0.000000
41.803600 0.000000
41.839400 0.000000
41.875200 0.000000
41.911000 0.000000
41.946900 0.000000
41.982700 0.000000
42.018500 0.000000
42.054300 0.000000
42.090100 0.000000
42.126000 0.000000
42.161800 0.000000
42.197600 0.000000
42.233400 0.000000
42.269200 0.000000
42.305100 0.000000
42.340900 0.000000
42.376700 0.000000
42.412500 0.000000
42.448400 0.000000
42.484200 0.000000
42.520000 0.000000
42.555800 0.000000
42.591600 0.000000
42.627500 0.000000
42.663300 0.000000
42.699100 0.000000
42.734900 0.000000
42.770700 0.000000
42.806600 0.000000
42.842400 0.000000
42.878200 0.000000
42.914000 0.000000
42.949900 0.000000
42.985700 0.000000
43.021500 0.000000
43.057300 0.000000
43.093100 0.000000
43.129000 0.000000
e
