set title 'mp-28056 - Density of States'
set xlabel 'Energy (eV)'
set ylabel 'DOS (states/eV)'
set grid
set xrange [-10:10]
set yrange [0:12.517]
set xzeroaxis lt -1
set terminal png size 800,600
set output 'mp-28056_dos_gnuplot.png'
plot '-' using 1:2 with lines title 'DOS'
-42.991500 0.000000
-42.944600 0.000000
-42.897800 0.000000
-42.851000 0.000000
-42.804200 0.000000
-42.757400 0.000000
-42.710600 0.000000
-42.663800 0.000000
-42.617000 0.000000
-42.570200 0.000000
-42.523300 0.000000
-42.476500 0.000000
-42.429700 0.000000
-42.382900 0.000000
-42.336100 0.000000
-42.289300 0.000000
-42.242500 0.000000
-42.195700 0.000000
-42.148900 0.000000
-42.102000 0.000000
-42.055200 0.000000
-42.008400 0.000000
-41.961600 0.000000
-41.914800 0.000000
-41.868000 0.000000
-41.821200 0.000000
-41.774400 0.000000
-41.727600 0.000000
-41.680700 0.000000
-41.633900 0.000000
-41.587100 0.000000
-41.540300 0.000000
-41.493500 0.000000
-41.446700 0.000000
-41.399900 0.000000
-41.353100 0.000000
-41.306300 0.000000
-41.259400 0.000000
-41.212600 0.000000
-41.165800 0.000000
-41.119000 0.000000
-41.072200 0.000000
-41.025400 0.000000
-40.978600 0.000000
-40.931800 0.000000
-40.884900 0.000000
-40.838100 0.000000
-40.791300 0.000000
-40.744500 0.000000
-40.697700 0.000000
-40.650900 0.000000
-40.604100 0.000000
-40.557300 0.000000
-40.510500 0.000000
-40.463600 0.000000
-40.416800 0.000000
-40.370000 0.000000
-40.323200 0.000000
-40.276400 0.000000
-40.229600 0.000000
-40.182800 0.000000
-40.136000 0.000000
-40.089200 0.000000
-40.042300 0.000000
-39.995500 0.000000
-39.948700 0.000000
-39.901900 0.000000
-39.855100 0.000000
-39.808300 0.000000
-39.761500 0.000000
-39.714700 0.000000
-39.667900 0.000000
-39.621000 0.000000
-39.574200 0.000000
-39.527400 0.000000
-39.480600 0.000000
-39.433800 0.000000
-39.387000 0.000000
-39.340200 0.000000
-39.293400 0.000000
-39.246500 0.000000
-39.199700 0.000000
-39.152900 0.000000
-39.106100 0.000000
-39.059300 0.000000
-39.012500 0.000000
-38.965700 0.000000
-38.918900 0.000000
-38.872100 0.000000
-38.825200 0.000000
-38.778400 0.000000
-38.731600 70.352200
-38.684800 0.000000
-38.638000 0.000000
-38.591200 0.000000
-38.544400 0.000000
-38.497600 0.000000
-38.450800 62.770200
-38.403900 21.263200
-38.357100 144.654900
-38.310300 43.543400
-38.263500 150.301500
-38.216700 0.000000
-38.169900 0.000000
-38.123100 0.000000
-38.076300 0.000000
-38.029500 0.000000
-37.982600 0.000000
-37.935800 0.000000
-37.889000 0.000000
-37.842200 0.000000
-37.795400 0.000000
-37.748600 0.000000
-37.701800 0.000000
-37.655000 0.000000
-37.608100 0.000000
-37.561300 0.000000
-37.514500 0.000000
-37.467700 0.000000
-37.420900 0.000000
-37.374100 0.000000
-37.327300 0.000000
-37.280500 0.000000
-37.233700 0.000000
-37.186800 0.000000
-37.140000 0.000000
-37.093200 0.000000
-37.046400 0.000000
-36.999600 0.000000
-36.952800 0.000000
-36.906000 0.000000
-36.859200 0.000000
-36.812400 0.000000
-36.765500 0.000000
-36.718700 0.000000
-36.671900 0.000000
-36.625100 0.000000
-36.578300 0.000000
-36.531500 0.000000
-36.484700 0.000000
-36.437900 0.000000
-36.391100 0.000000
-36.344200 0.000000
-36.297400 0.000000
-36.250600 0.000000
-36.203800 0.000000
-36.157000 0.000000
-36.110200 0.000000
-36.063400 0.000000
-36.016600 0.000000
-35.969800 0.000000
-35.922900 0.000000
-35.876100 0.000000
-35.829300 0.000000
-35.782500 0.000000
-35.735700 0.000000
-35.688900 0.000000
-35.642100 0.000000
-35.595300 0.000000
-35.548400 0.000000
-35.501600 0.000000
-35.454800 0.000000
-35.408000 0.000000
-35.361200 0.000000
-35.314400 0.000000
-35.267600 0.000000
-35.220800 0.000000
-35.174000 0.000000
-35.127100 0.000000
-35.080300 0.000000
-35.033500 0.000000
-34.986700 0.000000
-34.939900 0.000000
-34.893100 0.000000
-34.846300 0.000000
-34.799500 0.000000
-34.752700 0.000000
-34.705800 0.000000
-34.659000 0.000000
-34.612200 0.000000
-34.565400 0.000000
-34.518600 0.000000
-34.471800 0.000000
-34.425000 0.000000
-34.378200 0.000000
-34.331400 0.000000
-34.284500 0.000000
-34.237700 0.000000
-34.190900 0.000000
-34.144100 0.000000
-34.097300 0.000000
-34.050500 0.000000
-34.003700 0.000000
-33.956900 0.000000
-33.910000 0.000000
-33.863200 0.000000
-33.816400 0.000000
-33.769600 0.000000
-33.722800 0.000000
-33.676000 0.000000
-33.629200 0.000000
-33.582400 0.000000
-33.535600 0.000000
-33.488700 0.000000
-33.441900 0.000000
-33.395100 0.000000
-33.348300 0.000000
-33.301500 0.000000
-33.254700 0.000000
-33.207900 0.000000
-33.161100 0.000000
-33.114300 0.000000
-33.067400 0.000000
-33.020600 0.000000
-32.973800 0.000000
-32.927000 0.000000
-32.880200 0.000000
-32.833400 0.000000
-32.786600 0.000000
-32.739800 0.000000
-32.693000 0.000000
-32.646100 0.000000
-32.599300 0.000000
-32.552500 0.000000
-32.505700 0.000000
-32.458900 0.000000
-32.412100 0.000000
-32.365300 0.000000
-32.318500 0.000000
-32.271700 0.000000
-32.224800 0.000000
-32.178000 0.000000
-32.131200 0.000000
-32.084400 0.000000
-32.037600 0.000000
-31.990800 0.000000
-31.944000 0.000000
-31.897200 0.000000
-31.850300 0.000000
-31.803500 0.000000
-31.756700 0.000000
-31.709900 0.000000
-31.663100 0.000000
-31.616300 0.000000
-31.569500 0.000000
-31.522700 0.000000
-31.475900 0.000000
-31.429000 0.000000
-31.382200 0.000000
-31.335400 0.000000
-31.288600 0.000000
-31.241800 0.000000
-31.195000 0.000000
-31.148200 0.000000
-31.101400 0.000000
-31.054600 0.000000
-31.007700 0.000000
-30.960900 0.000000
-30.914100 0.000000
-30.867300 0.000000
-30.820500 0.000000
-30.773700 0.000000
-30.726900 0.000000
-30.680100 0.000000
-30.633300 0.000000
-30.586400 0.000000
-30.539600 0.000000
-30.492800 0.000000
-30.446000 0.000000
-30.399200 0.000000
-30.352400 0.000000
-30.305600 0.000000
-30.258800 0.000000
-30.211900 0.000000
-30.165100 0.000000
-30.118300 0.000000
-30.071500 0.000000
-30.024700 0.000000
-29.977900 0.000000
-29.931100 0.000000
-29.884300 0.000000
-29.837500 0.000000
-29.790600 0.000000
-29.743800 0.000000
-29.697000 0.000000
-29.650200 0.000000
-29.603400 0.000000
-29.556600 0.000000
-29.509800 0.000000
-29.463000 0.000000
-29.416200 0.000000
-29.369300 0.000000
-29.322500 0.000000
-29.275700 0.000000
-29.228900 0.000000
-29.182100 0.000000
-29.135300 0.000000
-29.088500 0.000000
-29.041700 0.000000
-28.994900 0.000000
-28.948000 0.000000
-28.901200 0.000000
-28.854400 0.000000
-28.807600 0.000000
-28.760800 0.000000
-28.714000 0.000000
-28.667200 0.000000
-28.620400 0.000000
-28.573600 0.000000
-28.526700 0.000000
-28.479900 0.000000
-28.433100 0.000000
-28.386300 0.000000
-28.339500 0.000000
-28.292700 0.000000
-28.245900 0.000000
-28.199100 0.000000
-28.152200 0.000000
-28.105400 0.000000
-28.058600 0.000000
-28.011800 0.000000
-27.965000 0.000000
-27.918200 0.000000
-27.871400 0.000000
-27.824600 0.000000
-27.777800 0.000000
-27.730900 0.000000
-27.684100 0.000000
-27.637300 0.000000
-27.590500 0.000000
-27.543700 0.000000
-27.496900 0.000000
-27.450100 0.000000
-27.403300 0.000000
-27.356500 0.000000
-27.309600 0.000000
-27.262800 0.000000
-27.216000 0.000000
-27.169200 0.000000
-27.122400 0.000000
-27.075600 0.000000
-27.028800 0.000000
-26.982000 0.000000
-26.935200 0.000000
-26.888300 0.000000
-26.841500 0.000000
-26.794700 0.000000
-26.747900 0.000000
-26.701100 0.000000
-26.654300 0.000000
-26.607500 0.000000
-26.560700 0.000000
-26.513800 0.000000
-26.467000 0.000000
-26.420200 0.000000
-26.373400 0.000000
-26.326600 0.000000
-26.279800 0.000000
-26.233000 0.000000
-26.186200 0.000000
-26.139400 0.000000
-26.092500 0.000000
-26.045700 0.000000
-25.998900 0.000000
-25.952100 0.000000
-25.905300 0.000000
-25.858500 0.000000
-25.811700 0.000000
-25.764900 0.000000
-25.718100 0.000000
-25.671200 0.000000
-25.624400 0.000000
-25.577600 0.000000
-25.530800 0.000000
-25.484000 0.000000
-25.437200 0.000000
-25.390400 0.000000
-25.343600 0.000000
-25.296800 0.000000
-25.249900 0.000000
-25.203100 0.000000
-25.156300 0.000000
-25.109500 0.000000
-25.062700 0.000000
-25.015900 0.000000
-24.969100 0.000000
-24.922300 0.000000
-24.875500 0.000000
-24.828600 0.000000
-24.781800 0.000000
-24.735000 0.000000
-24.688200 0.000000
-24.641400 0.000000
-24.594600 0.000000
-24.547800 0.000000
-24.501000 0.000000
-24.454100 0.000000
-24.407300 0.000000
-24.360500 0.000000
-24.313700 0.000000
-24.266900 0.000000
-24.220100 0.000000
-24.173300 0.000000
-24.126500 0.000000
-24.079700 0.000000
-24.032800 0.000000
-23.986000 0.000000
-23.939200 0.000000
-23.892400 0.000000
-23.845600 0.000000
-23.798800 0.000000
-23.752000 0.000000
-23.705200 0.000000
-23.658400 0.000000
-23.611500 0.000000
-23.564700 0.000000
-23.517900 0.000000
-23.471100 0.000000
-23.424300 0.000000
-23.377500 0.000000
-23.330700 0.000000
-23.283900 0.000000
-23.237100 0.000000
-23.190200 0.000000
-23.143400 0.000000
-23.096600 0.000000
-23.049800 0.000000
-23.003000 0.000000
-22.956200 0.000000
-22.909400 0.000000
-22.862600 0.000000
-22.815700 0.000000
-22.768900 0.000000
-22.722100 0.000000
-22.675300 0.000000
-22.628500 0.000000
-22.581700 0.000000
-22.534900 0.000000
-22.488100 0.000000
-22.441300 0.000000
-22.394400 0.000000
-22.347600 0.000000
-22.300800 0.000000
-22.254000 0.000000
-22.207200 0.000000
-22.160400 0.000000
-22.113600 0.000000
-22.066800 0.000000
-22.020000 0.000000
-21.973100 0.000000
-21.926300 0.000000
-21.879500 0.000000
-21.832700 0.000000
-21.785900 0.000000
-21.739100 0.000000
-21.692300 0.000000
-21.645500 0.000000
-21.598700 0.000000
-21.551800 0.000000
-21.505000 0.000000
-21.458200 0.000000
-21.411400 0.000000
-21.364600 0.000000
-21.317800 0.000000
-21.271000 0.000000
-21.224200 0.000000
-21.177300 0.000000
-21.130500 0.000000
-21.083700 0.000000
-21.036900 0.000000
-20.990100 0.000000
-20.943300 0.000000
-20.896500 0.000000
-20.849700 0.000000
-20.802900 0.000000
-20.756000 0.000000
-20.709200 0.000000
-20.662400 0.000000
-20.615600 0.000000
-20.568800 0.000000
-20.522000 0.000000
-20.475200 0.000000
-20.428400 0.000000
-20.381600 0.000000
-20.334700 0.000000
-20.287900 0.000000
-20.241100 0.000000
-20.194300 0.000000
-20.147500 0.000000
-20.100700 0.000000
-20.053900 0.000000
-20.007100 0.000000
-19.960300 0.000000
-19.913400 0.000000
-19.866600 0.000000
-19.819800 0.000000
-19.773000 0.000000
-19.726200 0.000000
-19.679400 0.000000
-19.632600 0.000000
-19.585800 0.000000
-19.539000 0.000000
-19.492100 0.000000
-19.445300 0.000000
-19.398500 0.000000
-19.351700 0.000000
-19.304900 0.000000
-19.258100 0.000000
-19.211300 0.000000
-19.164500 0.000000
-19.117600 0.000000
-19.070800 0.000000
-19.024000 0.000000
-18.977200 0.000000
-18.930400 0.000000
-18.883600 0.000000
-18.836800 0.000000
-18.790000 0.000000
-18.743200 0.000000
-18.696300 0.000000
-18.649500 0.000000
-18.602700 0.000000
-18.555900 0.000000
-18.509100 0.000000
-18.462300 0.000000
-18.415500 0.000000
-18.368700 0.000000
-18.321900 0.000000
-18.275000 0.000000
-18.228200 0.000000
-18.181400 0.000000
-18.134600 0.000000
-18.087800 0.000000
-18.041000 0.000000
-17.994200 0.000000
-17.947400 0.000000
-17.900600 0.000000
-17.853700 0.000000
-17.806900 0.000000
-17.760100 0.000000
-17.713300 0.000000
-17.666500 0.000000
-17.619700 0.000000
-17.572900 0.000000
-17.526100 0.000000
-17.479200 0.000000
-17.432400 0.000000
-17.385600 0.000000
-17.338800 0.000000
-17.292000 0.000000
-17.245200 0.000000
-17.198400 0.000000
-17.151600 0.000000
-17.104800 0.000000
-17.057900 0.000000
-17.011100 0.000000
-16.964300 0.000000
-16.917500 0.000000
-16.870700 0.000000
-16.823900 0.000000
-16.777100 0.000000
-16.730300 0.000000
-16.683500 0.000000
-16.636600 0.000000
-16.589800 0.000000
-16.543000 0.000000
-16.496200 0.000000
-16.449400 0.000000
-16.402600 0.000000
-16.355800 0.000000
-16.309000 0.000000
-16.262200 0.000000
-16.215300 0.000000
-16.168500 0.000000
-16.121700 0.000000
-16.074900 0.000000
-16.028100 0.000000
-15.981300 0.000000
-15.934500 0.000000
-15.887700 0.000000
-15.840900 0.000000
-15.794000 0.000000
-15.747200 0.000000
-15.700400 0.000000
-15.653600 0.000000
-15.606800 0.000000
-15.560000 0.000000
-15.513200 0.000000
-15.466400 0.000000
-15.419500 0.000000
-15.372700 0.000000
-15.325900 0.000000
-15.279100 0.000000
-15.232300 0.000000
-15.185500 0.000000
-15.138700 0.000000
-15.091900 0.000000
-15.045100 0.000000
-14.998200 0.000000
-14.951400 0.000000
-14.904600 0.000000
-14.857800 0.000000
-14.811000 0.000000
-14.764200 0.000000
-14.717400 0.000000
-14.670600 0.000000
-14.623800 0.000000
-14.576900 0.000000
-14.530100 0.000000
-14.483300 0.000000
-14.436500 0.000000
-14.389700 0.000000
-14.342900 0.000000
-14.296100 0.000000
-14.249300 0.000000
-14.202500 0.000000
-14.155600 0.000000
-14.108800 0.000000
-14.062000 0.000000
-14.015200 0.000000
-13.968400 0.000000
-13.921600 0.000000
-13.874800 0.000000
-13.828000 0.000000
-13.781100 0.000000
-13.734300 0.000000
-13.687500 0.000000
-13.640700 0.000000
-13.593900 0.000000
-13.547100 0.000000
-13.500300 0.000000
-13.453500 0.000000
-13.406700 0.000000
-13.359800 0.000000
-13.313000 0.000000
-13.266200 0.000000
-13.219400 0.000000
-13.172600 0.000000
-13.125800 0.000000
-13.079000 0.000000
-13.032200 0.000000
-12.985400 0.000000
-12.938500 0.000000
-12.891700 0.000000
-12.844900 0.000000
-12.798100 0.000000
-12.751300 0.000000
-12.704500 0.000000
-12.657700 0.000000
-12.610900 0.000000
-12.564100 0.000000
-12.517200 0.000000
-12.470400 0.000000
-12.423600 0.000000
-12.376800 0.000000
-12.330000 0.000000
-12.283200 0.000000
-12.236400 0.000000
-12.189600 0.000000
-12.142800 0.000000
-12.095900 0.000000
-12.049100 0.000000
-12.002300 0.000000
-11.955500 0.000000
-11.908700 0.000000
-11.861900 0.000000
-11.815100 0.000000
-11.768300 0.000000
-11.721400 0.000000
-11.674600 0.000000
-11.627800 0.000000
-11.581000 0.000000
-11.534200 0.000000
-11.487400 0.000000
-11.440600 0.000000
-11.393800 0.000000
-11.347000 0.000000
-11.300100 0.000000
-11.253300 0.000000
-11.206500 0.000000
-11.159700 0.000000
-11.112900 0.000000
-11.066100 0.000000
-11.019300 0.000000
-10.972500 0.000000
-10.925700 0.000000
-10.878800 0.000000
-10.832000 0.000000
-10.785200 0.000000
-10.738400 0.000000
-10.691600 0.000000
-10.644800 0.000000
-10.598000 0.000000
-10.551200 0.000000
-10.504400 0.000000
-10.457500 0.000000
-10.410700 0.000000
-10.363900 0.000000
-10.317100 0.000000
-10.270300 0.000000
-10.223500 0.000000
-10.176700 0.000000
-10.129900 0.000000
-10.083000 0.000000
-10.036200 0.000000
-9.989400 0.000000
-9.942600 0.000000
-9.895800 0.000000
-9.849000 0.000000
-9.802200 0.000000
-9.755400 0.000000
-9.708600 0.000000
-9.661700 0.000000
-9.614900 0.000000
-9.568100 0.000000
-9.521300 0.000000
-9.474500 0.000000
-9.427700 0.000000
-9.380900 0.000000
-9.334100 0.000000
-9.287300 0.000000
-9.240400 0.000000
-9.193600 0.000000
-9.146800 0.000000
-9.100000 0.000000
-9.053200 0.000000
-9.006400 0.000000
-8.959600 0.000000
-8.912800 0.000000
-8.866000 0.000000
-8.819100 0.000000
-8.772300 0.000000
-8.725500 0.000000
-8.678700 0.000000
-8.631900 0.000000
-8.585100 0.000000
-8.538300 0.000000
-8.491500 0.000000
-8.444600 0.000000
-8.397800 0.000000
-8.351000 0.000000
-8.304200 0.000000
-8.257400 0.000000
-8.210600 0.000000
-8.163800 0.000000
-8.117000 0.000000
-8.070200 0.000000
-8.023300 0.000000
-7.976500 0.000000
-7.929700 0.000000
-7.882900 0.000000
-7.836100 0.000000
-7.789300 0.000000
-7.742500 0.000000
-7.695700 0.000000
-7.648900 0.000000
-7.602000 0.000000
-7.555200 0.000000
-7.508400 0.000000
-7.461600 0.000000
-7.414800 0.000000
-7.368000 0.000000
-7.321200 0.000000
-7.274400 0.000000
-7.227600 0.000000
-7.180700 0.000000
-7.133900 0.000000
-7.087100 0.000000
-7.040300 0.000000
-6.993500 0.000000
-6.946700 0.000000
-6.899900 0.000000
-6.853100 0.000000
-6.806300 0.000000
-6.759400 0.000000
-6.712600 0.000000
-6.665800 0.000000
-6.619000 0.000000
-6.572200 0.000000
-6.525400 0.000000
-6.478600 0.000000
-6.431800 0.000000
-6.384900 0.000000
-6.338100 0.000000
-6.291300 0.000000
-6.244500 0.000000
-6.197700 0.000000
-6.150900 0.000000
-6.104100 0.000000
-6.057300 0.000000
-6.010500 0.000000
-5.963600 0.000000
-5.916800 0.000000
-5.870000 0.000000
-5.823200 0.000000
-5.776400 0.000000
-5.729600 0.000000
-5.682800 0.000000
-5.636000 0.000000
-5.589200 0.000000
-5.542300 0.000000
-5.495500 0.000000
-5.448700 0.000000
-5.401900 0.000000
-5.355100 0.000400
-5.308300 0.072800
-5.261500 0.190500
-5.214700 0.214100
-5.167900 0.264500
-5.121000 0.328500
-5.074200 0.364800
-5.027400 0.390800
-4.980600 0.430600
-4.933800 0.470000
-4.887000 0.520200
-4.840200 0.643700
-4.793400 0.621900
-4.746500 0.635600
-4.699700 0.653700
-4.652900 0.652800
-4.606100 0.665500
-4.559300 0.682900
-4.512500 0.843700
-4.465700 0.869500
-4.418900 0.932100
-4.372100 1.000700
-4.325200 1.050300
-4.278400 1.119100
-4.231600 1.207700
-4.184800 1.299400
-4.138000 1.391500
-4.091200 1.497300
-4.044400 1.700100
-3.997600 1.893800
-3.950800 1.955600
-3.903900 2.059900
-3.857100 2.149300
-3.810300 2.271100
-3.763500 2.400500
-3.716700 2.547600
-3.669900 2.800500
-3.623100 3.123700
-3.576300 3.491800
-3.529500 4.016100
-3.482600 4.563500
-3.435800 5.586900
-3.389000 7.713900
-3.342200 6.879700
-3.295400 7.742900
-3.248600 3.470900
-3.201800 0.000000
-3.155000 0.000000
-3.108200 0.000000
-3.061300 0.000000
-3.014500 0.000000
-2.967700 0.000000
-2.920900 0.000000
-2.874100 0.000000
-2.827300 0.000000
-2.780500 0.000000
-2.733700 0.000000
-2.686800 0.000000
-2.640000 0.000000
-2.593200 0.000000
-2.546400 0.000000
-2.499600 0.000000
-2.452800 0.000000
-2.406000 0.000000
-2.359200 0.000000
-2.312400 0.000000
-2.265500 0.000000
-2.218700 0.000000
-2.171900 0.000000
-2.125100 0.000000
-2.078300 0.000000
-2.031500 0.000000
-1.984700 0.000000
-1.937900 0.000000
-1.891100 0.000000
-1.844200 0.000000
-1.797400 0.000000
-1.750600 0.000000
-1.703800 0.000000
-1.657000 0.000000
-1.610200 0.000000
-1.563400 0.000000
-1.516600 0.000000
-1.469800 0.000000
-1.422900 0.000000
-1.376100 0.000000
-1.329300 0.000000
-1.282500 0.000000
-1.235700 0.000000
-1.188900 0.000000
-1.142100 0.000000
-1.095300 0.000000
-1.048400 0.000000
-1.001600 0.000000
-0.954800 0.000000
-0.908000 0.000000
-0.861200 0.000000
-0.814400 0.000000
-0.767600 0.000000
-0.720800 0.000000
-0.674000 0.000000
-0.627100 0.000000
-0.580300 0.000000
-0.533500 0.000000
-0.486700 0.000000
-0.439900 0.000000
-0.393100 0.000000
-0.346300 0.000000
-0.299500 0.000000
-0.252700 0.000000
-0.205800 0.000000
-0.159000 0.000000
-0.112200 0.000000
-0.065400 0.000000
-0.018600 0.000000
0.028200 0.000000
0.075000 0.000000
0.121800 0.000000
0.168600 0.000000
0.215500 0.000000
0.262300 0.000000
0.309100 0.000000
0.355900 0.000000
0.402700 0.000000
0.449500 0.077800
0.496300 0.223800
0.543100 0.361000
0.589900 0.451500
0.636800 0.541600
0.683600 0.634600
0.730400 0.763300
0.777200 0.976600
0.824000 1.184100
0.870800 1.225700
0.917600 1.340300
0.964400 1.537800
1.011300 1.937400
1.058100 2.699700
1.104900 2.761200
1.151700 2.808700
1.198500 2.649000
1.245300 2.687100
1.292100 2.880300
1.338900 3.152600
1.385700 3.509500
1.432600 3.665200
1.479400 3.479400
1.526200 4.341000
1.573000 3.658300
1.619800 3.170900
1.666600 2.229900
1.713400 2.019600
1.760200 1.741600
1.807000 1.922200
1.853900 2.772200
1.900700 3.743400
1.947500 3.177700
1.994300 2.549300
2.041100 2.033800
2.087900 1.575200
2.134700 1.313600
2.181500 1.201700
2.228300 1.287800
2.275200 2.264900
2.322000 4.717200
2.368800 5.696100
2.415600 6.586600
2.462400 7.788000
2.509200 7.427100
2.556000 7.021300
2.602800 5.649500
2.649700 6.471000
2.696500 9.117900
2.743300 7.806100
2.790100 6.158500
2.836900 5.770700
2.883700 6.036800
2.930500 7.466400
2.977300 7.629300
3.024100 5.208100
3.071000 5.000600
3.117800 4.190300
3.164600 5.344500
3.211400 5.881500
3.258200 5.567200
3.305000 4.149300
3.351800 5.507800
3.398600 7.774000
3.445400 7.801800
3.492300 2.529000
3.539100 1.425000
3.585900 1.155800
3.632700 0.836600
3.679500 0.794600
3.726300 0.866000
3.773100 0.929900
3.819900 0.899200
3.866700 1.465400
3.913600 1.880500
3.960400 9.508100
4.007200 10.577400
4.054000 7.654400
4.100800 5.642100
4.147600 4.795800
4.194400 4.218600
4.241200 3.352800
4.288000 2.851600
4.334900 4.065500
4.381700 4.071500
4.428500 4.296200
4.475300 5.816300
4.522100 7.663000
4.568900 5.659500
4.615700 2.163100
4.662500 1.329800
4.709400 2.099400
4.756200 2.449900
4.803000 3.125400
4.849800 4.272900
4.896600 5.597600
4.943400 6.506000
4.990200 6.671900
5.037000 4.557400
5.083800 3.766000
5.130700 3.936500
5.177500 4.846700
5.224300 3.236500
5.271100 3.460300
5.317900 5.327500
5.364700 7.371900
5.411500 6.050400
5.458300 7.839700
5.505100 4.462500
5.552000 4.392700
5.598800 6.502100
5.645600 5.579800
5.692400 5.652400
5.739200 7.593700
5.786000 5.292200
5.832800 5.104700
5.879600 5.029700
5.926400 6.174500
5.973300 7.363100
6.020100 7.989700
6.066900 7.721400
6.113700 5.498500
6.160500 4.726300
6.207300 4.907700
6.254100 4.921700
6.300900 6.972700
6.347800 6.065300
6.394600 5.385200
6.441400 5.299800
6.488200 6.106700
6.535000 6.923400
6.581800 7.142900
6.628600 7.004000
6.675400 7.420400
6.722200 8.114700
6.769100 9.197200
6.815900 7.897400
6.862700 8.694300
6.909500 11.379000
6.956300 7.345700
7.003100 8.172600
7.049900 9.039600
7.096700 8.354200
7.143500 6.878000
7.190400 5.252400
7.237200 4.599600
7.284000 4.537700
7.330800 6.016500
7.377600 5.293400
7.424400 5.489100
7.471200 2.742500
7.518000 2.653600
7.564800 2.839400
7.611700 3.159500
7.658500 2.693700
7.705300 2.501900
7.752100 2.405200
7.798900 2.356800
7.845700 2.524500
7.892500 2.342300
7.939300 1.930000
7.986200 1.483100
8.033000 1.159500
8.079800 0.898800
8.126600 0.705300
8.173400 0.585900
8.220200 0.413900
8.267000 0.386500
8.313800 0.370000
8.360600 0.361000
8.407500 0.359700
8.454300 0.397000
8.501100 0.362800
8.547900 0.336300
8.594700 0.330700
8.641500 0.355500
8.688300 0.397000
8.735100 0.454000
8.781900 0.557900
8.828800 0.603800
8.875600 0.669500
8.922400 0.711800
8.969200 0.762100
9.016000 0.851800
9.062800 1.143800
9.109600 1.765800
9.156400 2.685700
9.203200 3.114700
9.250100 3.892000
9.296900 3.831400
9.343700 2.972700
9.390500 2.454400
9.437300 2.111300
9.484100 2.070600
9.530900 2.153900
9.577700 2.332300
9.624500 2.523800
9.671400 2.522700
9.718200 2.388700
9.765000 2.253300
9.811800 2.634700
9.858600 3.914800
9.905400 5.148000
9.952200 3.961400
9.999000 3.730600
10.045900 3.911600
10.092700 4.016700
10.139500 3.456500
10.186300 3.392200
10.233100 3.322100
10.279900 3.360000
10.326700 3.197500
10.373500 3.118400
10.420300 3.154900
10.467200 3.291500
10.514000 3.056800
10.560800 2.990800
10.607600 2.917300
10.654400 2.829900
10.701200 2.564100
10.748000 2.520500
10.794800 2.494500
10.841600 2.573400
10.888500 2.621700
10.935300 2.682100
10.982100 2.637100
11.028900 2.564300
11.075700 2.482700
11.122500 2.438500
11.169300 2.217600
11.216100 2.028600
11.262900 1.972400
11.309800 1.937400
11.356600 1.973800
11.403400 2.155300
11.450200 2.584000
11.497000 2.485000
11.543800 1.953600
11.590600 1.532700
11.637400 1.418600
11.684300 1.338000
11.731100 1.252900
11.777900 1.172700
11.824700 1.101300
11.871500 1.015700
11.918300 0.939500
11.965100 0.893900
12.011900 0.889600
12.058700 0.856000
12.105600 0.809700
12.152400 0.760800
12.199200 0.716900
12.246000 0.684700
12.292800 0.664500
12.339600 0.621400
12.386400 0.496600
12.433200 0.396700
12.480000 0.358800
12.526900 0.392900
12.573700 0.472600
12.620500 0.503300
12.667300 0.522000
12.714100 0.545100
12.760900 0.659100
12.807700 0.797500
12.854500 0.808400
12.901300 0.756000
12.948200 0.684600
12.995000 0.681500
13.041800 0.695100
13.088600 0.742900
13.135400 0.849600
13.182200 0.962100
13.229000 1.095100
13.275800 1.233800
13.322600 1.371600
13.369500 1.510600
13.416300 2.039600
13.463100 1.845100
13.509900 1.870900
13.556700 2.135300
13.603500 2.102500
13.650300 1.954800
13.697100 2.056000
13.744000 2.100800
13.790800 2.363300
13.837600 2.229600
13.884400 2.062500
13.931200 2.036400
13.978000 2.006600
14.024800 1.943600
14.071600 1.867300
14.118400 2.006200
14.165300 1.885100
14.212100 1.839200
14.258900 1.820400
14.305700 1.864300
14.352500 1.910600
14.399300 1.854100
14.446100 1.806000
14.492900 1.784200
14.539700 1.818800
14.586600 1.862100
14.633400 1.913400
14.680200 1.968700
14.727000 1.900100
14.773800 1.840600
14.820600 1.788000
14.867400 1.756200
14.914200 1.725100
14.961000 1.722400
15.007900 1.944200
15.054700 1.919200
15.101500 1.882800
15.148300 1.935800
15.195100 1.995400
15.241900 2.152600
15.288700 2.416000
15.335500 2.564100
15.382400 2.841300
15.429200 2.994600
15.476000 2.998000
15.522800 2.888400
15.569600 3.165900
15.616400 3.465500
15.663200 3.900800
15.710000 3.813300
15.756800 3.730800
15.803700 3.477100
15.850500 3.323400
15.897300 3.335300
15.944100 3.408900
15.990900 3.502300
16.037700 3.303400
16.084500 2.981000
16.131300 2.717500
16.178100 2.483400
16.225000 2.414500
16.271800 2.353600
16.318600 2.347700
16.365400 2.117200
16.412200 2.064300
16.459000 2.132200
16.505800 2.861200
16.552600 3.387100
16.599400 3.621100
16.646300 3.858800
16.693100 3.896300
16.739900 3.366800
16.786700 3.167200
16.833500 3.635600
16.880300 3.634700
16.927100 3.220400
16.973900 3.198800
17.020700 3.287200
17.067600 3.648800
17.114400 3.449200
17.161200 3.595500
17.208000 4.183300
17.254800 4.465900
17.301600 4.359500
17.348400 3.665100
17.395200 2.983700
17.442100 2.619700
17.488900 2.418900
17.535700 2.288300
17.582500 2.462400
17.629300 3.525600
17.676100 2.933100
17.722900 2.786100
17.769700 2.860400
17.816500 2.861000
17.863400 3.346400
17.910200 3.168700
17.957000 3.391700
18.003800 3.156200
18.050600 2.748900
18.097400 2.362300
18.144200 2.061400
18.191000 1.865800
18.237800 1.821000
18.284700 1.739200
18.331500 1.934300
18.378300 2.078900
18.425100 2.180800
18.471900 2.187900
18.518700 2.354700
18.565500 2.564100
18.612300 2.873900
18.659100 3.416200
18.706000 3.631100
18.752800 4.168000
18.799600 3.230000
18.846400 3.293100
18.893200 3.560400
18.940000 3.841500
18.986800 3.848200
19.033600 2.664900
19.080500 2.359300
19.127300 2.012700
19.174100 1.745700
19.220900 1.685000
19.267700 1.769700
19.314500 1.870000
19.361300 1.967200
19.408100 1.889800
19.454900 1.868000
19.501800 1.905100
19.548600 1.938600
19.595400 1.950900
19.642200 1.977600
19.689000 2.000700
19.735800 1.996700
19.782600 2.021700
19.829400 2.466300
19.876200 2.524100
19.923100 2.347400
19.969900 2.258500
20.016700 2.291400
20.063500 2.407800
20.110300 2.614200
20.157100 2.582600
20.203900 2.521000
20.250700 2.429400
20.297500 2.483200
20.344400 2.560700
20.391200 2.512200
20.438000 2.297100
20.484800 2.218400
20.531600 2.199400
20.578400 2.188400
20.625200 2.156800
20.672000 2.112400
20.718900 2.073300
20.765700 2.033600
20.812500 1.957000
20.859300 1.858800
20.906100 1.782500
20.952900 1.690700
20.999700 1.650100
21.046500 1.618600
21.093300 1.566100
21.140200 1.510500
21.187000 1.478700
21.233800 1.443000
21.280600 1.409600
21.327400 1.391500
21.374200 1.370900
21.421000 1.395100
21.467800 1.513800
21.514600 1.673400
21.561500 1.656700
21.608300 1.653000
21.655100 1.586600
21.701900 1.536900
21.748700 1.536100
21.795500 1.486900
21.842300 1.422400
21.889100 1.562300
21.935900 1.899100
21.982800 2.035800
22.029600 2.254400
22.076400 2.511500
22.123200 2.764600
22.170000 3.073400
22.216800 3.698000
22.263600 3.307400
22.310400 3.199100
22.357200 3.113400
22.404100 2.967700
22.450900 2.844500
22.497700 2.657800
22.544500 2.345900
22.591300 2.216600
22.638100 2.120700
22.684900 2.102000
22.731700 2.168200
22.778600 2.135700
22.825400 2.112100
22.872200 2.079100
22.919000 2.040400
22.965800 2.014000
23.012600 2.005600
23.059400 2.031200
23.106200 2.047000
23.153000 2.029900
23.199900 2.065800
23.246700 2.162800
23.293500 2.101700
23.340300 2.065800
23.387100 2.095700
23.433900 2.143200
23.480700 2.236900
23.527500 2.285400
23.574300 2.420100
23.621200 2.519700
23.668000 2.522500
23.714800 2.547000
23.761600 2.401500
23.808400 2.469700
23.855200 2.690300
23.902000 2.582300
23.948800 2.456800
23.995600 2.417500
24.042500 2.397300
24.089300 2.392600
24.136100 2.351900
24.182900 2.475800
24.229700 2.806400
24.276500 2.548500
24.323300 2.527700
24.370100 2.500500
24.417000 2.489200
24.463800 2.505700
24.510600 2.561700
24.557400 2.573900
24.604200 2.353300
24.651000 2.205500
24.697800 2.052600
24.744600 1.982200
24.791400 2.023200
24.838300 2.134600
24.885100 2.275800
24.931900 2.491600
24.978700 2.505200
25.025500 2.448200
25.072300 2.516300
25.119100 2.658400
25.165900 2.481300
25.212700 2.427100
25.259600 2.256000
25.306400 2.132300
25.353200 2.045000
25.400000 1.898500
25.446800 1.794400
25.493600 1.764400
25.540400 1.815800
25.587200 1.914800
25.634000 2.123300
25.680900 2.477100
25.727700 2.452700
25.774500 2.706400
25.821300 2.529500
25.868100 2.628800
25.914900 1.921400
25.961700 1.800800
26.008500 1.768600
26.055300 1.769600
26.102200 1.878800
26.149000 1.920900
26.195800 1.886100
26.242600 2.095700
26.289400 2.462400
26.336200 2.453600
26.383000 2.462500
26.429800 2.662600
26.476700 2.867000
26.523500 3.099200
26.570300 3.027400
26.617100 2.874500
26.663900 2.732000
26.710700 2.716900
26.757500 2.526300
26.804300 2.340100
26.851100 2.146800
26.898000 2.061400
26.944800 1.968500
26.991600 2.110200
27.038400 2.249300
27.085200 2.436300
27.132000 2.555300
27.178800 2.765600
27.225600 2.938800
27.272400 3.155400
27.319300 3.636600
27.366100 4.418000
27.412900 3.670600
27.459700 3.267000
27.506500 2.752200
27.553300 2.379900
27.600100 2.287700
27.646900 2.731600
27.693700 3.041900
27.740600 3.458900
27.787400 3.846800
27.834200 3.932300
27.881000 4.118000
27.927800 4.087500
27.974600 3.822100
28.021400 3.799400
28.068200 4.070300
28.115100 3.685000
28.161900 3.441300
28.208700 3.380400
28.255500 3.258800
28.302300 3.237400
28.349100 3.260700
28.395900 3.361800
28.442700 3.529900
28.489500 3.526900
28.536400 3.370800
28.583200 3.257300
28.630000 3.042300
28.676800 2.761900
28.723600 2.601700
28.770400 2.624200
28.817200 2.466300
28.864000 2.348600
28.910800 2.253700
28.957700 2.256600
29.004500 2.244700
29.051300 2.329600
29.098100 2.413700
29.144900 2.460000
29.191700 2.366600
29.238500 2.391500
29.285300 2.442100
29.332100 2.430400
29.379000 2.549500
29.425800 2.989000
29.472600 3.170700
29.519400 3.284000
29.566200 3.250700
29.613000 3.293400
29.659800 3.488600
29.706600 3.685200
29.753400 3.681300
29.800300 3.328200
29.847100 3.455500
29.893900 3.467800
29.940700 3.396700
29.987500 3.066900
30.034300 2.909400
30.081100 2.807800
30.127900 2.913500
30.174800 3.087500
30.221600 2.960100
30.268400 2.778300
30.315200 2.660700
30.362000 2.498300
30.408800 2.467700
30.455600 2.352600
30.502400 2.308100
30.549200 2.332600
30.596100 2.426100
30.642900 2.446900
30.689700 2.519800
30.736500 2.666500
30.783300 2.803700
30.830100 2.770200
30.876900 2.848500
30.923700 2.991700
30.970500 2.963500
31.017400 3.016900
31.064200 2.984000
31.111000 2.912800
31.157800 2.859600
31.204600 2.861900
31.251400 2.586500
31.298200 2.533700
31.345000 2.502900
31.391800 2.554300
31.438700 2.230500
31.485500 2.110900
31.532300 2.136100
31.579100 2.220400
31.625900 2.469800
31.672700 2.770700
31.719500 2.892100
31.766300 3.028500
31.813200 2.881400
31.860000 2.838000
31.906800 2.497100
31.953600 2.348900
32.000400 2.679900
32.047200 2.832700
32.094000 2.988700
32.140800 3.209700
32.187600 2.966800
32.234500 2.891400
32.281300 2.853300
32.328100 2.820100
32.374900 2.955600
32.421700 3.024400
32.468500 3.146700
32.515300 3.279700
32.562100 3.511100
32.608900 3.792600
32.655800 4.446300
32.702600 5.754000
32.749400 8.883300
32.796200 15.644000
32.843000 8.228700
32.889800 7.248600
32.936600 7.180300
32.983400 9.352600
33.030200 15.666900
33.077100 85.193900
33.123900 10.159700
33.170700 7.786500
33.217500 5.582700
33.264300 4.339700
33.311100 3.751500
33.357900 3.314400
33.404700 3.240800
33.451500 3.095800
33.498400 2.838200
33.545200 2.709300
33.592000 2.609700
33.638800 2.546000
33.685600 2.554000
33.732400 2.859300
33.779200 2.904200
33.826000 3.082800
33.872900 3.453300
33.919700 3.601300
33.966500 3.566700
34.013300 3.820100
34.060100 4.034100
34.106900 4.173600
34.153700 3.664900
34.200500 3.375200
34.247300 3.353800
34.294200 3.324800
34.341000 3.395800
34.387800 3.140900
34.434600 3.020300
34.481400 2.893600
34.528200 2.932500
34.575000 2.680000
34.621800 2.571800
34.668600 2.543200
34.715500 2.528700
34.762300 2.515600
34.809100 2.584300
34.855900 2.669400
34.902700 2.816300
34.949500 3.236700
34.996300 3.460100
35.043100 3.626500
35.089900 3.495300
35.136800 3.255400
35.183600 3.024800
35.230400 2.997200
35.277200 3.025000
35.324000 2.747800
35.370800 2.888900
35.417600 3.077500
35.464400 3.662700
35.511300 3.844300
35.558100 4.226100
35.604900 3.674200
35.651700 3.384300
35.698500 3.135600
35.745300 3.160900
35.792100 3.175300
35.838900 2.886800
35.885700 2.615100
35.932600 2.352700
35.979400 1.955500
36.026200 1.972400
36.073000 1.976600
36.119800 2.425300
36.166600 2.620700
36.213400 2.912700
36.260200 3.089300
36.307000 3.182500
36.353900 3.321900
36.400700 3.344700
36.447500 3.439200
36.494300 3.494000
36.541100 3.567400
36.587900 3.752100
36.634700 3.567300
36.681500 3.508400
36.728300 3.462800
36.775200 3.621300
36.822000 3.884400
36.868800 3.639700
36.915600 3.720600
36.962400 3.926700
37.009200 3.359700
37.056000 3.199800
37.102800 3.156100
37.149700 3.237900
37.196500 3.031300
37.243300 2.723500
37.290100 2.844300
37.336900 3.011900
37.383700 3.716000
37.430500 4.761500
37.477300 4.818400
37.524100 4.061400
37.571000 3.508100
37.617800 3.171700
37.664600 3.105500
37.711400 2.574700
37.758200 2.597400
37.805000 2.896300
37.851800 3.557200
37.898600 4.043600
37.945400 4.019600
37.992300 4.209900
38.039100 4.280000
38.085900 3.928100
38.132700 3.721200
38.179500 3.703100
38.226300 3.469600
38.273100 3.302100
38.319900 3.218600
38.366700 3.078500
38.413600 3.168700
38.460400 3.381900
38.507200 3.689000
38.554000 3.992600
38.600800 4.358900
38.647600 4.079000
38.694400 3.705400
38.741200 3.509800
38.788000 3.214200
38.834900 3.022800
38.881700 2.919800
38.928500 2.680300
38.975300 2.656900
39.022100 2.630600
39.068900 2.727500
39.115700 3.038700
39.162500 3.451800
39.209400 3.770600
39.256200 4.149100
39.303000 4.199900
39.349800 4.177900
39.396600 3.898800
39.443400 3.227600
39.490200 3.063100
39.537000 2.928400
39.583800 2.977300
39.630700 2.639300
39.677500 2.852300
39.724300 3.173200
39.771100 3.434900
39.817900 3.555200
39.864700 3.460100
39.911500 3.492300
39.958300 3.564600
40.005100 3.595000
40.052000 3.439000
40.098800 3.356600
40.145600 3.454100
40.192400 3.540400
40.239200 3.511600
40.286000 3.469200
40.332800 3.505100
40.379600 3.405700
40.426400 3.251700
40.473300 3.230200
40.520100 3.335600
40.566900 3.273500
40.613700 3.102500
40.660500 3.004700
40.707300 2.862100
40.754100 2.611800
40.800900 2.571000
40.847800 2.619400
40.894600 2.771800
40.941400 2.790800
40.988200 2.859700
41.035000 2.910300
41.081800 3.084900
41.128600 3.291400
41.175400 3.360500
41.222200 3.576700
41.269100 3.959100
41.315900 4.056800
41.362700 3.865400
41.409500 3.735400
41.456300 3.559900
41.503100 3.359100
41.549900 3.303800
41.596700 3.209500
41.643500 3.086500
41.690400 3.096800
41.737200 3.150300
41.784000 3.243900
41.830800 3.356800
41.877600 3.376300
41.924400 3.184200
41.971200 3.139600
42.018000 2.987000
42.064800 2.897900
42.111700 2.899500
42.158500 2.946700
42.205300 2.996400
42.252100 3.030500
42.298900 2.977600
42.345700 2.970500
42.392500 3.061400
42.439300 3.042700
42.486100 3.166100
42.533000 3.215100
42.579800 3.502000
42.626600 3.827900
42.673400 3.948700
42.720200 3.755400
42.767000 3.746500
42.813800 3.417300
42.860600 3.140500
42.907500 3.211900
42.954300 3.346700
43.001100 3.520800
43.047900 3.631000
43.094700 3.789800
43.141500 3.471900
43.188300 3.217200
43.235100 3.021600
43.281900 2.882000
43.328800 2.734500
43.375600 2.728900
43.422400 2.854300
43.469200 2.951300
43.516000 3.120000
43.562800 3.385800
43.609600 3.645300
43.656400 3.928900
43.703200 3.982200
43.750100 3.827700
43.796900 3.770700
43.843700 3.639600
43.890500 3.360000
43.937300 3.148400
43.984100 3.166900
44.030900 3.309400
44.077700 3.565200
44.124500 3.841200
44.171400 3.896300
44.218200 3.620900
44.265000 3.297100
44.311800 3.150100
44.358600 3.046600
44.405400 2.947100
44.452200 2.859000
44.499000 2.819200
44.545900 2.793000
44.592700 2.770900
44.639500 2.575500
44.686300 2.414400
44.733100 2.254000
44.779900 2.106100
44.826700 1.881800
44.873500 1.825600
44.920300 1.771200
44.967200 1.613800
45.014000 1.511700
45.060800 1.425500
45.107600 1.314200
45.154400 1.199500
45.201200 1.157200
45.248000 1.123800
45.294800 0.960400
45.341600 0.795800
45.388500 0.591000
45.435300 0.382300
45.482100 0.210700
45.528900 0.117100
45.575700 0.078700
45.622500 0.059700
45.669300 0.046900
45.716100 0.038800
45.762900 0.033200
45.809800 0.029700
45.856600 0.026900
45.903400 0.024600
45.950200 0.022600
45.997000 0.020800
46.043800 0.019400
46.090600 0.018200
46.137400 0.017200
46.184200 0.015200
46.231100 0.011900
46.277900 0.007600
46.324700 0.003200
46.371500 0.000000
46.418300 0.000000
46.465100 0.000000
46.511900 0.000000
46.558700 0.000000
46.605600 0.000000
46.652400 0.000000
46.699200 0.000000
46.746000 0.000000
46.792800 0.000000
46.839600 0.000000
46.886400 0.000000
46.933200 0.000000
46.980000 0.000000
47.026900 0.000000
47.073700 0.000000
47.120500 0.000000
47.167300 0.000000
47.214100 0.000000
47.260900 0.000000
47.307700 0.000000
47.354500 0.000000
47.401300 0.000000
47.448200 0.000000
47.495000 0.000000
47.541800 0.000000
47.588600 0.000000
47.635400 0.000000
47.682200 0.000000
47.729000 0.000000
47.775800 0.000000
47.822600 0.000000
47.869500 0.000000
47.916300 0.000000
47.963100 0.000000
48.009900 0.000000
48.056700 0.000000
48.103500 0.000000
48.150300 0.000000
48.197100 0.000000
48.244000 0.000000
48.290800 0.000000
48.337600 0.000000
48.384400 0.000000
48.431200 0.000000
48.478000 0.000000
48.524800 0.000000
48.571600 0.000000
48.618400 0.000000
48.665300 0.000000
48.712100 0.000000
48.758900 0.000000
48.805700 0.000000
48.852500 0.000000
48.899300 0.000000
48.946100 0.000000
48.992900 0.000000
49.039700 0.000000
49.086600 0.000000
49.133400 0.000000
49.180200 0.000000
49.227000 0.000000
49.273800 0.000000
49.320600 0.000000
49.367400 0.000000
49.414200 0.000000
49.461000 0.000000
49.507900 0.000000
49.554700 0.000000
49.601500 0.000000
49.648300 0.000000
49.695100 0.000000
49.741900 0.000000
49.788700 0.000000
49.835500 0.000000
49.882300 0.000000
49.929200 0.000000
49.976000 0.000000
50.022800 0.000000
50.069600 0.000000
50.116400 0.000000
50.163200 0.000000
50.210000 0.000000
50.256800 0.000000
50.303700 0.000000
50.350500 0.000000
50.397300 0.000000
50.444100 0.000000
50.490900 0.000000
50.537700 0.000000
50.584500 0.000000
50.631300 0.000000
e
