set title 'mp-1080172 - Density of States'
set xlabel 'Energy (eV)'
set ylabel 'DOS (states/eV)'
set grid
set xrange [-10:10]
set yrange [0:7.888]
set xzeroaxis lt -1
set terminal png size 800,600
set output 'mp-1080172_dos_gnuplot.png'
plot '-' using 1:2 with lines title 'DOS'
-28.690600 0.000000
-28.657100 0.000000
-28.623600 0.000000
-28.590000 0.000000
-28.556500 0.000000
-28.523000 0.000000
-28.489500 0.000000
-28.456000 0.000000
-28.422400 0.000000
-28.388900 0.000000
-28.355400 0.000000
-28.321900 0.000000
-28.288400 0.000000
-28.254900 0.000000
-28.221300 0.000000
-28.187800 0.000000
-28.154300 0.000000
-28.120800 0.000000
-28.087300 0.000000
-28.053700 0.000000
-28.020200 0.000000
-27.986700 0.000000
-27.953200 0.000000
-27.919700 0.000000
-27.886100 0.000000
-27.852600 0.000000
-27.819100 0.000000
-27.785600 0.000000
-27.752100 0.000000
-27.718600 0.000000
-27.685000 0.000000
-27.651500 0.000000
-27.618000 0.000000
-27.584500 0.000000
-27.551000 0.000000
-27.517400 0.000000
-27.483900 0.000000
-27.450400 0.000000
-27.416900 0.000000
-27.383400 0.000000
-27.349800 0.000000
-27.316300 0.000000
-27.282800 0.000000
-27.249300 0.000000
-27.215800 0.000000
-27.182200 0.000000
-27.148700 0.000000
-27.115200 0.000000
-27.081700 0.000000
-27.048200 0.000000
-27.014700 0.000000
-26.981100 0.000000
-26.947600 0.000000
-26.914100 0.000000
-26.880600 0.000000
-26.847100 0.000000
-26.813500 0.000000
-26.780000 0.000000
-26.746500 0.000000
-26.713000 0.000000
-26.679500 0.000000
-26.645900 0.000000
-26.612400 0.000000
-26.578900 0.000000
-26.545400 0.000000
-26.511900 0.000000
-26.478300 0.000000
-26.444800 0.000000
-26.411300 0.000000
-26.377800 0.000000
-26.344300 0.000000
-26.310800 0.000000
-26.277200 0.000000
-26.243700 0.000000
-26.210200 0.000000
-26.176700 0.000000
-26.143200 0.000000
-26.109600 0.000000
-26.076100 0.000000
-26.042600 0.000000
-26.009100 0.000000
-25.975600 0.000000
-25.942000 0.000000
-25.908500 0.000000
-25.875000 0.000000
-25.841500 0.000000
-25.808000 0.000000
-25.774500 0.000000
-25.740900 0.000000
-25.707400 0.000000
-25.673900 0.000000
-25.640400 0.164600
-25.606900 2.663700
-25.573300 5.919100
-25.539800 8.355800
-25.506300 6.734900
-25.472800 5.113000
-25.439300 4.433800
-25.405700 4.039600
-25.372200 3.903400
-25.338700 10.457400
-25.305200 18.360600
-25.271700 21.062300
-25.238100 18.602400
-25.204600 25.200300
-25.171100 30.828700
-25.137600 8.807900
-25.104100 31.809600
-25.070600 34.458600
-25.037000 24.500900
-25.003500 23.270000
-24.970000 18.377500
-24.936500 4.154000
-24.903000 4.210100
-24.869400 4.526500
-24.835900 5.329900
-24.802400 6.997600
-24.768900 12.264300
-24.735400 0.351400
-24.701800 0.000000
-24.668300 0.000000
-24.634800 0.000000
-24.601300 0.000000
-24.567800 0.000000
-24.534300 0.000000
-24.500700 0.000000
-24.467200 0.000000
-24.433700 0.000000
-24.400200 0.000000
-24.366700 0.000000
-24.333100 0.000000
-24.299600 0.000000
-24.266100 0.000000
-24.232600 0.000000
-24.199100 0.000000
-24.165500 0.000000
-24.132000 0.000000
-24.098500 0.000000
-24.065000 0.000000
-24.031500 0.000000
-23.997900 0.000000
-23.964400 0.000000
-23.930900 0.000000
-23.897400 0.000000
-23.863900 0.000000
-23.830400 0.000000
-23.796800 0.000000
-23.763300 0.000000
-23.729800 0.000000
-23.696300 0.000000
-23.662800 0.000000
-23.629200 0.000000
-23.595700 0.000000
-23.562200 0.000000
-23.528700 0.000000
-23.495200 0.000000
-23.461600 0.000000
-23.428100 0.000000
-23.394600 0.000000
-23.361100 0.000000
-23.327600 0.000000
-23.294100 0.000000
-23.260500 0.000000
-23.227000 0.000000
-23.193500 0.000000
-23.160000 0.000000
-23.126500 0.000000
-23.092900 0.000000
-23.059400 0.000000
-23.025900 0.000000
-22.992400 0.000000
-22.958900 0.000000
-22.925300 0.000000
-22.891800 0.000000
-22.858300 0.000000
-22.824800 0.000000
-22.791300 0.000000
-22.757700 0.000000
-22.724200 0.000000
-22.690700 0.000000
-22.657200 0.000000
-22.623700 0.000000
-22.590200 0.000000
-22.556600 0.000000
-22.523100 0.000000
-22.489600 0.000000
-22.456100 0.000000
-22.422600 0.000000
-22.389000 0.000000
-22.355500 0.000000
-22.322000 0.000000
-22.288500 0.000000
-22.255000 0.000000
-22.221400 0.000000
-22.187900 0.000000
-22.154400 0.000000
-22.120900 0.000000
-22.087400 0.000000
-22.053900 0.000000
-22.020300 0.000000
-21.986800 0.000000
-21.953300 0.000000
-21.919800 0.000000
-21.886300 0.000000
-21.852700 0.000000
-21.819200 0.000000
-21.785700 0.000000
-21.752200 0.000000
-21.718700 0.000000
-21.685100 0.000000
-21.651600 0.000000
-21.618100 0.000000
-21.584600 0.000000
-21.551100 0.000000
-21.517500 0.000000
-21.484000 0.000000
-21.450500 0.000000
-21.417000 0.000000
-21.383500 0.000000
-21.350000 0.000000
-21.316400 0.000000
-21.282900 0.000000
-21.249400 0.000000
-21.215900 0.000000
-21.182400 0.000000
-21.148800 0.000000
-21.115300 0.000000
-21.081800 0.000000
-21.048300 0.000000
-21.014800 0.000000
-20.981200 0.000000
-20.947700 0.000000
-20.914200 0.000000
-20.880700 0.000000
-20.847200 0.000000
-20.813600 0.000000
-20.780100 0.000000
-20.746600 0.000000
-20.713100 0.000000
-20.679600 0.000000
-20.646100 0.000000
-20.612500 0.000000
-20.579000 0.000000
-20.545500 0.000000
-20.512000 0.000000
-20.478500 0.000000
-20.444900 0.000000
-20.411400 0.000000
-20.377900 0.000000
-20.344400 0.000000
-20.310900 0.000000
-20.277300 0.000000
-20.243800 0.000000
-20.210300 0.000000
-20.176800 0.000000
-20.143300 0.000000
-20.109800 0.000000
-20.076200 0.000000
-20.042700 0.000000
-20.009200 0.000000
-19.975700 0.000000
-19.942200 0.000000
-19.908600 0.000000
-19.875100 0.000000
-19.841600 0.000000
-19.808100 0.000000
-19.774600 0.000000
-19.741000 0.000000
-19.707500 0.000000
-19.674000 0.000000
-19.640500 0.000000
-19.607000 0.000000
-19.573400 0.000000
-19.539900 0.000000
-19.506400 0.000000
-19.472900 0.000000
-19.439400 0.000000
-19.405900 0.000000
-19.372300 0.000000
-19.338800 0.000000
-19.305300 0.000000
-19.271800 0.000000
-19.238300 0.000000
-19.204700 0.000000
-19.171200 0.000000
-19.137700 0.000000
-19.104200 0.000000
-19.070700 0.000000
-19.037100 0.000000
-19.003600 0.000000
-18.970100 0.000000
-18.936600 0.000000
-18.903100 0.000000
-18.869600 0.000000
-18.836000 0.000000
-18.802500 0.000000
-18.769000 0.000000
-18.735500 0.000000
-18.702000 0.000000
-18.668400 0.000000
-18.634900 0.000000
-18.601400 0.000000
-18.567900 0.000000
-18.534400 0.000000
-18.500800 0.000000
-18.467300 0.000000
-18.433800 0.000000
-18.400300 0.000000
-18.366800 0.000000
-18.333200 0.000000
-18.299700 0.000000
-18.266200 0.000000
-18.232700 0.000000
-18.199200 0.000000
-18.165700 0.000000
-18.132100 0.000000
-18.098600 0.000000
-18.065100 0.000000
-18.031600 0.000000
-17.998100 0.000000
-17.964500 0.000000
-17.931000 0.000000
-17.897500 0.000000
-17.864000 0.000000
-17.830500 0.000000
-17.796900 0.000000
-17.763400 0.000000
-17.729900 0.000000
-17.696400 0.000000
-17.662900 0.000000
-17.629400 0.000000
-17.595800 0.000000
-17.562300 0.000000
-17.528800 0.000000
-17.495300 0.000000
-17.461800 0.000000
-17.428200 0.000000
-17.394700 0.000000
-17.361200 0.000000
-17.327700 0.000000
-17.294200 0.000000
-17.260600 0.000000
-17.227100 0.000000
-17.193600 0.000000
-17.160100 0.000000
-17.126600 0.000000
-17.093000 0.000000
-17.059500 0.000000
-17.026000 0.000000
-16.992500 0.000000
-16.959000 0.000000
-16.925500 0.000000
-16.891900 0.000000
-16.858400 0.000000
-16.824900 0.000000
-16.791400 0.000000
-16.757900 0.000000
-16.724300 0.000000
-16.690800 0.000000
-16.657300 0.000000
-16.623800 0.000000
-16.590300 0.000000
-16.556700 0.000000
-16.523200 0.000000
-16.489700 0.000000
-16.456200 0.000000
-16.422700 0.000000
-16.389100 0.000000
-16.355600 0.000000
-16.322100 0.000000
-16.288600 0.000000
-16.255100 0.000000
-16.221600 0.000000
-16.188000 0.000000
-16.154500 0.000000
-16.121000 0.000000
-16.087500 0.000000
-16.054000 0.000000
-16.020400 0.000000
-15.986900 0.000000
-15.953400 0.000000
-15.919900 0.000000
-15.886400 0.000000
-15.852800 0.000000
-15.819300 0.000000
-15.785800 0.000000
-15.752300 0.000000
-15.718800 0.000000
-15.685300 0.000000
-15.651700 0.000000
-15.618200 0.000000
-15.584700 0.000000
-15.551200 0.000000
-15.517700 0.000000
-15.484100 0.000000
-15.450600 0.000000
-15.417100 0.000000
-15.383600 0.000000
-15.350100 0.000000
-15.316500 0.000000
-15.283000 0.000000
-15.249500 0.000000
-15.216000 0.000000
-15.182500 0.000000
-15.148900 0.000000
-15.115400 0.000000
-15.081900 0.000000
-15.048400 0.000000
-15.014900 0.000000
-14.981400 0.000000
-14.947800 0.000000
-14.914300 0.000000
-14.880800 0.000000
-14.847300 0.000000
-14.813800 0.000000
-14.780200 0.000000
-14.746700 0.000000
-14.713200 0.000000
-14.679700 0.000000
-14.646200 0.000000
-14.612600 0.000000
-14.579100 0.000000
-14.545600 0.000000
-14.512100 0.000000
-14.478600 0.000000
-14.445100 0.000000
-14.411500 0.000000
-14.378000 0.000000
-14.344500 0.000000
-14.311000 0.000000
-14.277500 0.000000
-14.243900 0.000000
-14.210400 0.000000
-14.176900 0.000000
-14.143400 0.000000
-14.109900 0.000000
-14.076300 0.000000
-14.042800 0.000000
-14.009300 0.000000
-13.975800 0.000000
-13.942300 0.000000
-13.908700 0.000000
-13.875200 0.000000
-13.841700 0.000000
-13.808200 0.000000
-13.774700 0.000000
-13.741200 0.000000
-13.707600 0.000000
-13.674100 0.000000
-13.640600 0.000000
-13.607100 0.000000
-13.573600 0.000000
-13.540000 0.000000
-13.506500 0.000000
-13.473000 0.000000
-13.439500 0.000000
-13.406000 0.000000
-13.372400 0.000000
-13.338900 0.000000
-13.305400 0.000000
-13.271900 0.000000
-13.238400 0.000000
-13.204900 0.000000
-13.171300 0.000000
-13.137800 0.000000
-13.104300 0.000000
-13.070800 0.000000
-13.037300 0.000000
-13.003700 0.000000
-12.970200 0.000000
-12.936700 0.000000
-12.903200 0.000000
-12.869700 0.000000
-12.836100 0.000000
-12.802600 0.000000
-12.769100 0.000000
-12.735600 0.000000
-12.702100 0.000000
-12.668500 0.000000
-12.635000 0.000000
-12.601500 0.000000
-12.568000 0.000000
-12.534500 0.000000
-12.501000 0.000000
-12.467400 0.000000
-12.433900 0.000000
-12.400400 0.000000
-12.366900 0.000000
-12.333400 0.000000
-12.299800 0.000000
-12.266300 0.000000
-12.232800 0.017300
-12.199300 0.190700
-12.165800 0.201800
-12.132200 0.280000
-12.098700 0.328100
-12.065200 0.360400
-12.031700 0.408100
-11.998200 0.461900
-11.964600 0.505600
-11.931100 0.541200
-11.897600 0.585100
-11.864100 0.635300
-11.830600 0.685100
-11.797100 0.729800
-11.763500 0.779900
-11.730000 0.833800
-11.696500 0.886400
-11.663000 0.942000
-11.629500 1.007200
-11.595900 1.073300
-11.562400 1.143200
-11.528900 1.214500
-11.495400 1.299000
-11.461900 1.387000
-11.428300 1.479600
-11.394800 1.585400
-11.361300 1.711500
-11.327800 1.845000
-11.294300 1.985900
-11.260800 2.178500
-11.227200 2.388400
-11.193700 2.673500
-11.160200 3.103700
-11.126700 4.097400
-11.093200 4.283100
-11.059600 4.448600
-11.026100 4.460700
-10.992600 3.750000
-10.959100 2.199000
-10.925600 3.463100
-10.892000 5.929100
-10.858500 6.422000
-10.825000 4.966400
-10.791500 4.581400
-10.758000 4.392800
-10.724400 4.375400
-10.690900 3.388500
-10.657400 2.811200
-10.623900 2.438900
-10.590400 2.154500
-10.556900 1.913700
-10.523300 1.717100
-10.489800 1.541300
-10.456300 1.390000
-10.422800 1.249800
-10.389300 1.134000
-10.355700 1.026800
-10.322200 0.921000
-10.288700 0.830800
-10.255200 0.744400
-10.221700 0.662500
-10.188100 0.598900
-10.154600 0.526400
-10.121100 0.450300
-10.087600 0.387600
-10.054100 0.340200
-10.020600 0.255900
-9.987000 0.181100
-9.953500 0.074300
-9.920000 0.000000
-9.886500 0.000000
-9.853000 0.000000
-9.819400 0.000000
-9.785900 0.000000
-9.752400 0.000000
-9.718900 0.000000
-9.685400 0.000000
-9.651800 0.000000
-9.618300 0.000000
-9.584800 0.000000
-9.551300 0.000000
-9.517800 0.000000
-9.484200 0.000000
-9.450700 0.000000
-9.417200 0.000000
-9.383700 0.000000
-9.350200 0.000000
-9.316700 0.000000
-9.283100 0.000000
-9.249600 0.000000
-9.216100 0.000000
-9.182600 0.000000
-9.149100 0.000000
-9.115500 0.000000
-9.082000 0.000000
-9.048500 0.000000
-9.015000 0.000000
-8.981500 0.000000
-8.947900 0.000000
-8.914400 0.000000
-8.880900 0.000000
-8.847400 0.000000
-8.813900 0.000000
-8.780400 0.000000
-8.746800 0.000000
-8.713300 0.000000
-8.679800 0.000000
-8.646300 0.000000
-8.612800 0.000000
-8.579200 0.000000
-8.545700 0.000000
-8.512200 0.000000
-8.478700 0.000000
-8.445200 0.000000
-8.411600 0.000000
-8.378100 0.000000
-8.344600 0.000000
-8.311100 0.000000
-8.277600 0.000000
-8.244000 0.000000
-8.210500 0.000000
-8.177000 0.000000
-8.143500 0.000000
-8.110000 0.000000
-8.076500 0.000000
-8.042900 0.000000
-8.009400 0.000000
-7.975900 0.000000
-7.942400 0.000000
-7.908900 0.000000
-7.875300 0.000000
-7.841800 0.000000
-7.808300 0.000000
-7.774800 0.000000
-7.741300 0.000000
-7.707700 0.000000
-7.674200 0.000000
-7.640700 0.000000
-7.607200 0.000000
-7.573700 0.000000
-7.540100 0.000000
-7.506600 0.000000
-7.473100 0.000000
-7.439600 0.000000
-7.406100 0.000000
-7.372600 0.000000
-7.339000 0.000000
-7.305500 0.000000
-7.272000 0.000000
-7.238500 0.000000
-7.205000 0.000000
-7.171400 0.000000
-7.137900 0.000000
-7.104400 0.000000
-7.070900 0.000000
-7.037400 0.000000
-7.003800 0.000000
-6.970300 0.000000
-6.936800 0.000000
-6.903300 0.000000
-6.869800 0.000000
-6.836300 0.000000
-6.802700 0.000000
-6.769200 0.000000
-6.735700 0.000000
-6.702200 0.000000
-6.668700 0.000000
-6.635100 0.000000
-6.601600 0.000000
-6.568100 0.000000
-6.534600 0.000000
-6.501100 0.000000
-6.467500 0.000000
-6.434000 0.000000
-6.400500 0.000000
-6.367000 0.000000
-6.333500 0.000000
-6.299900 0.000000
-6.266400 0.000000
-6.232900 0.000000
-6.199400 0.000000
-6.165900 0.000000
-6.132400 0.000000
-6.098800 0.000000
-6.065300 0.000000
-6.031800 0.000000
-5.998300 0.000000
-5.964800 0.000000
-5.931200 0.000000
-5.897700 0.000000
-5.864200 0.000000
-5.830700 0.000000
-5.797200 0.000000
-5.763600 0.000000
-5.730100 0.000000
-5.696600 0.000000
-5.663100 0.000000
-5.629600 0.000000
-5.596100 0.000000
-5.562500 0.000000
-5.529000 0.000000
-5.495500 0.000000
-5.462000 0.000000
-5.428500 0.000000
-5.394900 0.000000
-5.361400 0.000000
-5.327900 0.000000
-5.294400 0.000000
-5.260900 0.000000
-5.227300 0.000000
-5.193800 0.000000
-5.160300 0.000000
-5.126800 0.000000
-5.093300 0.000000
-5.059700 0.000000
-5.026200 0.000000
-4.992700 0.000000
-4.959200 0.000000
-4.925700 0.000000
-4.892200 0.000000
-4.858600 0.000000
-4.825100 0.000000
-4.791600 0.000000
-4.758100 0.000000
-4.724600 0.000000
-4.691000 0.000000
-4.657500 0.000000
-4.624000 0.000000
-4.590500 0.000000
-4.557000 0.000000
-4.523400 0.000000
-4.489900 0.000000
-4.456400 0.101800
-4.422900 0.169200
-4.389400 0.241800
-4.355900 0.308900
-4.322300 0.331400
-4.288800 0.369300
-4.255300 0.417200
-4.221800 0.468300
-4.188300 0.512800
-4.154700 0.556200
-4.121200 0.591600
-4.087700 0.631800
-4.054200 0.679600
-4.020700 0.730900
-3.987100 0.787200
-3.953600 0.842000
-3.920100 0.907000
-3.886600 0.982200
-3.853100 1.076900
-3.819500 1.189200
-3.786000 1.180000
-3.752500 1.216600
-3.719000 1.293900
-3.685500 1.386100
-3.652000 1.496200
-3.618400 1.665100
-3.584900 1.832900
-3.551400 2.127200
-3.517900 2.938100
-3.484400 3.785500
-3.450800 4.805000
-3.417300 6.813000
-3.383800 7.170500
-3.350300 5.295000
-3.316800 4.587600
-3.283200 4.213100
-3.249700 4.184600
-3.216200 4.079800
-3.182700 4.062800
-3.149200 4.052300
-3.115700 3.968500
-3.082100 4.209800
-3.048600 4.364900
-3.015100 4.272100
-2.981600 3.830800
-2.948100 3.666900
-2.914500 3.517900
-2.881000 3.252400
-2.847500 3.105200
-2.814000 2.905800
-2.780500 1.850300
-2.746900 0.074100
-2.713400 0.000000
-2.679900 0.000000
-2.646400 0.000000
-2.612900 0.000000
-2.579300 0.000000
-2.545800 0.000000
-2.512300 0.000000
-2.478800 0.000000
-2.445300 0.000000
-2.411800 0.000000
-2.378200 0.000000
-2.344700 0.000000
-2.311200 0.000000
-2.277700 0.000000
-2.244200 0.000000
-2.210600 0.000000
-2.177100 0.000000
-2.143600 0.000000
-2.110100 0.000000
-2.076600 0.000000
-2.043000 0.000000
-2.009500 0.000000
-1.976000 0.000000
-1.942500 0.000000
-1.909000 0.000000
-1.875400 0.000000
-1.841900 0.000000
-1.808400 0.000000
-1.774900 0.000000
-1.741400 0.000000
-1.707900 0.000000
-1.674300 0.000000
-1.640800 0.000000
-1.607300 0.000000
-1.573800 0.000000
-1.540300 0.000000
-1.506700 0.000000
-1.473200 0.000000
-1.439700 0.000000
-1.406200 0.000000
-1.372700 0.000000
-1.339100 0.000000
-1.305600 0.000000
-1.272100 0.000000
-1.238600 0.000000
-1.205100 0.000000
-1.171600 0.000000
-1.138000 0.000000
-1.104500 0.000000
-1.071000 0.000000
-1.037500 0.000000
-1.004000 0.000000
-0.970400 0.000000
-0.936900 0.000000
-0.903400 0.000000
-0.869900 0.000000
-0.836400 0.000000
-0.802800 0.000000
-0.769300 0.000000
-0.735800 0.000000
-0.702300 0.000000
-0.668800 0.000000
-0.635200 0.000000
-0.601700 0.000000
-0.568200 0.000000
-0.534700 0.000000
-0.501200 0.000000
-0.467700 0.045000
-0.434100 0.058700
-0.400600 0.078900
-0.367100 0.105900
-0.333600 0.135400
-0.300100 0.134900
-0.266500 0.146700
-0.233000 0.219900
-0.199500 0.521100
-0.166000 1.079000
-0.132500 1.296600
-0.098900 1.452900
-0.065400 1.511900
-0.031900 1.508500
0.001600 1.543900
0.035100 1.621500
0.068600 1.700000
0.102200 1.780000
0.135700 2.058200
0.169200 2.259300
0.202700 2.271800
0.236200 2.307700
0.269800 2.314400
0.303300 2.452000
0.336800 2.520000
0.370300 2.540300
0.403800 2.185400
0.437400 2.075200
0.470900 2.051200
0.504400 2.177900
0.537900 2.345500
0.571400 2.426900
0.605000 2.593900
0.638500 2.672700
0.672000 2.367400
0.705500 2.223800
0.739000 2.184200
0.772500 2.199100
0.806100 2.282200
0.839600 2.360700
0.873100 2.349200
0.906600 2.377700
0.940100 2.406500
0.973700 2.421600
1.007200 2.447300
1.040700 2.660700
1.074200 2.920300
1.107700 3.174800
1.141300 3.008000
1.174800 3.048600
1.208300 3.031700
1.241800 3.035600
1.275300 3.012600
1.308800 3.025700
1.342400 3.075400
1.375900 3.033200
1.409400 2.960300
1.442900 2.875700
1.476400 2.810900
1.510000 2.734600
1.543500 2.726700
1.577000 2.688300
1.610500 2.636100
1.644000 2.556300
1.677600 2.499300
1.711100 2.441500
1.744600 2.399800
1.778100 2.380800
1.811600 2.321900
1.845200 2.320100
1.878700 2.330000
1.912200 2.327700
1.945700 2.323500
1.979200 2.398400
2.012700 2.450800
2.046300 2.518700
2.079800 2.464200
2.113300 2.553200
2.146800 2.345200
2.180300 2.053700
2.213900 1.730000
2.247400 1.496700
2.280900 1.198600
2.314400 0.952500
2.347900 0.747600
2.381500 0.595200
2.415000 0.466400
2.448500 0.397100
2.482000 0.390100
2.515500 0.470100
2.549100 0.595900
2.582600 0.777100
2.616100 1.032600
2.649600 1.337900
2.683100 1.685200
2.716600 2.021600
2.750200 2.407800
2.783700 2.547400
2.817200 2.615800
2.850700 2.759200
2.884200 2.819700
2.917800 2.786200
2.951300 2.783500
2.984800 2.685300
3.018300 2.478400
3.051800 2.390400
3.085400 2.402700
3.118900 2.323000
3.152400 2.309300
3.185900 2.284700
3.219400 2.326600
3.252900 2.325400
3.286500 2.319200
3.320000 2.301800
3.353500 2.288600
3.387000 2.289200
3.420500 2.320100
3.454100 2.349600
3.487600 2.396000
3.521100 2.463800
3.554600 2.479200
3.588100 2.493400
3.621700 2.508300
3.655200 2.524300
3.688700 2.558600
3.722200 2.586500
3.755700 2.602600
3.789300 2.636400
3.822800 2.671100
3.856300 2.736200
3.889800 2.797600
3.923300 2.859700
3.956800 2.920900
3.990400 2.986800
4.023900 3.070100
4.057400 3.172400
4.090900 3.341600
4.124400 3.616700
4.158000 3.715800
4.191500 3.881500
4.225000 4.005500
4.258500 4.044000
4.292000 4.109400
4.325600 4.381800
4.359100 4.587500
4.392600 4.160300
4.426100 4.341100
4.459600 5.330700
4.493100 5.450300
4.526700 3.908500
4.560200 3.265500
4.593700 2.833200
4.627200 2.509400
4.660700 1.711800
4.694300 1.280000
4.727800 1.112600
4.761300 1.004800
4.794800 0.926600
4.828300 0.839900
4.861900 0.760500
4.895400 0.700400
4.928900 0.682000
4.962400 0.698500
4.995900 0.715200
5.029500 0.573300
5.063000 0.623800
5.096500 0.675800
5.130000 0.715300
5.163500 0.778700
5.197000 0.881400
5.230600 1.011800
5.264100 1.108100
5.297600 1.229500
5.331100 1.344200
5.364600 1.495800
5.398200 1.641400
5.431700 1.831000
5.465200 2.056700
5.498700 2.123700
5.532200 2.263600
5.565800 2.366100
5.599300 2.414700
5.632800 2.466400
5.666300 2.493500
5.699800 2.542500
5.733300 2.615500
5.766900 2.702500
5.800400 2.780800
5.833900 2.896500
5.867400 2.976800
5.900900 3.055900
5.934500 3.039100
5.968000 3.044500
6.001500 2.808800
6.035000 2.643000
6.068500 2.541100
6.102100 2.568200
6.135600 2.396700
6.169100 2.484900
6.202600 2.289000
6.236100 2.251000
6.269700 2.169300
6.303200 2.123000
6.336700 2.383100
6.370200 3.052800
6.403700 3.061000
6.437200 3.216100
6.470800 3.395100
6.504300 3.738700
6.537800 4.562900
6.571300 4.717500
6.604800 4.714900
6.638400 4.657300
6.671900 4.614100
6.705400 4.920100
6.738900 4.690500
6.772400 4.744200
6.806000 4.791300
6.839500 4.898600
6.873000 5.110200
6.906500 5.282500
6.940000 5.392900
6.973600 5.537200
7.007100 5.330500
7.040600 5.590100
7.074100 4.627600
7.107600 3.832700
7.141100 3.267500
7.174700 3.476200
7.208200 3.556500
7.241700 2.214000
7.275200 1.968400
7.308700 1.885600
7.342300 1.767500
7.375800 1.694400
7.409300 1.628900
7.442800 1.614000
7.476300 1.641600
7.509900 1.500100
7.543400 1.289600
7.576900 1.222900
7.610400 1.303800
7.643900 1.280500
7.677400 1.155000
7.711000 1.083200
7.744500 1.061000
7.778000 1.038400
7.811500 0.945800
7.845000 0.895200
7.878600 0.874200
7.912100 0.875500
7.945600 0.919500
7.979100 0.883200
8.012600 0.877400
8.046200 0.877700
8.079700 0.892400
8.113200 0.925400
8.146700 0.922500
8.180200 0.934000
8.213800 0.972800
8.247300 0.987000
8.280800 0.952100
8.314300 0.958100
8.347800 0.960800
8.381300 0.955100
8.414900 0.911300
8.448400 0.906300
8.481900 0.904600
8.515400 0.903000
8.548900 0.902600
8.582500 0.903100
8.616000 0.899500
8.649500 0.897200
8.683000 0.900800
8.716500 0.905000
8.750100 0.909000
8.783600 0.911700
8.817100 0.913000
8.850600 0.907200
8.884100 0.904600
8.917600 0.904100
8.951200 0.905300
8.984700 0.907800
9.018200 0.911300
9.051700 0.914500
9.085200 0.920600
9.118800 0.954600
9.152300 0.972700
9.185800 0.971100
9.219300 0.971100
9.252800 0.969000
9.286400 0.988500
9.319900 1.028800
9.353400 1.073400
9.386900 1.128900
9.420400 1.194700
9.454000 1.247700
9.487500 1.286900
9.521000 1.343300
9.554500 1.403700
9.588000 1.466500
9.621500 1.512000
9.655100 1.565700
9.688600 1.570600
9.722100 1.645800
9.755600 1.775300
9.789100 1.723600
9.822700 1.487100
9.856200 1.302500
9.889700 1.178600
9.923200 1.246600
9.956700 1.586300
9.990300 2.158500
10.023800 1.974400
10.057300 2.294800
10.090800 2.933200
10.124300 4.213600
10.157800 5.126000
10.191400 6.469300
10.224900 7.567000
10.258400 8.108400
10.291900 7.299500
10.325400 6.305200
10.359000 5.171300
10.392500 4.879100
10.426000 5.012900
10.459500 5.252000
10.493000 5.741000
10.526600 5.383500
10.560100 5.573500
10.593600 5.239200
10.627100 5.069900
10.660600 5.468100
10.694200 5.329100
10.727700 5.991700
10.761200 5.497900
10.794700 5.951600
10.828200 7.592700
10.861700 6.400100
10.895300 7.078100
10.928800 7.238600
10.962300 6.904800
10.995800 6.501700
11.029300 5.848400
11.062900 5.553000
11.096400 5.399000
11.129900 5.319700
11.163400 5.565200
11.196900 5.585900
11.230500 5.655400
11.264000 5.947200
11.297500 5.904900
11.331000 6.075200
11.364500 6.285300
11.398000 6.166900
11.431600 5.883400
11.465100 5.881000
11.498600 5.465000
11.532100 5.020900
11.565600 4.713600
11.599200 4.534000
11.632700 4.342400
11.666200 4.344000
11.699700 3.568300
11.733200 3.402600
11.766800 3.629000
11.800300 3.998700
11.833800 3.683300
11.867300 3.525200
11.900800 3.432300
11.934400 3.616100
11.967900 5.121800
12.001400 5.398600
12.034900 5.862300
12.068400 6.094000
12.101900 6.587600
12.135500 5.517200
12.169000 5.481000
12.202500 5.929000
12.236000 5.433200
12.269500 5.331400
12.303100 5.488000
12.336600 5.830400
12.370100 6.050400
12.403600 5.442400
12.437100 5.320400
12.470700 5.844400
12.504200 5.628200
12.537700 5.551400
12.571200 5.005900
12.604700 4.957200
12.638300 5.474100
12.671800 5.886500
12.705300 6.288300
12.738800 7.502700
12.772300 6.364700
12.805800 4.723100
12.839400 3.528000
12.872900 2.846400
12.906400 2.376300
12.939900 2.232100
12.973400 2.059800
13.007000 2.359900
13.040500 2.710200
13.074000 2.770300
13.107500 2.855500
13.141000 3.167200
13.174600 2.803200
13.208100 2.958200
13.241600 2.860800
13.275100 2.765200
13.308600 2.686400
13.342100 2.827200
13.375700 2.786200
13.409200 2.687200
13.442700 2.669300
13.476200 2.530500
13.509700 2.089400
13.543300 1.696600
13.576800 1.524300
13.610300 1.382600
13.643800 1.244900
13.677300 1.119400
13.710900 1.015000
13.744400 0.943600
13.777900 0.879200
13.811400 0.822000
13.844900 0.769100
13.878500 0.679100
13.912000 0.619600
13.945500 0.585900
13.979000 0.557900
14.012500 0.530600
14.046000 0.503200
14.079600 0.473800
14.113100 0.449800
14.146600 0.427900
14.180100 0.408100
14.213600 0.389500
14.247200 0.364500
14.280700 0.340900
14.314200 0.320300
14.347700 0.303700
14.381200 0.279800
14.414800 0.256500
14.448300 0.236900
14.481800 0.219200
14.515300 0.202400
14.548800 0.174900
14.582300 0.137700
14.615900 0.105000
14.649400 0.068900
14.682900 0.000000
14.716400 0.000000
14.749900 0.000000
14.783500 0.000000
14.817000 0.000000
14.850500 0.000000
14.884000 0.000000
14.917500 0.000000
14.951100 0.000000
14.984600 0.000000
15.018100 0.000000
15.051600 0.000000
15.085100 0.000000
15.118700 0.000000
15.152200 0.000000
15.185700 0.000000
15.219200 0.000000
15.252700 0.000000
15.286200 0.000000
15.319800 0.000000
15.353300 0.000000
15.386800 0.000000
15.420300 0.000000
15.453800 0.000000
15.487400 0.000000
15.520900 0.000000
15.554400 0.000000
15.587900 0.000000
15.621400 0.000000
15.655000 0.000000
15.688500 0.000000
15.722000 0.000000
15.755500 0.000000
15.789000 0.000000
15.822500 0.000000
15.856100 0.000000
15.889600 0.000000
15.923100 0.000000
15.956600 0.000000
15.990100 0.000000
16.023700 0.000000
16.057200 0.000000
16.090700 0.000000
16.124200 0.000000
16.157700 0.000000
16.191300 0.000000
16.224800 0.000000
16.258300 0.000000
16.291800 0.000000
16.325300 0.000000
16.358900 0.000000
16.392400 0.000000
16.425900 0.000000
16.459400 0.000000
16.492900 0.000000
16.526400 0.000000
16.560000 0.000000
16.593500 0.000000
16.627000 0.000000
16.660500 0.000000
16.694000 0.179700
16.727600 0.307100
16.761100 0.407100
16.794600 0.548000
16.828100 0.631900
16.861600 0.787200
16.895200 0.925500
16.928700 0.900000
16.962200 0.919400
16.995700 0.968300
17.029200 1.021700
17.062800 1.074500
17.096300 1.138500
17.129800 1.220600
17.163300 1.311600
17.196800 1.452900
17.230300 2.489100
17.263900 2.702300
17.297400 2.746700
17.330900 2.844900
17.364400 3.213200
17.397900 3.735700
17.431500 3.354100
17.465000 2.474200
17.498500 2.158000
17.532000 1.849100
17.565500 1.659800
17.599100 1.622000
17.632600 1.692000
17.666100 1.720600
17.699600 1.760900
17.733100 1.835700
17.766600 2.036600
17.800200 2.198300
17.833700 2.300700
17.867200 2.370900
17.900700 2.380300
17.934200 2.496000
17.967800 2.618400
18.001300 2.775900
18.034800 2.922300
18.068300 3.239900
18.101800 3.807000
18.135400 4.433400
18.168900 4.444400
18.202400 4.260300
18.235900 4.154800
18.269400 3.995400
18.303000 3.779200
18.336500 3.977000
18.370000 3.133800
18.403500 2.496700
18.437000 1.923600
18.470500 1.295000
18.504100 0.592000
18.537600 0.147100
18.571100 0.164100
18.604600 0.259300
18.638100 1.327900
18.671700 2.091300
18.705200 1.745800
18.738700 1.677700
18.772200 1.654100
18.805700 1.640400
18.839300 1.521000
18.872800 1.531500
18.906300 1.511800
18.939800 1.471400
18.973300 1.366300
19.006800 1.333700
19.040400 1.321800
19.073900 1.320400
19.107400 1.322200
19.140900 1.328400
19.174400 1.346300
19.208000 1.397700
19.241500 1.478500
19.275000 1.579100
19.308500 1.684500
19.342000 1.828800
19.375600 2.148000
19.409100 2.417100
19.442600 2.099400
19.476100 2.079600
19.509600 2.070800
19.543200 1.949600
19.576700 1.508700
19.610200 1.345000
19.643700 0.994400
19.677200 0.743600
19.710700 0.644000
19.744300 0.568500
19.777800 0.630200
19.811300 0.910500
19.844800 1.062300
19.878300 1.101100
19.911900 1.125900
19.945400 1.181000
19.978900 1.247200
20.012400 1.351900
20.045900 1.450700
20.079500 1.562800
20.113000 1.667800
20.146500 1.739600
20.180000 1.854600
20.213500 1.862300
20.247000 1.867500
20.280600 1.886200
20.314100 1.910100
20.347600 1.947400
20.381100 1.981800
20.414600 2.044200
20.448200 2.124500
20.481700 2.187000
20.515200 2.184600
20.548700 2.199000
20.582200 2.238100
20.615800 2.311500
20.649300 2.366900
20.682800 2.430100
20.716300 2.506000
20.749800 2.579400
20.783400 2.722100
20.816900 2.836700
20.850400 3.067000
20.883900 3.270600
20.917400 3.342800
20.950900 3.245900
20.984500 3.164200
21.018000 3.117300
21.051500 2.860500
21.085000 2.723800
21.118500 2.786100
21.152100 2.739500
21.185600 2.629900
21.219100 2.713600
21.252600 2.741400
21.286100 2.563600
21.319700 2.510000
21.353200 2.439400
21.386700 2.245600
21.420200 2.067900
21.453700 1.990100
21.487300 1.883700
21.520800 1.856200
21.554300 1.831500
21.587800 1.774600
21.621300 1.726800
21.654800 1.592100
21.688400 1.578200
21.721900 1.540500
21.755400 1.593700
21.788900 1.489400
21.822400 1.472100
21.856000 1.419100
21.889500 1.398200
21.923000 1.357500
21.956500 1.336900
21.990000 1.356800
22.023600 1.396400
22.057100 1.423600
22.090600 1.462700
22.124100 1.439200
22.157600 1.327500
22.191100 1.254700
22.224700 1.219600
22.258200 1.192000
22.291700 1.184100
22.325200 1.254500
22.358700 1.265500
22.392300 1.236000
22.425800 1.256400
22.459300 1.257800
22.492800 1.274300
22.526300 1.308200
22.559900 1.354300
22.593400 1.409200
22.626900 1.472000
22.660400 1.571700
22.693900 1.629600
22.727500 1.650400
22.761000 1.612500
22.794500 1.577000
22.828000 1.580200
22.861500 1.600900
22.895000 1.599900
22.928600 1.569500
22.962100 1.545200
22.995600 1.535000
23.029100 1.494100
23.062600 1.478300
23.096200 1.516700
23.129700 1.521900
23.163200 1.540800
23.196700 1.567400
23.230200 1.579000
23.263800 1.574600
23.297300 1.545600
23.330800 1.528000
23.364300 1.520800
23.397800 1.517500
23.431300 1.482500
23.464900 1.476600
23.498400 1.473600
23.531900 1.471400
23.565400 1.481500
23.598900 1.509600
23.632500 1.495800
23.666000 1.525500
23.699500 1.558300
23.733000 1.617000
23.766500 1.700200
23.800100 1.730500
23.833600 1.766100
23.867100 1.776100
23.900600 1.662000
23.934100 1.457100
23.967700 1.461500
24.001200 1.546500
24.034700 1.722700
24.068200 1.966700
24.101700 2.133700
24.135200 2.242500
24.168800 2.276800
24.202300 2.362000
24.235800 2.484900
24.269300 2.439100
24.302800 2.398600
24.336400 2.483300
24.369900 2.737800
24.403400 2.938200
24.436900 2.594600
24.470400 2.438500
24.504000 2.508500
24.537500 2.713700
24.571000 2.932700
24.604500 3.429800
24.638000 4.102600
24.671500 4.470700
24.705100 4.964600
24.738600 5.541100
24.772100 3.815900
24.805600 3.364200
24.839100 3.075900
24.872700 3.149700
24.906200 3.693200
24.939700 3.656200
24.973200 3.448600
25.006700 3.052200
25.040300 2.964700
25.073800 2.872200
25.107300 2.966000
25.140800 2.619800
25.174300 2.600700
25.207900 2.627000
25.241400 2.484500
25.274900 2.460400
25.308400 2.415300
25.341900 2.384500
25.375400 2.402300
25.409000 2.477300
25.442500 2.588500
25.476000 2.709100
25.509500 3.058000
25.543000 3.380500
25.576600 3.214600
25.610100 2.562000
25.643600 2.284000
25.677100 2.064000
25.710600 2.042400
25.744200 1.846100
25.777700 1.848800
25.811200 1.891600
25.844700 1.927000
25.878200 1.995900
25.911700 2.087100
25.945300 2.187600
25.978800 2.080900
26.012300 2.022400
26.045800 2.001200
26.079300 1.987000
26.112900 1.964500
26.146400 1.917500
26.179900 1.936900
26.213400 1.778500
26.246900 1.732700
26.280500 1.681200
26.314000 1.625400
26.347500 1.556200
26.381000 1.520000
26.414500 1.524700
26.448100 1.588700
26.481600 1.608600
26.515100 1.431000
26.548600 1.283100
26.582100 1.170500
26.615600 1.089300
26.649200 0.880200
26.682700 0.713200
26.716200 0.614500
26.749700 0.533100
26.783200 0.459300
26.816800 0.562100
26.850300 0.724400
26.883800 0.822400
26.917300 0.959500
26.950800 1.191700
26.984400 1.398100
27.017900 1.410100
27.051400 1.434400
27.084900 1.489400
27.118400 1.510800
27.152000 1.506600
27.185500 1.548400
27.219000 1.551600
27.252500 1.473800
27.286000 1.475000
27.319500 1.480900
27.353100 1.497600
27.386600 1.404500
27.420100 1.399000
27.453600 1.429300
27.487100 1.444400
27.520700 1.477100
27.554200 1.536800
27.587700 1.588800
27.621200 1.618600
27.654700 1.633700
27.688300 1.660300
27.721800 1.697600
27.755300 1.647000
27.788800 1.668700
27.822300 1.698300
27.855800 1.737500
27.889400 1.802700
27.922900 1.827900
27.956400 1.858200
27.989900 1.872700
28.023400 1.884100
28.057000 1.847000
28.090500 1.735600
28.124000 1.745900
28.157500 1.736600
28.191000 1.720100
28.224600 1.709900
28.258100 1.724600
28.291600 1.848000
28.325100 1.451600
28.358600 1.319400
28.392200 1.291200
28.425700 1.286400
28.459200 1.349700
28.492700 1.468100
28.526200 1.605400
28.559700 1.755000
28.593300 1.836800
28.626800 1.949700
28.660300 2.116400
28.693800 2.429700
28.727300 2.824400
28.760900 2.940900
28.794400 2.957600
28.827900 2.890100
28.861400 2.746800
28.894900 2.546800
28.928500 2.464500
28.962000 2.353300
28.995500 2.481100
29.029000 2.613800
29.062500 2.672600
29.096000 2.586700
29.129600 2.482600
29.163100 2.068500
29.196600 1.851100
29.230100 1.873800
29.263600 1.903200
29.297200 1.974300
29.330700 2.323400
29.364200 2.203700
29.397700 2.037800
29.431200 1.956000
29.464800 1.807000
29.498300 1.734700
29.531800 1.815700
29.565300 1.947400
29.598800 2.158700
29.632400 2.488500
29.665900 3.030900
29.699400 3.645600
29.732900 3.928600
29.766400 4.145700
29.799900 4.290600
29.833500 4.561000
29.867000 5.238100
29.900500 6.534800
29.934000 9.945000
29.967500 9.864700
30.001100 5.838800
30.034600 4.831000
30.068100 4.060000
30.101600 3.405900
30.135100 2.550700
30.168700 2.320600
30.202200 2.169800
30.235700 2.061200
30.269200 2.054300
30.302700 2.053300
30.336200 2.027200
30.369800 1.975600
30.403300 1.933500
30.436800 1.823900
30.470300 1.603300
30.503800 1.654300
30.537400 1.612800
30.570900 1.643500
30.604400 1.704800
30.637900 1.786900
30.671400 1.883400
30.705000 2.003800
30.738500 2.064000
30.772000 2.084600
30.805500 2.064600
30.839000 2.019800
30.872600 2.034900
30.906100 2.175800
30.939600 2.138700
30.973100 1.936400
31.006600 1.999400
31.040100 2.006800
31.073700 2.012200
31.107200 2.084500
31.140700 2.281000
31.174200 2.432400
31.207700 2.464500
31.241300 2.441700
31.274800 2.364200
31.308300 2.239600
31.341800 2.130800
31.375300 2.060800
31.408900 2.012300
31.442400 1.992500
31.475900 1.974200
31.509400 1.954000
31.542900 1.909700
31.576500 1.897300
31.610000 1.887600
31.643500 1.796100
31.677000 1.730400
31.710500 1.666000
31.744000 1.614900
31.777600 1.579500
31.811100 1.558300
31.844600 1.579800
31.878100 1.608000
31.911600 1.616700
31.945200 1.614600
31.978700 1.416400
32.012200 1.280000
32.045700 1.087700
32.079200 1.006800
32.112800 0.991500
32.146300 1.006400
32.179800 0.941100
32.213300 0.934800
32.246800 0.944200
32.280300 0.937800
32.313900 0.947900
32.347400 0.979700
32.380900 1.025000
32.414400 1.001800
32.447900 0.944800
32.481500 0.926700
32.515000 0.959300
32.548500 1.005600
32.582000 1.123500
32.615500 1.080800
32.649100 1.035600
32.682600 0.996100
32.716100 0.993700
32.749600 0.966600
32.783100 0.930200
32.816700 0.898900
32.850200 0.885300
32.883700 0.882100
32.917200 0.888100
32.950700 0.900300
32.984200 0.927400
33.017800 0.966000
33.051300 0.983300
33.084800 1.005600
33.118300 1.067400
33.151800 1.154700
33.185400 1.186200
33.218900 1.241000
33.252400 1.330500
33.285900 1.392200
33.319400 1.396800
33.353000 1.335600
33.386500 1.280300
33.420000 1.224300
33.453500 1.151900
33.487000 1.070800
33.520500 0.968400
33.554100 0.875600
33.587600 0.801500
33.621100 0.747700
33.654600 0.705500
33.688100 0.664500
33.721700 0.614800
33.755200 0.563500
33.788700 0.536700
33.822200 0.509300
33.855700 0.484600
33.889300 0.464100
33.922800 0.446200
33.956300 0.420500
33.989800 0.389100
34.023300 0.368400
34.056900 0.348800
34.090400 0.330500
34.123900 0.313400
34.157400 0.298400
34.190900 0.284200
34.224400 0.269200
34.258000 0.255000
34.291500 0.241400
34.325000 0.228500
34.358500 0.215500
34.392000 0.201700
34.425600 0.186900
34.459100 0.173300
34.492600 0.163300
34.526100 0.153600
34.559600 0.144300
34.593200 0.134400
34.626700 0.125600
34.660200 0.117500
34.693700 0.109000
34.727200 0.094200
34.760700 0.081900
34.794300 0.072000
34.827800 0.063200
34.861300 0.058400
34.894800 0.053900
34.928300 0.049200
34.961900 0.044900
34.995400 0.041100
35.028900 0.037300
35.062400 0.033500
35.095900 0.029700
35.129500 0.025800
35.163000 0.022000
35.196500 0.034200
35.230000 0.020300
35.263500 0.009100
35.297100 0.000600
35.330600 0.000000
35.364100 0.000000
35.397600 0.000000
35.431100 0.000000
35.464600 0.000000
35.498200 0.000000
35.531700 0.000000
35.565200 0.000000
35.598700 0.000000
35.632200 0.000000
35.665800 0.000000
35.699300 0.000000
35.732800 0.000000
35.766300 0.000000
35.799800 0.000000
35.833400 0.000000
35.866900 0.000000
35.900400 0.000000
35.933900 0.000000
35.967400 0.000000
36.001000 0.000000
36.034500 0.000000
36.068000 0.000000
36.101500 0.000000
36.135000 0.000000
36.168500 0.000000
36.202100 0.000000
36.235600 0.000000
36.269100 0.000000
36.302600 0.000000
36.336100 0.000000
36.369700 0.000000
36.403200 0.000000
36.436700 0.000000
36.470200 0.000000
36.503700 0.000000
36.537300 0.000000
36.570800 0.000000
36.604300 0.000000
36.637800 0.000000
36.671300 0.000000
36.704800 0.000000
36.738400 0.000000
36.771900 0.000000
36.805400 0.000000
36.838900 0.000000
36.872400 0.000000
36.906000 0.000000
36.939500 0.000000
36.973000 0.000000
37.006500 0.000000
37.040000 0.000000
37.073600 0.000000
37.107100 0.000000
37.140600 0.000000
37.174100 0.000000
37.207600 0.000000
37.241200 0.000000
37.274700 0.000000
37.308200 0.000000
37.341700 0.000000
37.375200 0.000000
37.408700 0.000000
37.442300 0.000000
37.475800 0.000000
37.509300 0.000000
37.542800 0.000000
37.576300 0.000000
37.609900 0.000000
37.643400 0.000000
37.676900 0.000000
37.710400 0.000000
37.743900 0.000000
37.777500 0.000000
37.811000 0.000000
37.844500 0.000000
37.878000 0.000000
37.911500 0.000000
37.945000 0.000000
37.978600 0.000000
38.012100 0.000000
38.045600 0.000000
38.079100 0.000000
38.112600 0.000000
38.146200 0.000000
38.179700 0.000000
38.213200 0.000000
38.246700 0.000000
38.280200 0.000000
38.313800 0.000000
38.347300 0.000000
e
