set title 'mp-505366 - Density of States'
set xlabel 'Energy (eV)'
set ylabel 'DOS (states/eV)'
set grid
set xrange [-10:10]
set yrange [0:49.012]
set xzeroaxis lt -1
set terminal png size 800,600
set output 'mp-505366_dos_gnuplot.png'
plot '-' using 1:2 with lines title 'DOS'
-16.184200 0.000000
-16.169400 0.000000
-16.154500 0.000000
-16.139600 0.000000
-16.124800 0.000000
-16.109900 0.000000
-16.095000 0.000000
-16.080200 0.000000
-16.065300 0.000000
-16.050500 0.000000
-16.035600 0.000000
-16.020700 0.000000
-16.005900 0.000000
-15.991000 0.000000
-15.976100 0.000000
-15.961300 0.000000
-15.946400 0.000000
-15.931500 0.000000
-15.916700 0.000000
-15.901800 0.000000
-15.886900 0.000000
-15.872100 0.000000
-15.857200 0.000000
-15.842400 0.000000
-15.827500 0.000000
-15.812600 0.000000
-15.797800 0.000000
-15.782900 0.000000
-15.768000 0.000000
-15.753200 0.000000
-15.738300 0.000000
-15.723400 0.000000
-15.708600 0.000000
-15.693700 0.000000
-15.678800 0.000000
-15.664000 0.000000
-15.649100 0.000000
-15.634300 0.000000
-15.619400 0.000000
-15.604500 0.000000
-15.589700 0.000000
-15.574800 0.000000
-15.559900 0.000000
-15.545100 0.000000
-15.530200 0.000000
-15.515300 0.000000
-15.500500 0.000000
-15.485600 0.000000
-15.470700 0.000000
-15.455900 0.000000
-15.441000 0.000000
-15.426200 0.000000
-15.411300 0.000000
-15.396400 0.000000
-15.381600 0.000000
-15.366700 0.000000
-15.351800 0.000000
-15.337000 0.000000
-15.322100 0.000000
-15.307200 0.000000
-15.292400 0.000000
-15.277500 0.000000
-15.262600 0.000000
-15.247800 0.000000
-15.232900 0.000000
-15.218000 0.000000
-15.203200 0.000000
-15.188300 0.000000
-15.173500 0.000000
-15.158600 0.000000
-15.143700 0.000000
-15.128900 0.000000
-15.114000 0.000000
-15.099100 0.000000
-15.084300 0.000000
-15.069400 0.000000
-15.054500 0.000000
-15.039700 0.000000
-15.024800 0.000000
-15.009900 0.000000
-14.995100 0.000000
-14.980200 0.000000
-14.965400 0.000000
-14.950500 0.000000
-14.935600 0.000000
-14.920800 0.000000
-14.905900 0.000000
-14.891000 0.000000
-14.876200 0.000000
-14.861300 0.000000
-14.846400 0.000000
-14.831600 1.035800
-14.816700 2.810500
-14.801800 4.845100
-14.787000 5.413100
-14.772100 6.364300
-14.757300 9.183100
-14.742400 11.058000
-14.727500 13.534400
-14.712700 15.831800
-14.697800 16.881500
-14.682900 20.355300
-14.668100 25.880200
-14.653200 24.783400
-14.638300 19.975300
-14.623500 18.520900
-14.608600 18.375500
-14.593700 17.976200
-14.578900 23.233700
-14.564000 7.849200
-14.549200 9.395800
-14.534300 23.562100
-14.519400 19.796400
-14.504600 21.077000
-14.489700 19.326400
-14.474800 17.385900
-14.460000 16.987300
-14.445100 13.826400
-14.430200 16.566700
-14.415400 23.731100
-14.400500 33.979800
-14.385600 22.862200
-14.370800 13.722400
-14.355900 0.000000
-14.341000 0.000000
-14.326200 0.000000
-14.311300 0.000000
-14.296500 0.000000
-14.281600 0.000000
-14.266700 0.000000
-14.251900 0.000000
-14.237000 0.000000
-14.222100 0.000000
-14.207300 0.000000
-14.192400 0.000000
-14.177500 0.000000
-14.162700 0.000000
-14.147800 0.000000
-14.132900 0.000000
-14.118100 0.000000
-14.103200 0.000000
-14.088400 0.000000
-14.073500 0.000000
-14.058600 0.000000
-14.043800 0.000000
-14.028900 0.000000
-14.014000 0.000000
-13.999200 0.000000
-13.984300 0.000000
-13.969400 0.000000
-13.954600 0.000000
-13.939700 0.000000
-13.924800 0.000000
-13.910000 0.000000
-13.895100 0.000000
-13.880300 0.000000
-13.865400 0.000000
-13.850500 0.000000
-13.835700 0.000000
-13.820800 0.000000
-13.805900 0.000000
-13.791100 0.000000
-13.776200 0.000000
-13.761300 0.000000
-13.746500 0.000000
-13.731600 0.000000
-13.716700 0.000000
-13.701900 0.000000
-13.687000 0.000000
-13.672100 0.000000
-13.657300 0.000000
-13.642400 0.000000
-13.627600 0.000000
-13.612700 0.000000
-13.597800 0.000000
-13.583000 0.000000
-13.568100 0.000000
-13.553200 0.000000
-13.538400 0.000000
-13.523500 0.000000
-13.508600 0.000000
-13.493800 0.000000
-13.478900 0.000000
-13.464000 0.000000
-13.449200 0.000000
-13.434300 0.000000
-13.419500 0.000000
-13.404600 0.000000
-13.389700 0.000000
-13.374900 0.000000
-13.360000 0.000000
-13.345100 0.000000
-13.330300 0.000000
-13.315400 0.000000
-13.300500 0.000000
-13.285700 0.000000
-13.270800 0.000000
-13.255900 0.000000
-13.241100 0.000000
-13.226200 0.000000
-13.211400 0.000000
-13.196500 0.000000
-13.181600 0.000000
-13.166800 0.000000
-13.151900 0.000000
-13.137000 0.000000
-13.122200 0.000000
-13.107300 0.000000
-13.092400 0.000000
-13.077600 0.000000
-13.062700 0.000000
-13.047800 0.000000
-13.033000 0.000000
-13.018100 0.000000
-13.003300 0.000000
-12.988400 0.000000
-12.973500 0.000000
-12.958700 0.000000
-12.943800 0.000000
-12.928900 0.000000
-12.914100 0.000000
-12.899200 0.000000
-12.884300 0.000000
-12.869500 0.000000
-12.854600 0.000000
-12.839700 0.000000
-12.824900 0.000000
-12.810000 0.000000
-12.795100 0.000000
-12.780300 0.000000
-12.765400 0.000000
-12.750600 0.000000
-12.735700 0.000000
-12.720800 0.000000
-12.706000 0.000000
-12.691100 0.000000
-12.676200 0.000000
-12.661400 0.000000
-12.646500 0.000000
-12.631600 0.000000
-12.616800 0.000000
-12.601900 0.000000
-12.587000 0.000000
-12.572200 0.000000
-12.557300 0.000000
-12.542500 0.000000
-12.527600 0.000000
-12.512700 0.000000
-12.497900 0.000000
-12.483000 0.000000
-12.468100 0.000000
-12.453300 0.000000
-12.438400 0.000000
-12.423500 0.000000
-12.408700 0.000000
-12.393800 0.000000
-12.378900 0.000000
-12.364100 0.000000
-12.349200 0.000000
-12.334400 0.000000
-12.319500 0.000000
-12.304600 0.000000
-12.289800 0.000000
-12.274900 0.000000
-12.260000 0.000000
-12.245200 0.000000
-12.230300 0.000000
-12.215400 0.000000
-12.200600 0.000000
-12.185700 0.000000
-12.170800 0.000000
-12.156000 0.000000
-12.141100 0.000000
-12.126200 0.000000
-12.111400 0.000000
-12.096500 0.000000
-12.081700 0.000000
-12.066800 0.000000
-12.051900 0.000000
-12.037100 0.000000
-12.022200 0.000000
-12.007300 0.000000
-11.992500 0.000000
-11.977600 0.000000
-11.962700 0.000000
-11.947900 0.000000
-11.933000 0.000000
-11.918100 0.000000
-11.903300 0.000000
-11.888400 0.000000
-11.873600 0.000000
-11.858700 0.000000
-11.843800 0.000000
-11.829000 0.000000
-11.814100 0.000000
-11.799200 0.000000
-11.784400 0.000000
-11.769500 0.000000
-11.754600 0.000000
-11.739800 0.000000
-11.724900 0.000000
-11.710000 0.000000
-11.695200 0.000000
-11.680300 0.000000
-11.665500 0.000000
-11.650600 0.000000
-11.635700 0.000000
-11.620900 0.000000
-11.606000 0.000000
-11.591100 0.000000
-11.576300 0.000000
-11.561400 0.000000
-11.546500 0.000000
-11.531700 0.000000
-11.516800 0.000000
-11.501900 0.000000
-11.487100 0.000000
-11.472200 0.000000
-11.457400 0.000000
-11.442500 0.000000
-11.427600 0.000000
-11.412800 0.000000
-11.397900 0.000000
-11.383000 0.000000
-11.368200 0.000000
-11.353300 0.000000
-11.338400 0.000000
-11.323600 0.000000
-11.308700 0.000000
-11.293800 0.000000
-11.279000 0.000000
-11.264100 0.000000
-11.249200 0.000000
-11.234400 0.000000
-11.219500 0.000000
-11.204700 0.000000
-11.189800 0.000000
-11.174900 0.000000
-11.160100 0.000000
-11.145200 0.000000
-11.130300 0.000000
-11.115500 0.000000
-11.100600 0.000000
-11.085700 0.000000
-11.070900 0.000000
-11.056000 0.000000
-11.041100 0.000000
-11.026300 0.000000
-11.011400 0.000000
-10.996600 0.000000
-10.981700 0.000000
-10.966800 0.000000
-10.952000 0.000000
-10.937100 0.000000
-10.922200 0.000000
-10.907400 0.000000
-10.892500 0.000000
-10.877600 0.000000
-10.862800 0.000000
-10.847900 0.000000
-10.833000 0.000000
-10.818200 0.000000
-10.803300 0.000000
-10.788500 0.000000
-10.773600 0.000000
-10.758700 0.000000
-10.743900 0.000000
-10.729000 0.000000
-10.714100 0.000000
-10.699300 0.000000
-10.684400 0.000000
-10.669500 0.000000
-10.654700 0.000000
-10.639800 0.000000
-10.624900 0.000000
-10.610100 0.000000
-10.595200 0.000000
-10.580300 0.000000
-10.565500 0.000000
-10.550600 0.000000
-10.535800 0.000000
-10.520900 0.000000
-10.506000 0.000000
-10.491200 0.000000
-10.476300 0.000000
-10.461400 0.000000
-10.446600 0.000000
-10.431700 0.000000
-10.416800 0.000000
-10.402000 0.000000
-10.387100 0.000000
-10.372200 0.000000
-10.357400 0.000000
-10.342500 0.000000
-10.327700 0.000000
-10.312800 0.000000
-10.297900 0.000000
-10.283100 0.000000
-10.268200 0.000000
-10.253300 0.000000
-10.238500 0.000000
-10.223600 0.000000
-10.208700 0.000000
-10.193900 0.000000
-10.179000 0.000000
-10.164100 0.000000
-10.149300 0.000000
-10.134400 0.000000
-10.119600 0.000000
-10.104700 0.000000
-10.089800 0.000000
-10.075000 0.000000
-10.060100 0.000000
-10.045200 0.000000
-10.030400 0.000000
-10.015500 0.000000
-10.000600 0.000000
-9.985800 0.000000
-9.970900 0.000000
-9.956000 0.000000
-9.941200 0.000000
-9.926300 0.000000
-9.911500 0.000000
-9.896600 0.000000
-9.881700 0.000000
-9.866900 0.000000
-9.852000 0.000000
-9.837100 0.000000
-9.822300 0.000000
-9.807400 0.000000
-9.792500 0.000000
-9.777700 0.000000
-9.762800 0.000000
-9.747900 0.000000
-9.733100 0.000000
-9.718200 0.000000
-9.703300 0.000000
-9.688500 0.000000
-9.673600 0.000000
-9.658800 0.000000
-9.643900 0.000000
-9.629000 0.000000
-9.614200 0.000000
-9.599300 0.000000
-9.584400 0.000000
-9.569600 0.000000
-9.554700 0.000000
-9.539800 0.000000
-9.525000 0.000000
-9.510100 0.000000
-9.495200 0.000000
-9.480400 0.000000
-9.465500 0.000000
-9.450700 0.000000
-9.435800 0.000000
-9.420900 0.000000
-9.406100 0.000000
-9.391200 0.000000
-9.376300 0.000000
-9.361500 0.000000
-9.346600 0.000000
-9.331700 0.000000
-9.316900 0.000000
-9.302000 0.000000
-9.287100 0.000000
-9.272300 0.000000
-9.257400 0.000000
-9.242600 0.000000
-9.227700 0.000000
-9.212800 0.000000
-9.198000 0.000000
-9.183100 0.000000
-9.168200 0.000000
-9.153400 0.000000
-9.138500 0.000000
-9.123600 0.000000
-9.108800 0.000000
-9.093900 0.000000
-9.079000 0.000000
-9.064200 0.000000
-9.049300 0.000000
-9.034400 0.000000
-9.019600 0.000000
-9.004700 0.000000
-8.989900 0.000000
-8.975000 0.000000
-8.960100 0.000000
-8.945300 0.000000
-8.930400 0.000000
-8.915500 0.000000
-8.900700 0.000000
-8.885800 0.000000
-8.870900 0.000000
-8.856100 0.000000
-8.841200 0.000000
-8.826300 0.000000
-8.811500 0.000000
-8.796600 0.000000
-8.781800 0.000000
-8.766900 0.000000
-8.752000 0.000000
-8.737200 0.000000
-8.722300 0.000000
-8.707400 0.000000
-8.692600 0.000000
-8.677700 0.000000
-8.662800 0.000000
-8.648000 0.000000
-8.633100 0.000000
-8.618200 0.000000
-8.603400 0.000000
-8.588500 0.000000
-8.573700 0.000000
-8.558800 0.000000
-8.543900 0.000000
-8.529100 0.000000
-8.514200 0.000000
-8.499300 0.000000
-8.484500 0.000000
-8.469600 0.000000
-8.454700 0.000000
-8.439900 0.000000
-8.425000 0.000000
-8.410100 0.000000
-8.395300 0.000000
-8.380400 0.000000
-8.365600 0.000000
-8.350700 0.000000
-8.335800 0.000000
-8.321000 0.000000
-8.306100 0.000000
-8.291200 0.000000
-8.276400 0.000000
-8.261500 0.000000
-8.246600 0.000000
-8.231800 0.000000
-8.216900 0.000000
-8.202000 0.000000
-8.187200 0.000000
-8.172300 0.000000
-8.157400 0.000000
-8.142600 0.000000
-8.127700 0.000000
-8.112900 0.000000
-8.098000 0.000000
-8.083100 0.000000
-8.068300 0.000000
-8.053400 0.000000
-8.038500 0.000000
-8.023700 0.000000
-8.008800 0.000000
-7.993900 0.000000
-7.979100 0.000000
-7.964200 0.000000
-7.949300 0.000000
-7.934500 0.000000
-7.919600 0.000000
-7.904800 0.000000
-7.889900 0.000000
-7.875000 0.000000
-7.860200 0.000000
-7.845300 0.000000
-7.830400 0.000000
-7.815600 0.000000
-7.800700 0.000000
-7.785800 0.000000
-7.771000 0.000000
-7.756100 0.000000
-7.741200 0.000000
-7.726400 0.000000
-7.711500 0.000000
-7.696700 0.000000
-7.681800 0.000000
-7.666900 0.000000
-7.652100 0.000000
-7.637200 0.000000
-7.622300 0.000000
-7.607500 0.000000
-7.592600 0.000000
-7.577700 0.000000
-7.562900 0.000000
-7.548000 0.000000
-7.533100 0.000000
-7.518300 0.000000
-7.503400 0.000000
-7.488500 0.000000
-7.473700 0.000000
-7.458800 0.000000
-7.444000 0.000000
-7.429100 0.000000
-7.414200 0.000000
-7.399400 0.000000
-7.384500 0.000000
-7.369600 0.000000
-7.354800 0.000000
-7.339900 0.000000
-7.325000 0.000000
-7.310200 0.000000
-7.295300 0.000000
-7.280400 0.000000
-7.265600 0.000000
-7.250700 0.000000
-7.235900 0.000000
-7.221000 0.000000
-7.206100 0.000000
-7.191300 0.000000
-7.176400 0.000000
-7.161500 0.000000
-7.146700 0.000000
-7.131800 0.000000
-7.116900 0.000000
-7.102100 0.000000
-7.087200 0.000000
-7.072300 0.000000
-7.057500 0.000000
-7.042600 0.000000
-7.027800 0.000000
-7.012900 0.000000
-6.998000 0.000000
-6.983200 0.000000
-6.968300 0.000000
-6.953400 0.000000
-6.938600 0.000000
-6.923700 0.000000
-6.908800 0.000000
-6.894000 0.000000
-6.879100 0.000000
-6.864200 0.000000
-6.849400 0.000000
-6.834500 0.000000
-6.819700 0.000000
-6.804800 0.000000
-6.789900 0.000000
-6.775100 0.000000
-6.760200 0.000000
-6.745300 0.000000
-6.730500 0.000000
-6.715600 0.000000
-6.700700 0.000000
-6.685900 0.000000
-6.671000 0.000000
-6.656100 0.000000
-6.641300 0.000000
-6.626400 0.000000
-6.611500 0.000000
-6.596700 0.000000
-6.581800 0.000000
-6.567000 0.000000
-6.552100 0.000000
-6.537200 0.000000
-6.522400 0.000000
-6.507500 0.000000
-6.492600 0.000000
-6.477800 0.000000
-6.462900 0.000000
-6.448000 0.000000
-6.433200 0.000000
-6.418300 0.000000
-6.403400 0.000000
-6.388600 0.000000
-6.373700 0.000000
-6.358900 0.000000
-6.344000 0.000000
-6.329100 0.000000
-6.314300 0.000000
-6.299400 0.000000
-6.284500 0.000000
-6.269700 0.000000
-6.254800 0.000000
-6.239900 0.000000
-6.225100 0.000000
-6.210200 0.000000
-6.195300 0.000000
-6.180500 0.000000
-6.165600 0.000000
-6.150800 0.000000
-6.135900 0.000000
-6.121000 0.000000
-6.106200 0.000000
-6.091300 0.000000
-6.076400 0.000000
-6.061600 0.000000
-6.046700 0.000000
-6.031800 0.000000
-6.017000 0.000000
-6.002100 0.000000
-5.987200 0.000000
-5.972400 0.000000
-5.957500 0.000000
-5.942700 0.000000
-5.927800 0.000000
-5.912900 0.000000
-5.898100 0.000000
-5.883200 0.000000
-5.868300 0.000000
-5.853500 0.000000
-5.838600 0.000000
-5.823700 0.000000
-5.808900 0.000000
-5.794000 0.000000
-5.779100 0.000000
-5.764300 0.000000
-5.749400 0.000000
-5.734500 0.000000
-5.719700 0.000000
-5.704800 0.000000
-5.690000 0.000000
-5.675100 0.000000
-5.660200 0.000000
-5.645400 0.000000
-5.630500 0.000000
-5.615600 0.485500
-5.600800 0.717600
-5.585900 0.987100
-5.571000 1.160800
-5.556200 1.546000
-5.541300 1.730000
-5.526400 1.947800
-5.511600 1.912700
-5.496700 2.189300
-5.481900 2.326100
-5.467000 2.671200
-5.452100 3.039000
-5.437300 3.525900
-5.422400 3.919700
-5.407500 4.409000
-5.392700 4.991100
-5.377800 5.360300
-5.362900 5.856500
-5.348100 6.084900
-5.333200 6.852300
-5.318300 6.793500
-5.303500 7.390600
-5.288600 9.411300
-5.273800 8.885400
-5.258900 10.013700
-5.244000 8.960600
-5.229200 8.748100
-5.214300 8.866900
-5.199400 7.721900
-5.184600 7.766400
-5.169700 7.697700
-5.154800 7.387400
-5.140000 7.304200
-5.125100 7.324400
-5.110200 7.539000
-5.095400 7.563400
-5.080500 7.544800
-5.065600 11.365400
-5.050800 13.031500
-5.035900 14.042600
-5.021100 15.787700
-5.006200 15.634100
-4.991300 15.035200
-4.976500 14.507900
-4.961600 10.918300
-4.946700 12.767700
-4.931900 21.133200
-4.917000 26.961800
-4.902100 17.089800
-4.887300 14.242900
-4.872400 11.480000
-4.857500 12.608100
-4.842700 11.811200
-4.827800 11.804800
-4.813000 12.625700
-4.798100 12.911200
-4.783200 13.235500
-4.768400 18.143800
-4.753500 44.556500
-4.738600 3.777600
-4.723800 0.000000
-4.708900 0.000000
-4.694000 0.000000
-4.679200 0.000000
-4.664300 0.000000
-4.649400 0.000000
-4.634600 0.000000
-4.619700 0.000000
-4.604900 0.000000
-4.590000 0.000000
-4.575100 0.000000
-4.560300 0.000000
-4.545400 0.000000
-4.530500 0.000000
-4.515700 0.000000
-4.500800 0.000000
-4.485900 0.000000
-4.471100 0.000000
-4.456200 0.000000
-4.441300 0.000000
-4.426500 0.000000
-4.411600 0.000000
-4.396800 0.000000
-4.381900 0.000000
-4.367000 0.000000
-4.352200 0.000000
-4.337300 0.000000
-4.322400 0.000000
-4.307600 0.000000
-4.292700 0.000000
-4.277800 0.000000
-4.263000 0.000000
-4.248100 0.000000
-4.233200 0.000000
-4.218400 0.000000
-4.203500 0.000000
-4.188600 0.000000
-4.173800 0.000000
-4.158900 0.000000
-4.144100 0.000000
-4.129200 0.000000
-4.114300 0.000000
-4.099500 0.000000
-4.084600 0.000000
-4.069700 0.000000
-4.054900 0.000000
-4.040000 0.000000
-4.025100 0.000000
-4.010300 0.000000
-3.995400 0.000000
-3.980500 0.000000
-3.965700 0.000000
-3.950800 1.646200
-3.936000 3.935900
-3.921100 7.236300
-3.906200 7.832200
-3.891400 8.857700
-3.876500 8.739100
-3.861600 9.272000
-3.846800 11.396200
-3.831900 12.701500
-3.817000 13.744500
-3.802200 14.511700
-3.787300 13.800900
-3.772400 11.558300
-3.757600 12.414500
-3.742700 13.713200
-3.727900 16.091500
-3.713000 17.494300
-3.698100 15.394400
-3.683300 20.228100
-3.668400 20.854400
-3.653500 15.424600
-3.638700 18.347300
-3.623800 6.331700
-3.608900 7.244500
-3.594100 25.050400
-3.579200 23.272600
-3.564300 26.623900
-3.549500 18.606200
-3.534600 22.078900
-3.519700 21.233200
-3.504900 23.442600
-3.490000 26.604300
-3.475200 24.891100
-3.460300 12.227200
-3.445400 25.430300
-3.430600 23.798200
-3.415700 20.082100
-3.400800 20.543200
-3.386000 19.089100
-3.371100 20.571100
-3.356200 19.707700
-3.341400 19.492400
-3.326500 18.332800
-3.311600 20.287100
-3.296800 20.551900
-3.281900 20.651800
-3.267100 22.539600
-3.252200 21.868300
-3.237300 23.393600
-3.222500 20.102300
-3.207600 23.792000
-3.192700 14.173800
-3.177900 14.507700
-3.163000 13.394100
-3.148100 15.380900
-3.133300 14.457400
-3.118400 13.692200
-3.103500 10.556300
-3.088700 10.722700
-3.073800 11.764900
-3.059000 12.015000
-3.044100 13.165000
-3.029200 16.929300
-3.014400 19.333700
-2.999500 16.566100
-2.984600 15.895600
-2.969800 10.454500
-2.954900 9.789100
-2.940000 10.217800
-2.925200 10.906400
-2.910300 10.736800
-2.895400 10.981700
-2.880600 8.020200
-2.865700 7.707600
-2.850900 7.301600
-2.836000 7.030700
-2.821100 7.179600
-2.806300 8.288000
-2.791400 7.196200
-2.776500 6.709600
-2.761700 6.858600
-2.746800 6.982400
-2.731900 7.731100
-2.717100 9.965700
-2.702200 12.127400
-2.687300 11.409900
-2.672500 7.078900
-2.657600 7.095200
-2.642700 7.357200
-2.627900 7.172500
-2.613000 9.464100
-2.598200 11.055500
-2.583300 9.797000
-2.568400 8.643800
-2.553600 7.405700
-2.538700 6.801800
-2.523800 6.877900
-2.509000 9.419900
-2.494100 10.016600
-2.479200 11.678400
-2.464400 10.112700
-2.449500 9.317700
-2.434600 11.409200
-2.419800 10.468300
-2.404900 10.577800
-2.390100 10.462300
-2.375200 11.353800
-2.360300 13.095700
-2.345500 11.835200
-2.330600 11.488000
-2.315700 11.750100
-2.300900 10.302900
-2.286000 9.736200
-2.271100 9.828200
-2.256300 10.772300
-2.241400 13.086800
-2.226500 14.471700
-2.211700 9.706500
-2.196800 12.634400
-2.182000 17.619500
-2.167100 15.996300
-2.152200 22.751200
-2.137400 30.420100
-2.122500 24.212200
-2.107600 23.916500
-2.092800 31.774300
-2.077900 25.807700
-2.063000 21.832600
-2.048200 25.168700
-2.033300 30.022400
-2.018400 24.973300
-2.003600 9.763600
-1.988700 21.953200
-1.973800 23.413500
-1.959000 26.992200
-1.944100 21.940700
-1.929300 23.182900
-1.914400 23.216700
-1.899500 23.147100
-1.884700 21.684600
-1.869800 23.218500
-1.854900 33.270300
-1.840100 23.479100
-1.825200 25.063600
-1.810300 30.084100
-1.795500 22.170900
-1.780600 21.513300
-1.765700 25.388600
-1.750900 22.288000
-1.736000 20.679600
-1.721200 22.043500
-1.706300 22.017200
-1.691400 22.302900
-1.676600 25.950600
-1.661700 24.834900
-1.646800 23.746000
-1.632000 30.760000
-1.617100 30.467100
-1.602200 26.644300
-1.587400 25.606900
-1.572500 22.499900
-1.557600 20.217800
-1.542800 16.940200
-1.527900 17.222200
-1.513100 21.396500
-1.498200 21.157800
-1.483300 20.849400
-1.468500 16.211700
-1.453600 16.243600
-1.438700 14.736700
-1.423900 14.926900
-1.409000 16.784200
-1.394100 17.059300
-1.379300 13.430300
-1.364400 7.365900
-1.349500 9.243200
-1.334700 11.841700
-1.319800 11.875400
-1.305000 10.290000
-1.290100 12.759100
-1.275200 10.385100
-1.260400 22.275500
-1.245500 12.882700
-1.230600 10.571700
-1.215800 11.057000
-1.200900 11.382800
-1.186000 10.486500
-1.171200 6.643800
-1.156300 5.637800
-1.141400 6.199600
-1.126600 6.891400
-1.111700 6.247500
-1.096800 7.724800
-1.082000 13.464100
-1.067100 13.029400
-1.052300 9.435200
-1.037400 8.012700
-1.022500 7.009600
-1.007700 7.060000
-0.992800 8.170500
-0.977900 9.882700
-0.963100 9.657300
-0.948200 9.493600
-0.933300 9.635300
-0.918500 9.599900
-0.903600 11.520500
-0.888700 10.666100
-0.873900 10.125000
-0.859000 9.914300
-0.844200 11.753400
-0.829300 10.802200
-0.814400 10.526800
-0.799600 10.847400
-0.784700 11.656100
-0.769800 11.769900
-0.755000 11.861300
-0.740100 12.104800
-0.725200 13.035100
-0.710400 13.883100
-0.695500 13.119400
-0.680600 12.915700
-0.665800 13.501200
-0.650900 12.615300
-0.636100 11.832700
-0.621200 11.847200
-0.606300 12.560900
-0.591500 10.407000
-0.576600 9.823200
-0.561700 9.747400
-0.546900 9.632400
-0.532000 8.548800
-0.517100 9.608100
-0.502300 7.825800
-0.487400 5.757000
-0.472500 4.648200
-0.457700 4.655700
-0.442800 4.633300
-0.427900 4.505100
-0.413100 4.425400
-0.398200 4.373800
-0.383400 4.318200
-0.368500 4.293100
-0.353600 4.282000
-0.338800 4.267600
-0.323900 4.254700
-0.309000 4.257200
-0.294200 4.296400
-0.279300 4.370100
-0.264400 4.445500
-0.249600 4.520900
-0.234700 4.690500
-0.219800 5.025200
-0.205000 5.344400
-0.190100 5.698100
-0.175300 6.195800
-0.160400 6.718100
-0.145500 6.269400
-0.130700 5.388800
-0.115800 5.347400
-0.100900 4.555500
-0.086100 4.328800
-0.071200 4.237100
-0.056300 4.144900
-0.041500 6.132200
-0.026600 3.841900
-0.011700 3.945000
0.003100 3.993200
0.018000 4.011100
0.032800 4.029000
0.047700 4.046800
0.062600 4.069900
0.077400 4.303500
0.092300 5.077800
0.107200 5.191300
0.122000 6.211000
0.136900 5.125700
0.151800 4.429300
0.166600 4.559100
0.181500 3.794600
0.196400 3.619900
0.211200 3.445000
0.226100 3.269800
0.240900 3.099000
0.255800 3.378900
0.270700 3.280800
0.285500 2.851600
0.300400 2.797400
0.315300 3.574400
0.330100 12.865300
0.345000 2.570300
0.359900 2.194500
0.374700 1.895900
0.389600 1.597300
0.404500 0.908600
0.419300 0.828300
0.434200 0.747900
0.449100 1.150000
0.463900 0.000000
0.478800 0.000000
0.493600 0.000000
0.508500 0.000000
0.523400 0.000000
0.538200 0.000000
0.553100 0.000000
0.568000 0.000000
0.582800 0.000000
0.597700 0.000000
0.612600 0.000000
0.627400 0.000000
0.642300 0.000000
0.657200 0.000000
0.672000 0.000000
0.686900 0.000000
0.701700 0.000000
0.716600 0.000000
0.731500 0.000000
0.746300 0.000000
0.761200 0.000000
0.776100 0.000000
0.790900 0.000000
0.805800 0.000000
0.820700 0.000000
0.835500 0.000000
0.850400 0.000000
0.865300 0.000000
0.880100 0.000000
0.895000 0.000000
0.909800 0.000000
0.924700 0.000000
0.939600 0.000000
0.954400 0.000000
0.969300 0.000000
0.984200 0.000000
0.999000 0.000000
1.013900 0.000000
1.028800 0.000000
1.043600 0.000000
1.058500 0.000000
1.073400 0.000000
1.088200 0.000000
1.103100 0.000000
1.117900 0.000000
1.132800 0.000000
1.147700 0.000000
1.162500 0.000000
1.177400 0.000000
1.192300 0.000000
1.207100 0.000000
1.222000 0.000000
1.236900 0.000000
1.251700 0.000000
1.266600 0.000000
1.281500 0.000000
1.296300 0.000000
1.311200 0.000000
1.326100 0.000000
1.340900 0.000000
1.355800 0.000000
1.370600 0.000000
1.385500 0.000000
1.400400 0.000000
1.415200 0.000000
1.430100 0.000000
1.445000 0.000000
1.459800 0.000000
1.474700 0.000000
1.489600 0.000000
1.504400 0.000000
1.519300 0.000000
1.534200 0.000000
1.549000 0.000000
1.563900 0.000000
1.578700 0.000000
1.593600 0.000000
1.608500 0.000000
1.623300 0.000000
1.638200 0.000000
1.653100 0.000000
1.667900 0.000000
1.682800 0.000000
1.697700 0.000000
1.712500 0.000000
1.727400 0.000000
1.742300 0.000000
1.757100 0.000000
1.772000 0.000000
1.786800 0.000000
1.801700 0.000000
1.816600 0.000000
1.831400 0.000000
1.846300 0.000000
1.861200 0.000000
1.876000 0.000000
1.890900 0.000000
1.905800 0.000000
1.920600 0.000000
1.935500 0.000000
1.950400 0.000000
1.965200 0.000000
1.980100 0.000000
1.995000 0.000000
2.009800 0.000000
2.024700 0.000000
2.039500 0.000000
2.054400 0.000000
2.069300 0.000000
2.084100 0.000000
2.099000 0.000000
2.113900 0.000000
2.128700 0.000000
2.143600 0.000000
2.158500 0.000000
2.173300 0.000000
2.188200 0.000000
2.203100 0.000000
2.217900 0.000000
2.232800 0.000000
2.247600 0.000000
2.262500 0.157500
2.277400 0.193300
2.292200 0.231700
2.307100 0.272600
2.322000 0.316100
2.336800 0.362100
2.351700 0.365800
2.366600 0.397200
2.381400 0.429600
2.396300 0.463000
2.411200 0.497400
2.426000 0.532800
2.440900 0.573300
2.455700 0.617700
2.470600 0.768400
2.485500 0.818800
2.500300 0.867100
2.515200 0.909400
2.530100 0.961900
2.544900 1.015900
2.559800 1.034200
2.574700 1.079800
2.589500 1.120900
2.604400 1.547700
2.619300 1.768500
2.634100 2.020800
2.649000 2.573800
2.663800 3.012400
2.678700 3.414600
2.693600 4.103400
2.708400 5.508200
2.723300 5.536500
2.738200 6.367600
2.753000 7.009400
2.767900 6.414500
2.782800 6.594500
2.797600 7.550700
2.812500 9.179000
2.827400 11.927400
2.842200 17.527900
2.857100 24.454300
2.872000 10.123400
2.886800 10.218200
2.901700 11.567700
2.916500 8.344200
2.931400 9.041000
2.946300 8.005700
2.961100 8.274700
2.976000 8.672500
2.990900 9.865900
3.005700 10.555300
3.020600 10.013700
3.035500 9.368000
3.050300 10.502300
3.065200 9.881300
3.080100 7.036200
3.094900 6.704100
3.109800 6.734100
3.124600 6.740000
3.139500 8.268700
3.154400 7.044300
3.169200 6.009700
3.184100 5.908500
3.199000 5.789800
3.213800 5.665900
3.228700 5.578500
3.243600 6.105800
3.258400 5.836900
3.273300 5.597500
3.288200 5.933600
3.303000 5.733200
3.317900 5.333600
3.332700 4.252700
3.347600 3.660500
3.362500 3.559300
3.377300 3.554600
3.392200 3.518100
3.407100 3.459600
3.421900 3.756500
3.436800 3.392700
3.451700 3.853200
3.466500 4.253200
3.481400 4.143700
3.496300 4.406000
3.511100 4.137700
3.526000 3.220500
3.540900 3.113400
3.555700 2.991800
3.570600 3.093600
3.585400 2.660700
3.600300 2.947000
3.615200 2.997600
3.630000 3.071800
3.644900 3.145300
3.659800 3.222200
3.674600 3.302600
3.689500 3.166500
3.704400 3.167400
3.719200 3.340600
3.734100 3.261500
3.749000 3.521500
3.763800 3.780200
3.778700 3.663700
3.793500 3.794100
3.808400 3.816300
3.823300 3.827500
3.838100 4.900100
3.853000 4.538500
3.867900 2.941100
3.882700 2.842200
3.897600 2.706900
3.912500 2.613200
3.927300 2.606700
3.942200 3.642900
3.957100 3.918400
3.971900 3.566600
3.986800 3.309400
4.001600 2.730500
4.016500 2.632200
4.031400 2.983200
4.046200 2.612000
4.061100 2.383600
4.076000 2.246700
4.090800 2.200200
4.105700 1.952100
4.120600 1.717600
4.135400 1.313000
4.150300 1.294700
4.165200 1.334800
4.180000 1.375400
4.194900 1.570500
4.209700 1.879400
4.224600 2.250200
4.239500 2.670200
4.254300 2.824600
4.269200 2.998900
4.284100 3.080000
4.298900 3.216300
4.313800 3.324400
4.328700 3.425100
4.343500 3.773100
4.358400 4.271800
4.373300 3.284400
4.388100 3.149400
4.403000 3.925600
4.417900 2.612000
4.432700 2.559000
4.447600 2.538400
4.462400 2.517700
4.477300 2.497100
4.492200 2.476700
4.507000 2.456600
4.521900 2.645100
4.536800 2.796700
4.551600 2.973800
4.566500 3.176100
4.581400 3.653300
4.596200 3.735300
4.611100 4.089800
4.626000 4.058000
4.640800 3.893800
4.655700 4.055100
4.670500 4.180800
4.685400 4.138300
4.700300 4.010600
4.715100 3.525300
4.730000 3.032100
4.744900 2.914700
4.759700 2.938600
4.774600 2.809800
4.789500 2.493400
4.804300 2.386200
4.819200 2.315000
4.834100 2.299800
4.848900 2.283900
4.863800 2.267700
4.878600 2.251400
4.893500 2.215200
4.908400 2.174300
4.923200 2.148500
4.938100 2.122700
4.953000 2.096800
4.967800 2.071000
4.982700 2.045200
4.997600 2.019200
5.012400 1.997400
5.027300 1.981000
5.042200 1.962500
5.057000 1.944000
5.071900 1.928800
5.086800 1.919800
5.101600 1.910800
5.116500 1.902100
5.131300 1.893000
5.146200 1.884000
5.161100 1.875000
5.175900 1.866000
5.190800 1.857600
5.205700 1.847300
5.220500 1.836800
5.235400 1.819300
5.250300 1.809300
5.265100 1.801700
5.280000 1.792600
5.294900 1.785600
5.309700 1.778700
5.324600 1.771700
5.339400 1.764700
5.354300 1.757800
5.369200 1.750800
5.384000 1.740000
5.398900 1.725400
5.413800 1.713200
5.428600 1.710500
5.443500 1.712200
5.458400 1.715900
5.473200 1.724500
5.488100 1.735800
5.503000 1.754300
5.517800 1.760000
5.532700 1.776200
5.547500 1.795600
5.562400 1.818500
5.577300 1.852700
5.592100 1.897000
5.607000 1.942600
5.621900 1.990900
5.636700 2.041800
5.651600 2.010400
5.666500 2.031900
5.681300 2.052500
5.696200 2.075000
5.711100 2.094700
5.725900 2.113400
5.740800 2.131000
5.755600 2.190500
5.770500 2.248100
5.785400 2.097300
5.800200 2.646900
5.815100 2.911900
5.830000 3.018300
5.844800 2.559100
5.859700 2.475300
5.874600 2.389800
5.889400 2.302600
5.904300 2.048400
5.919200 2.045900
5.934000 2.040800
5.948900 2.036200
5.963800 2.015600
5.978600 2.000000
5.993500 1.996200
6.008300 1.992300
6.023200 1.995000
6.038100 2.017200
6.052900 2.034300
6.067800 2.928600
6.082700 2.173800
6.097500 2.177700
6.112400 2.182100
6.127300 2.186900
6.142100 2.201400
6.157000 2.214200
6.171900 2.227100
6.186700 2.240000
6.201600 2.254100
6.216400 2.284500
6.231300 2.291000
6.246200 2.287100
6.261000 2.288300
6.275900 2.288500
6.290800 2.282100
6.305600 2.286700
6.320500 2.707700
6.335400 2.197800
6.350200 2.408300
6.365100 2.347400
6.380000 1.948600
6.394800 1.938800
6.409700 1.930800
6.424500 1.923000
6.439400 1.872900
6.454300 1.862300
6.469100 1.850700
6.484000 2.470500
6.498900 2.316300
6.513700 2.279200
6.528600 2.137600
6.543500 2.001500
6.558300 1.512600
6.573200 1.516200
6.588100 1.515700
6.602900 1.524600
6.617800 1.522700
6.632700 1.598900
6.647500 1.620600
6.662400 1.637000
6.677200 1.648300
6.692100 1.654700
6.707000 1.666300
6.721800 1.696300
6.736700 1.708700
6.751600 1.720000
6.766400 1.730000
6.781300 1.738900
6.796200 1.746500
6.811000 1.753300
6.825900 1.728600
6.840800 1.733000
6.855600 1.737700
6.870500 1.741700
6.885300 1.756500
6.900200 1.778900
6.915100 1.799100
6.929900 1.862600
6.944800 2.551300
6.959700 2.006500
6.974500 2.010600
6.989400 2.141200
7.004300 2.204400
7.019100 2.272300
7.034000 2.344900
7.048900 2.477000
7.063700 2.522800
7.078600 2.578500
7.093400 2.749600
7.108300 2.775800
7.123200 2.822100
7.138000 2.535700
7.152900 2.545000
7.167800 2.567700
7.182600 2.591500
7.197500 2.616200
7.212400 2.643500
7.227200 2.673200
7.242100 2.669700
7.257000 2.708500
7.271800 2.747100
7.286700 2.805200
7.301500 2.880700
7.316400 2.962800
7.331300 3.052300
7.346100 3.172000
7.361000 3.338100
7.375900 3.454300
7.390700 3.507200
7.405600 3.790500
7.420500 4.655500
7.435300 3.871200
7.450200 3.794500
7.465100 3.823300
7.479900 3.852700
7.494800 3.772800
7.509700 3.622500
7.524500 3.831800
7.539400 3.794400
7.554200 3.749800
7.569100 3.775800
7.584000 3.919600
7.598800 3.870100
7.613700 4.244100
7.628600 5.966100
7.643400 5.586300
7.658300 5.544700
7.673200 6.328100
7.688000 6.824800
7.702900 6.245300
7.717800 5.687400
7.732600 5.842100
7.747500 5.930800
7.762300 6.115900
7.777200 6.297900
7.792100 6.451700
7.806900 6.720600
7.821800 7.311600
7.836700 7.218200
7.851500 7.084600
7.866400 6.833900
7.881300 6.818100
7.896100 7.571100
7.911000 7.465900
7.925900 7.902400
7.940700 8.624000
7.955600 7.964500
7.970400 7.680400
7.985300 6.742800
8.000200 6.693300
8.015000 6.585100
8.029900 6.630300
8.044800 6.539900
8.059600 6.000300
8.074500 5.842500
8.089400 5.633500
8.104200 5.241100
8.119100 4.557200
8.134000 4.817700
8.148800 5.110500
8.163700 5.063000
8.178600 4.577000
8.193400 4.509700
8.208300 4.554500
8.223100 4.694200
8.238000 4.911200
8.252900 5.643300
8.267700 6.167900
8.282600 6.696000
8.297500 6.407800
8.312300 5.609700
8.327200 5.120600
8.342100 5.856100
8.356900 5.923100
8.371800 5.760600
8.386700 7.301000
8.401500 7.385500
8.416400 9.042800
8.431200 9.135900
8.446100 9.899900
8.461000 9.102800
8.475800 9.351000
8.490700 9.286300
8.505600 8.811000
8.520400 8.226500
8.535300 7.428400
8.550200 7.570900
8.565000 7.085700
8.579900 6.726100
8.594800 6.901100
8.609600 6.646100
8.624500 7.218500
8.639300 6.437400
8.654200 4.707600
8.669100 3.899900
8.683900 1.484300
8.698800 1.439100
8.713700 2.263600
8.728500 2.623600
8.743400 3.574900
8.758300 3.941900
8.773100 4.308900
8.788000 4.626500
8.802900 4.921400
8.817700 4.699400
8.832600 4.407500
8.847400 4.539900
8.862300 5.216200
8.877200 5.628500
8.892000 7.838900
8.906900 6.186100
8.921800 6.182600
8.936600 5.907700
8.951500 5.672700
8.966400 5.789700
8.981200 5.868500
8.996100 6.520400
9.011000 6.770300
9.025800 6.729400
9.040700 6.506300
9.055600 6.606400
9.070400 8.193300
9.085300 8.312400
9.100100 8.588600
9.115000 8.481300
9.129900 9.288100
9.144700 10.168100
9.159600 10.540500
9.174500 10.527800
9.189300 10.649700
9.204200 7.767400
9.219100 7.387400
9.233900 5.805200
9.248800 5.590500
9.263700 5.488800
9.278500 5.897400
9.293400 6.785300
9.308200 7.226100
9.323100 8.272000
9.338000 10.558000
9.352800 11.546400
9.367700 11.183800
9.382600 10.970900
9.397400 11.071900
9.412300 10.423500
9.427200 10.044600
9.442000 10.658200
9.456900 10.620600
9.471800 11.075800
9.486600 11.036600
9.501500 14.625400
9.516300 10.298100
9.531200 10.052300
9.546100 8.807800
9.560900 8.423000
9.575800 7.185600
9.590700 6.493100
9.605500 5.144700
9.620400 4.573500
9.635300 4.618900
9.650100 4.183600
9.665000 4.113000
9.679900 4.319300
9.694700 4.808000
9.709600 5.717700
9.724400 6.067500
9.739300 6.312700
9.754200 6.533200
9.769000 6.683200
9.783900 6.910000
9.798800 7.082200
9.813600 7.065000
9.828500 7.139900
9.843400 7.746900
9.858200 7.443200
9.873100 8.173900
9.888000 7.215000
9.902800 7.042700
9.917700 6.929400
9.932600 6.909300
9.947400 6.949100
9.962300 7.318100
9.977100 8.474700
9.992000 7.125300
10.006900 6.599300
10.021700 5.558900
10.036600 5.347400
10.051500 5.193900
10.066300 5.075500
10.081200 4.974400
10.096100 4.850800
10.110900 4.859500
10.125800 4.893000
10.140700 5.061300
10.155500 4.903300
10.170400 4.169500
10.185200 4.188000
10.200100 4.077800
10.215000 4.238000
10.229800 4.288900
10.244700 4.520500
10.259600 4.872400
10.274400 5.245600
10.289300 5.801600
10.304200 6.168000
10.319000 6.398500
10.333900 6.051700
10.348800 5.959700
10.363600 5.934500
10.378500 6.268100
10.393300 5.757400
10.408200 5.546200
10.423100 5.235800
10.437900 5.062000
10.452800 4.653700
10.467700 3.959400
10.482500 3.778700
10.497400 3.813100
10.512300 3.828800
10.527100 3.888400
10.542000 4.808300
10.556900 5.612200
10.571700 6.314500
10.586600 4.972600
10.601500 5.413500
10.616300 5.722400
10.631200 6.425800
10.646000 6.528600
10.660900 6.876600
10.675800 7.231700
10.690600 6.744300
10.705500 6.771100
10.720400 7.546000
10.735200 7.839900
10.750100 7.668600
10.765000 7.517000
10.779800 7.200100
10.794700 7.597000
10.809600 8.367900
10.824400 8.042300
10.839300 6.595000
10.854100 6.313300
10.869000 5.839700
10.883900 5.544300
10.898700 5.420800
10.913600 5.551000
10.928500 5.844100
10.943300 6.150700
10.958200 5.960500
10.973100 5.746100
10.987900 4.952000
11.002800 4.002900
11.017700 3.450400
11.032500 2.884100
11.047400 2.585300
11.062200 2.247800
11.077100 2.137400
11.092000 2.040700
11.106800 2.045700
11.121700 1.904800
11.136600 1.753300
11.151400 1.651600
11.166300 1.612000
11.181200 2.240500
11.196000 1.422900
11.210900 1.260600
11.225800 1.111700
11.240600 0.807900
11.255500 0.782100
11.270300 0.775100
11.285200 0.770300
11.300100 0.684100
11.314900 0.652600
11.329800 0.624900
11.344700 0.600800
11.359500 0.580300
11.374400 0.563600
11.389300 0.538000
11.404100 0.516400
11.419000 0.509700
11.433900 0.503100
11.448700 0.496500
11.463600 0.489800
11.478500 0.483200
11.493300 0.476600
11.508200 0.470000
11.523000 0.463300
11.537900 0.456700
11.552800 0.450100
11.567600 0.443500
11.582500 0.436900
11.597400 0.430300
11.612200 0.423700
11.627100 0.417100
11.642000 0.410500
11.656800 0.403900
11.671700 0.397300
11.686600 0.390700
11.701400 0.384100
11.716300 0.377500
11.731100 2.200100
11.746000 0.320000
11.760900 0.313500
11.775700 0.307000
11.790600 0.300500
11.805500 0.294000
11.820300 0.287500
11.835200 0.281000
11.850100 0.274500
11.864900 0.268000
11.879800 0.261500
11.894700 0.255000
11.909500 0.248500
11.924400 0.242100
11.939200 0.160900
11.954100 0.156500
11.969000 0.152200
11.983800 0.147800
11.998700 0.143500
12.013600 0.139100
12.028400 0.134800
12.043300 0.130400
12.058200 0.126100
12.073000 0.121700
12.087900 0.117400
12.102800 0.113000
12.117600 0.108700
12.132500 0.104300
12.147400 0.100000
12.162200 0.095600
12.177100 0.091300
12.191900 0.419800
12.206800 0.000000
12.221700 0.000000
12.236500 0.000000
12.251400 0.000000
12.266300 0.000000
12.281100 0.000000
12.296000 0.000000
12.310900 0.000000
12.325700 0.000000
12.340600 0.000000
12.355500 0.000000
12.370300 0.000000
12.385200 0.000000
12.400000 0.000000
12.414900 0.000000
12.429800 0.000000
12.444600 0.000000
12.459500 0.000000
12.474400 0.000000
12.489200 0.000000
12.504100 0.000000
12.519000 0.000000
12.533800 0.000000
12.548700 0.000000
12.563600 0.000000
12.578400 0.000000
12.593300 0.000000
12.608100 0.000000
12.623000 0.000000
12.637900 0.000000
12.652700 0.000000
12.667600 0.000000
12.682500 0.000000
12.697300 0.000000
12.712200 0.000000
12.727100 0.000000
12.741900 0.000000
12.756800 0.000000
12.771700 0.000000
12.786500 0.000000
12.801400 0.000000
12.816200 0.000000
12.831100 0.000000
12.846000 0.000000
12.860800 0.000000
12.875700 0.000000
12.890600 0.000000
12.905400 0.000000
12.920300 0.000000
12.935200 0.000000
12.950000 0.000000
12.964900 0.000000
12.979800 0.000000
12.994600 0.000000
13.009500 0.000000
13.024400 0.000000
13.039200 0.000000
13.054100 0.000000
13.068900 0.000000
13.083800 0.000000
13.098700 0.000000
13.113500 0.000000
13.128400 0.000000
13.143300 0.000000
13.158100 0.000000
13.173000 0.000000
13.187900 0.000000
13.202700 0.000000
13.217600 0.000000
13.232500 0.000000
13.247300 0.000000
13.262200 0.000000
13.277000 0.000000
13.291900 0.000000
13.306800 0.000000
13.321600 0.000000
13.336500 0.000000
13.351400 0.000000
13.366200 0.000000
13.381100 0.000000
13.396000 0.000000
13.410800 0.000000
13.425700 0.000000
13.440600 0.000000
13.455400 0.000000
13.470300 0.000000
13.485100 0.000000
13.500000 0.000000
13.514900 0.000000
13.529700 0.000000
13.544600 0.000000
e
