set title 'mp-1097873 - Density of States'
set xlabel 'Energy (eV)'
set ylabel 'DOS (states/eV)'
set grid
set xrange [-10:10]
set yrange [0:4.306]
set xzeroaxis lt -1
set terminal png size 800,600
set output 'mp-1097873_dos_gnuplot.png'
plot '-' using 1:2 with lines title 'DOS'
-35.473900 0.000000
-35.434900 0.000000
-35.395900 0.000000
-35.357000 0.000000
-35.318000 0.000000
-35.279000 0.000000
-35.240000 0.000000
-35.201100 0.000000
-35.162100 0.000000
-35.123100 0.000000
-35.084200 0.000000
-35.045200 0.000000
-35.006200 0.000000
-34.967300 0.000000
-34.928300 0.000000
-34.889300 0.000000
-34.850300 0.000000
-34.811400 0.000000
-34.772400 0.000000
-34.733400 0.000000
-34.694500 0.000000
-34.655500 0.000000
-34.616500 0.000000
-34.577600 0.000000
-34.538600 0.000000
-34.499600 0.000000
-34.460600 0.000000
-34.421700 0.000000
-34.382700 0.000000
-34.343700 0.000000
-34.304800 0.000000
-34.265800 0.000000
-34.226800 0.000000
-34.187900 0.000000
-34.148900 0.000000
-34.109900 0.000000
-34.070900 0.000000
-34.032000 0.000000
-33.993000 0.000000
-33.954000 0.000000
-33.915100 0.000000
-33.876100 0.000000
-33.837100 0.000000
-33.798200 0.000000
-33.759200 0.000000
-33.720200 0.000000
-33.681200 0.000000
-33.642300 0.000000
-33.603300 0.000000
-33.564300 0.000000
-33.525400 0.000000
-33.486400 0.000000
-33.447400 0.000000
-33.408500 0.000000
-33.369500 0.000000
-33.330500 0.000000
-33.291500 0.000000
-33.252600 0.000000
-33.213600 0.000000
-33.174600 0.000000
-33.135700 0.000000
-33.096700 0.000000
-33.057700 0.000000
-33.018800 0.000000
-32.979800 0.000000
-32.940800 0.000000
-32.901900 0.000000
-32.862900 0.000000
-32.823900 0.000000
-32.784900 0.000000
-32.746000 0.000000
-32.707000 0.000000
-32.668000 0.000000
-32.629100 0.000000
-32.590100 0.000000
-32.551100 0.000000
-32.512200 0.000000
-32.473200 0.000000
-32.434200 0.000000
-32.395200 0.000000
-32.356300 0.000000
-32.317300 0.000000
-32.278300 0.000000
-32.239400 0.000000
-32.200400 0.000000
-32.161400 0.000000
-32.122500 0.000000
-32.083500 0.000000
-32.044500 0.000000
-32.005500 0.000000
-31.966600 0.000000
-31.927600 17.158400
-31.888600 0.000000
-31.849700 0.000000
-31.810700 0.000000
-31.771700 0.000000
-31.732800 0.000000
-31.693800 0.000000
-31.654800 0.000000
-31.615800 0.000000
-31.576900 0.000000
-31.537900 0.000000
-31.498900 0.000000
-31.460000 0.000000
-31.421000 0.000000
-31.382000 0.000000
-31.343100 0.000000
-31.304100 0.000000
-31.265100 0.000000
-31.226100 0.000000
-31.187200 0.000000
-31.148200 0.000000
-31.109200 0.000000
-31.070300 0.000000
-31.031300 0.000000
-30.992300 0.000000
-30.953400 0.000000
-30.914400 0.000000
-30.875400 0.000000
-30.836400 0.000000
-30.797500 0.000000
-30.758500 0.000000
-30.719500 0.000000
-30.680600 0.000000
-30.641600 0.000000
-30.602600 0.000000
-30.563700 0.000000
-30.524700 0.000000
-30.485700 0.000000
-30.446700 0.000000
-30.407800 0.000000
-30.368800 0.000000
-30.329800 0.000000
-30.290900 0.000000
-30.251900 0.000000
-30.212900 0.000000
-30.174000 0.000000
-30.135000 0.000000
-30.096000 0.000000
-30.057000 0.000000
-30.018100 0.000000
-29.979100 0.000000
-29.940100 0.000000
-29.901200 0.000000
-29.862200 0.000000
-29.823200 0.000000
-29.784300 0.000000
-29.745300 0.000000
-29.706300 0.000000
-29.667300 0.000000
-29.628400 0.000000
-29.589400 0.000000
-29.550400 0.000000
-29.511500 0.000000
-29.472500 0.000000
-29.433500 0.000000
-29.394600 0.000000
-29.355600 0.000000
-29.316600 0.000000
-29.277600 0.000000
-29.238700 0.000000
-29.199700 0.000000
-29.160700 0.000000
-29.121800 0.000000
-29.082800 0.000000
-29.043800 0.000000
-29.004900 0.000000
-28.965900 0.000000
-28.926900 0.000000
-28.887900 0.000000
-28.849000 0.000000
-28.810000 0.000000
-28.771000 0.000000
-28.732100 0.000000
-28.693100 0.000000
-28.654100 0.000000
-28.615200 0.000000
-28.576200 0.000000
-28.537200 0.000000
-28.498200 0.000000
-28.459300 0.000000
-28.420300 0.000000
-28.381300 0.000000
-28.342400 0.000000
-28.303400 0.000000
-28.264400 0.000000
-28.225500 0.000000
-28.186500 0.000000
-28.147500 0.000000
-28.108500 0.000000
-28.069600 0.000000
-28.030600 0.000000
-27.991600 0.000000
-27.952700 0.000000
-27.913700 0.000000
-27.874700 0.000000
-27.835800 0.000000
-27.796800 0.000000
-27.757800 0.000000
-27.718800 0.000000
-27.679900 0.000000
-27.640900 0.000000
-27.601900 0.000000
-27.563000 0.000000
-27.524000 0.000000
-27.485000 0.000000
-27.446100 0.000000
-27.407100 0.000000
-27.368100 0.000000
-27.329100 0.000000
-27.290200 0.000000
-27.251200 0.000000
-27.212200 0.000000
-27.173300 0.000000
-27.134300 0.000000
-27.095300 0.000000
-27.056400 0.000000
-27.017400 0.000000
-26.978400 0.000000
-26.939400 0.000000
-26.900500 0.000000
-26.861500 0.000000
-26.822500 0.000000
-26.783600 0.000000
-26.744600 0.000000
-26.705600 0.000000
-26.666700 0.000000
-26.627700 0.000000
-26.588700 0.000000
-26.549800 0.000000
-26.510800 0.000000
-26.471800 0.000000
-26.432800 0.000000
-26.393900 0.000000
-26.354900 0.000000
-26.315900 0.000000
-26.277000 0.000000
-26.238000 0.000000
-26.199000 0.000000
-26.160100 0.000000
-26.121100 0.000000
-26.082100 0.000000
-26.043100 0.000000
-26.004200 0.000000
-25.965200 0.000000
-25.926200 0.000000
-25.887300 0.000000
-25.848300 0.000000
-25.809300 0.000000
-25.770400 0.000000
-25.731400 0.000000
-25.692400 0.000000
-25.653400 0.000000
-25.614500 0.000000
-25.575500 0.000000
-25.536500 0.000000
-25.497600 0.000000
-25.458600 0.000000
-25.419600 0.000000
-25.380700 0.000000
-25.341700 0.000000
-25.302700 0.000000
-25.263700 0.000000
-25.224800 0.000000
-25.185800 0.000000
-25.146800 0.000000
-25.107900 0.000000
-25.068900 0.000000
-25.029900 0.000000
-24.991000 0.000000
-24.952000 0.000000
-24.913000 0.000000
-24.874000 0.000000
-24.835100 0.000000
-24.796100 0.000000
-24.757100 0.000000
-24.718200 0.000000
-24.679200 0.000000
-24.640200 0.000000
-24.601300 0.000000
-24.562300 0.000000
-24.523300 0.000000
-24.484300 0.000000
-24.445400 0.000000
-24.406400 0.000000
-24.367400 0.000000
-24.328500 0.000000
-24.289500 0.000000
-24.250500 0.000000
-24.211600 0.000000
-24.172600 0.000000
-24.133600 0.000000
-24.094600 0.000000
-24.055700 0.000000
-24.016700 0.000000
-23.977700 0.000000
-23.938800 0.000000
-23.899800 0.000000
-23.860800 0.000000
-23.821900 0.000000
-23.782900 0.000000
-23.743900 0.000000
-23.704900 0.000000
-23.666000 0.000000
-23.627000 0.000000
-23.588000 0.000000
-23.549100 0.000000
-23.510100 0.000000
-23.471100 0.000000
-23.432200 0.000000
-23.393200 0.000000
-23.354200 0.000000
-23.315200 0.000000
-23.276300 0.000000
-23.237300 0.000000
-23.198300 0.000000
-23.159400 0.000000
-23.120400 0.000000
-23.081400 0.000000
-23.042500 0.000000
-23.003500 0.000000
-22.964500 0.000000
-22.925500 0.000000
-22.886600 0.000000
-22.847600 0.000000
-22.808600 0.000000
-22.769700 0.000000
-22.730700 0.000000
-22.691700 0.000000
-22.652800 0.000000
-22.613800 0.000000
-22.574800 0.000000
-22.535800 0.000000
-22.496900 0.000000
-22.457900 0.000000
-22.418900 0.000000
-22.380000 0.000000
-22.341000 0.000000
-22.302000 0.000000
-22.263100 0.000000
-22.224100 0.000000
-22.185100 0.000000
-22.146100 0.000000
-22.107200 0.000000
-22.068200 0.000000
-22.029200 0.000000
-21.990300 0.000000
-21.951300 0.000000
-21.912300 0.000000
-21.873400 0.000000
-21.834400 0.000000
-21.795400 0.000000
-21.756400 0.000000
-21.717500 0.000000
-21.678500 0.000000
-21.639500 0.000000
-21.600600 0.000000
-21.561600 0.000000
-21.522600 0.000000
-21.483700 0.000000
-21.444700 0.000000
-21.405700 0.000000
-21.366700 0.000000
-21.327800 0.000000
-21.288800 0.000000
-21.249800 0.000000
-21.210900 0.000000
-21.171900 0.000000
-21.132900 0.000000
-21.094000 0.000000
-21.055000 0.000000
-21.016000 0.000000
-20.977000 0.000000
-20.938100 0.000000
-20.899100 0.000000
-20.860100 0.000000
-20.821200 0.000000
-20.782200 0.000000
-20.743200 0.000000
-20.704300 0.000000
-20.665300 0.000000
-20.626300 0.000000
-20.587300 0.000000
-20.548400 0.000000
-20.509400 0.000000
-20.470400 0.000000
-20.431500 0.000000
-20.392500 0.000000
-20.353500 0.000000
-20.314600 0.000000
-20.275600 0.000000
-20.236600 0.000000
-20.197700 0.000000
-20.158700 0.000000
-20.119700 0.000000
-20.080700 0.000000
-20.041800 0.000000
-20.002800 0.000000
-19.963800 0.000000
-19.924900 0.000000
-19.885900 0.000000
-19.846900 0.000000
-19.808000 0.000000
-19.769000 0.000000
-19.730000 0.000000
-19.691000 0.000000
-19.652100 0.000000
-19.613100 0.000000
-19.574100 0.000000
-19.535200 0.000000
-19.496200 0.000000
-19.457200 0.000000
-19.418300 0.000000
-19.379300 0.000000
-19.340300 0.000000
-19.301300 0.000000
-19.262400 0.000000
-19.223400 0.000000
-19.184400 0.000000
-19.145500 0.000000
-19.106500 0.000000
-19.067500 0.000000
-19.028600 0.000000
-18.989600 0.000000
-18.950600 0.000000
-18.911600 0.000000
-18.872700 0.000000
-18.833700 0.000000
-18.794700 0.000000
-18.755800 0.000000
-18.716800 0.000000
-18.677800 0.000000
-18.638900 0.000000
-18.599900 0.000000
-18.560900 0.000000
-18.521900 0.000000
-18.483000 0.000000
-18.444000 0.000000
-18.405000 0.000000
-18.366100 0.000000
-18.327100 0.000000
-18.288100 0.000000
-18.249200 0.000000
-18.210200 0.000000
-18.171200 0.000000
-18.132200 0.000000
-18.093300 0.000000
-18.054300 0.000000
-18.015300 0.000000
-17.976400 0.000000
-17.937400 0.000000
-17.898400 0.000000
-17.859500 0.000000
-17.820500 0.000000
-17.781500 0.000000
-17.742500 0.000000
-17.703600 0.000000
-17.664600 0.000000
-17.625600 0.000000
-17.586700 0.000000
-17.547700 0.000000
-17.508700 0.000000
-17.469800 0.000000
-17.430800 0.000000
-17.391800 0.000000
-17.352800 0.000000
-17.313900 0.000000
-17.274900 0.000000
-17.235900 0.000000
-17.197000 0.000000
-17.158000 0.000000
-17.119000 0.000000
-17.080100 0.000000
-17.041100 0.000000
-17.002100 0.000000
-16.963100 0.000000
-16.924200 0.000000
-16.885200 0.000000
-16.846200 0.000000
-16.807300 0.000000
-16.768300 0.000000
-16.729300 0.000000
-16.690400 0.000000
-16.651400 0.000000
-16.612400 0.000000
-16.573400 0.000000
-16.534500 0.000000
-16.495500 0.000000
-16.456500 0.000000
-16.417600 0.000000
-16.378600 0.000000
-16.339600 0.000000
-16.300700 0.000000
-16.261700 0.000000
-16.222700 0.000000
-16.183700 0.000000
-16.144800 0.000000
-16.105800 0.000000
-16.066800 0.000000
-16.027900 0.000000
-15.988900 0.000000
-15.949900 0.000000
-15.911000 0.000000
-15.872000 0.000000
-15.833000 0.000000
-15.794000 0.000000
-15.755100 0.000000
-15.716100 0.000000
-15.677100 0.000000
-15.638200 0.000000
-15.599200 0.000000
-15.560200 0.000000
-15.521300 0.000000
-15.482300 0.000000
-15.443300 0.000000
-15.404300 0.000000
-15.365400 0.000000
-15.326400 0.000000
-15.287400 0.000000
-15.248500 0.000000
-15.209500 0.000000
-15.170500 0.000000
-15.131600 0.000000
-15.092600 0.000000
-15.053600 0.000000
-15.014600 0.000000
-14.975700 0.000000
-14.936700 0.000000
-14.897700 0.000000
-14.858800 0.000000
-14.819800 0.000000
-14.780800 0.000000
-14.741900 0.000000
-14.702900 0.000000
-14.663900 0.000000
-14.624900 0.000000
-14.586000 0.000000
-14.547000 0.000000
-14.508000 0.000000
-14.469100 0.000000
-14.430100 0.000000
-14.391100 0.000000
-14.352200 0.000000
-14.313200 0.000000
-14.274200 0.000000
-14.235200 0.000000
-14.196300 0.000000
-14.157300 0.000000
-14.118300 0.000000
-14.079400 0.000000
-14.040400 0.000000
-14.001400 0.000000
-13.962500 0.000000
-13.923500 0.000000
-13.884500 0.000000
-13.845600 0.000000
-13.806600 0.000000
-13.767600 7.082700
-13.728600 17.490900
-13.689700 11.861900
-13.650700 6.102500
-13.611700 9.040700
-13.572800 13.322700
-13.533800 16.445300
-13.494800 16.242200
-13.455900 10.672200
-13.416900 13.280600
-13.377900 15.860500
-13.338900 13.211200
-13.300000 2.396800
-13.261000 0.000000
-13.222000 0.000000
-13.183100 0.000000
-13.144100 0.000000
-13.105100 0.000000
-13.066200 0.000000
-13.027200 0.000000
-12.988200 0.000000
-12.949200 0.000000
-12.910300 0.000000
-12.871300 0.000000
-12.832300 0.000000
-12.793400 0.000000
-12.754400 0.000000
-12.715400 0.000000
-12.676500 0.000000
-12.637500 0.000000
-12.598500 0.000000
-12.559500 0.000000
-12.520600 0.000000
-12.481600 0.000000
-12.442600 0.000000
-12.403700 0.000000
-12.364700 0.000000
-12.325700 0.000000
-12.286800 0.000000
-12.247800 0.000000
-12.208800 0.000000
-12.169800 0.000000
-12.130900 0.000000
-12.091900 0.000000
-12.052900 0.000000
-12.014000 0.000000
-11.975000 0.000000
-11.936000 0.000000
-11.897100 0.000000
-11.858100 0.000000
-11.819100 0.000000
-11.780100 0.000000
-11.741200 0.000000
-11.702200 0.000000
-11.663200 0.000000
-11.624300 0.000000
-11.585300 0.000000
-11.546300 0.000000
-11.507400 0.000000
-11.468400 0.000000
-11.429400 0.000000
-11.390400 0.000000
-11.351500 0.000000
-11.312500 0.000000
-11.273500 0.000000
-11.234600 0.000000
-11.195600 0.000000
-11.156600 0.000000
-11.117700 0.000000
-11.078700 0.000000
-11.039700 0.000000
-11.000700 0.000000
-10.961800 0.000000
-10.922800 0.000000
-10.883800 0.000000
-10.844900 0.000000
-10.805900 0.000000
-10.766900 0.000000
-10.728000 0.000000
-10.689000 0.000000
-10.650000 0.000000
-10.611000 0.000000
-10.572100 0.000000
-10.533100 0.000000
-10.494100 0.000000
-10.455200 0.000000
-10.416200 0.000000
-10.377200 0.000000
-10.338300 0.000000
-10.299300 0.000000
-10.260300 0.000000
-10.221300 0.000000
-10.182400 0.000000
-10.143400 0.000000
-10.104400 0.000000
-10.065500 0.000000
-10.026500 0.000000
-9.987500 0.000000
-9.948600 0.000000
-9.909600 0.000000
-9.870600 0.000000
-9.831600 0.000000
-9.792700 0.000000
-9.753700 0.000000
-9.714700 0.000000
-9.675800 0.000000
-9.636800 0.000000
-9.597800 0.000000
-9.558900 0.000000
-9.519900 0.000000
-9.480900 0.000000
-9.441900 0.000000
-9.403000 0.000000
-9.364000 0.000000
-9.325000 0.000000
-9.286100 0.000000
-9.247100 0.000000
-9.208100 0.000000
-9.169200 0.000000
-9.130200 0.000000
-9.091200 0.000000
-9.052200 0.000000
-9.013300 0.000000
-8.974300 0.000000
-8.935300 0.000000
-8.896400 0.000000
-8.857400 0.000000
-8.818400 0.000000
-8.779500 0.000000
-8.740500 0.000000
-8.701500 0.000000
-8.662500 0.000000
-8.623600 0.000000
-8.584600 0.000000
-8.545600 0.000000
-8.506700 0.000000
-8.467700 0.000000
-8.428700 0.000000
-8.389800 0.000000
-8.350800 0.000000
-8.311800 0.000000
-8.272800 0.000000
-8.233900 0.000000
-8.194900 0.000000
-8.155900 0.000000
-8.117000 0.000000
-8.078000 0.000000
-8.039000 0.000000
-8.000100 0.000000
-7.961100 0.000000
-7.922100 0.000000
-7.883100 0.000000
-7.844200 0.000000
-7.805200 0.000000
-7.766200 0.000000
-7.727300 0.000000
-7.688300 0.000000
-7.649300 0.000000
-7.610400 0.000000
-7.571400 0.000000
-7.532400 0.000000
-7.493500 0.000000
-7.454500 0.000000
-7.415500 0.000000
-7.376500 0.000000
-7.337600 0.000000
-7.298600 0.000000
-7.259600 0.000000
-7.220700 0.000000
-7.181700 0.000000
-7.142700 0.000000
-7.103800 0.000000
-7.064800 0.000000
-7.025800 0.000000
-6.986800 0.000000
-6.947900 0.000000
-6.908900 0.058600
-6.869900 0.102000
-6.831000 0.131500
-6.792000 0.159600
-6.753000 0.188900
-6.714100 0.204300
-6.675100 0.230600
-6.636100 0.259100
-6.597100 0.286300
-6.558200 0.306800
-6.519200 0.338600
-6.480200 0.367900
-6.441300 0.391900
-6.402300 0.422100
-6.363300 0.461600
-6.324400 0.503700
-6.285400 0.542800
-6.246400 0.588600
-6.207400 0.651800
-6.168500 0.717200
-6.129500 0.793400
-6.090500 0.905900
-6.051600 1.073300
-6.012600 2.064300
-5.973600 2.332600
-5.934700 2.475800
-5.895700 2.541200
-5.856700 2.692000
-5.817700 2.967000
-5.778800 3.566500
-5.739800 3.845300
-5.700800 3.914600
-5.661900 3.816300
-5.622900 3.576800
-5.583900 3.022900
-5.545000 1.913600
-5.506000 1.403400
-5.467000 0.963100
-5.428000 0.507100
-5.389100 0.205800
-5.350100 0.000000
-5.311100 0.000000
-5.272200 0.000000
-5.233200 0.000000
-5.194200 0.000000
-5.155300 0.000000
-5.116300 0.000000
-5.077300 0.000000
-5.038300 0.000000
-4.999400 0.000000
-4.960400 0.000000
-4.921400 0.000000
-4.882500 0.000000
-4.843500 0.000000
-4.804500 0.000000
-4.765600 0.000000
-4.726600 0.000000
-4.687600 0.000000
-4.648600 0.000000
-4.609700 0.000000
-4.570700 0.000000
-4.531700 0.000000
-4.492800 0.000000
-4.453800 0.000000
-4.414800 0.000000
-4.375900 0.000000
-4.336900 0.000000
-4.297900 0.000000
-4.258900 0.000000
-4.220000 0.000000
-4.181000 0.000000
-4.142000 0.000000
-4.103100 0.000000
-4.064100 0.000000
-4.025100 0.000000
-3.986200 0.000000
-3.947200 0.000000
-3.908200 0.000000
-3.869200 0.000000
-3.830300 0.000000
-3.791300 0.000000
-3.752300 0.000000
-3.713400 0.000000
-3.674400 0.000000
-3.635400 0.000000
-3.596500 0.000000
-3.557500 0.000000
-3.518500 0.000000
-3.479500 0.000000
-3.440600 0.000000
-3.401600 0.000000
-3.362600 0.000000
-3.323700 0.000000
-3.284700 0.016700
-3.245700 0.129200
-3.206800 0.257400
-3.167800 0.416600
-3.128800 0.505600
-3.089800 0.589800
-3.050900 0.699200
-3.011900 0.972100
-2.972900 1.036100
-2.934000 1.016300
-2.895000 1.081200
-2.856000 1.147200
-2.817100 1.192900
-2.778100 1.234900
-2.739100 1.248200
-2.700100 1.283500
-2.661200 1.383900
-2.622200 1.463800
-2.583200 1.589200
-2.544300 1.782400
-2.505300 2.149900
-2.466300 2.105200
-2.427400 1.931100
-2.388400 1.819200
-2.349400 1.681400
-2.310400 1.644500
-2.271500 1.562900
-2.232500 1.509100
-2.193500 1.483800
-2.154600 1.464000
-2.115600 1.433500
-2.076600 1.439800
-2.037700 1.450400
-1.998700 1.263400
-1.959700 1.032100
-1.920700 0.905300
-1.881800 0.836900
-1.842800 0.861300
-1.803800 0.831600
-1.764900 0.736700
-1.725900 0.844900
-1.686900 1.023400
-1.648000 1.187600
-1.609000 1.334700
-1.570000 1.504900
-1.531000 1.624300
-1.492100 1.604700
-1.453100 1.671800
-1.414100 1.715600
-1.375200 1.781800
-1.336200 1.866100
-1.297200 1.926600
-1.258300 2.007600
-1.219300 2.260400
-1.180300 2.483000
-1.141400 2.587000
-1.102400 2.826800
-1.063400 2.989800
-1.024400 2.721200
-0.985500 2.173300
-0.946500 1.883900
-0.907500 1.695800
-0.868600 1.559300
-0.829600 1.439200
-0.790600 1.340700
-0.751700 1.251200
-0.712700 1.150400
-0.673700 1.030400
-0.634700 0.930800
-0.595800 0.786400
-0.556800 0.652000
-0.517800 0.569500
-0.478900 0.505400
-0.439900 0.466900
-0.400900 0.479800
-0.362000 0.479700
-0.323000 0.482000
-0.284000 0.473100
-0.245000 0.534800
-0.206100 0.597800
-0.167100 0.605700
-0.128100 0.604200
-0.089200 0.598500
-0.050200 0.603200
-0.011200 0.616900
0.027700 0.719500
0.066700 0.696200
0.105700 0.682100
0.144700 0.697900
0.183600 0.727900
0.222600 0.771700
0.261600 0.815300
0.300500 0.862300
0.339500 0.914200
0.378500 1.022800
0.417400 1.088500
0.456400 1.084500
0.495400 1.155200
0.534400 1.234200
0.573300 1.408700
0.612300 1.689700
0.651300 1.864700
0.690200 1.961700
0.729200 2.141700
0.768200 2.237700
0.807100 2.373800
0.846100 2.400600
0.885100 2.461000
0.924100 2.504200
0.963000 2.552200
1.002000 2.544600
1.041000 2.588100
1.079900 2.629900
1.118900 2.696600
1.157900 2.796600
1.196800 2.951800
1.235800 3.455700
1.274800 3.485900
1.313800 2.906800
1.352700 2.582500
1.391700 2.295200
1.430700 2.130000
1.469600 2.064700
1.508600 2.228800
1.547600 2.251100
1.586500 2.396100
1.625500 2.591600
1.664500 3.272100
1.703500 3.164600
1.742400 3.422200
1.781400 3.609300
1.820400 3.592300
1.859300 3.333800
1.898300 2.956100
1.937300 2.529700
1.976200 2.240300
2.015200 2.122900
2.054200 1.879000
2.093200 1.702800
2.132100 1.540900
2.171100 1.597400
2.210100 1.662100
2.249000 1.909700
2.288000 2.249300
2.327000 2.377200
2.365900 2.510800
2.404900 2.622700
2.443900 2.746400
2.482900 2.880900
2.521800 3.083200
2.560800 3.604900
2.599800 3.709100
2.638700 3.500000
2.677700 3.852500
2.716700 3.734400
2.755600 3.657400
2.794600 3.586700
2.833600 3.425800
2.872600 3.061900
2.911500 2.887300
2.950500 2.967500
2.989500 3.248300
3.028400 3.201300
3.067400 2.789100
3.106400 2.471100
3.145300 2.297800
3.184300 1.946000
3.223300 1.548300
3.262300 1.479000
3.301200 1.483200
3.340200 1.445500
3.379200 1.338400
3.418100 1.228300
3.457100 1.138000
3.496100 1.052900
3.535000 0.997400
3.574000 1.024800
3.613000 0.985100
3.652000 0.924700
3.690900 0.937200
3.729900 0.957700
3.768900 0.974800
3.807800 0.981500
3.846800 0.982800
3.885800 0.968300
3.924700 0.937700
3.963700 0.911800
4.002700 0.903300
4.041700 0.903700
4.080600 0.900700
4.119600 0.895900
4.158600 0.902600
4.197500 0.921000
4.236500 0.933700
4.275500 0.932400
4.314400 0.911300
4.353400 0.893900
4.392400 0.884900
4.431400 0.872500
4.470300 0.854700
4.509300 0.833600
4.548300 0.810500
4.587200 0.789400
4.626200 0.783800
4.665200 0.781700
4.704100 0.782400
4.743100 0.790500
4.782100 0.794600
4.821100 0.806700
4.860000 0.820100
4.899000 0.864000
4.938000 0.857300
4.976900 0.842300
5.015900 0.855200
5.054900 0.857800
5.093800 0.858500
5.132800 0.870200
5.171800 0.877700
5.210700 0.889800
5.249700 0.902600
5.288700 0.914800
5.327700 0.928400
5.366600 0.987200
5.405600 0.982300
5.444600 0.950900
5.483500 0.944300
5.522500 0.954500
5.561500 0.959200
5.600400 0.964200
5.639400 0.972200
5.678400 0.980300
5.717400 0.991600
5.756300 1.001500
5.795300 1.011600
5.834300 1.022200
5.873200 1.034900
5.912200 1.058400
5.951200 1.087100
5.990100 1.119600
6.029100 1.151300
6.068100 1.184200
6.107100 1.221700
6.146000 1.270600
6.185000 1.322200
6.224000 1.369800
6.262900 1.408400
6.301900 1.440100
6.340900 1.486900
6.379800 1.542100
6.418800 1.594600
6.457800 1.680400
6.496800 1.687000
6.535700 1.690300
6.574700 1.715700
6.613700 1.716800
6.652600 1.705800
6.691600 1.658000
6.730600 1.610900
6.769500 1.567700
6.808500 1.535400
6.847500 1.514000
6.886500 1.484900
6.925400 1.391100
6.964400 1.322600
7.003400 1.309100
7.042300 1.314700
7.081300 1.341600
7.120300 1.492300
7.159200 1.603700
7.198200 1.614300
7.237200 1.630000
7.276200 1.742400
7.315100 2.016100
7.354100 2.294600
7.393100 2.424000
7.432000 2.477100
7.471000 2.622200
7.510000 2.453400
7.548900 2.395100
7.587900 2.327100
7.626900 2.231300
7.665900 2.151900
7.704800 2.067400
7.743800 1.942800
7.782800 1.919000
7.821700 1.814800
7.860700 1.783000
7.899700 1.817900
7.938600 1.863700
7.977600 1.882600
8.016600 1.972200
8.055600 2.023300
8.094500 2.032200
8.133500 1.997300
8.172500 2.025400
8.211400 2.099400
8.250400 2.136800
8.289400 2.076300
8.328300 2.053000
8.367300 2.141800
8.406300 2.240600
8.445300 2.197100
8.484200 2.193700
8.523200 2.246300
8.562200 2.364700
8.601100 2.446100
8.640100 2.576500
8.679100 2.741800
8.718000 2.961900
8.757000 3.148400
8.796000 3.000800
8.835000 2.905300
8.873900 2.608000
8.912900 2.641600
8.951900 2.748500
8.990800 2.861300
9.029800 2.947500
9.068800 3.053500
9.107700 3.047000
9.146700 2.778300
9.185700 2.825500
9.224700 2.858800
9.263600 2.616100
9.302600 2.486000
9.341600 2.403200
9.380500 2.385100
9.419500 2.468700
9.458500 2.480000
9.497400 2.556800
9.536400 2.528300
9.575400 2.424400
9.614400 2.445800
9.653300 2.506500
9.692300 2.614200
9.731300 2.742000
9.770200 2.911400
9.809200 3.114000
9.848200 3.216100
9.887100 3.322400
9.926100 3.421800
9.965100 3.493100
10.004100 3.447900
10.043000 3.450200
10.082000 3.437200
10.121000 3.359500
10.159900 3.313100
10.198900 3.087200
10.237900 2.938100
10.276800 2.859300
10.315800 2.646800
10.354800 2.684300
10.393800 2.820400
10.432700 3.017300
10.471700 3.245200
10.510700 3.306300
10.549600 3.059700
10.588600 2.974600
10.627600 2.982600
10.666500 3.065500
10.705500 2.855000
10.744500 2.698000
10.783500 2.607600
10.822400 2.788000
10.861400 2.921400
10.900400 2.929800
10.939300 2.833100
10.978300 2.879100
11.017300 3.012500
11.056200 3.185800
11.095200 3.334200
11.134200 3.527800
11.173200 3.612900
11.212100 3.545700
11.251100 3.369800
11.290100 3.261600
11.329000 3.250200
11.368000 3.174700
11.407000 3.144100
11.445900 3.031900
11.484900 2.969000
11.523900 2.952800
11.562800 3.072500
11.601800 3.246200
11.640800 3.376000
11.679800 3.486200
11.718700 3.683700
11.757700 3.782800
11.796700 3.627600
11.835600 3.581300
11.874600 3.485700
11.913600 3.526200
11.952500 3.436300
11.991500 3.288800
12.030500 3.001400
12.069500 2.835100
12.108400 2.733000
12.147400 2.701400
12.186400 2.807500
12.225300 2.912600
12.264300 2.986200
12.303300 3.147100
12.342200 3.101600
12.381200 3.033500
12.420200 2.932200
12.459200 2.953400
12.498100 2.843300
12.537100 2.619600
12.576100 2.331200
12.615000 2.080500
12.654000 1.880300
12.693000 1.654800
12.731900 1.510700
12.770900 1.392400
12.809900 1.402400
12.848900 1.185800
12.887800 1.158000
12.926800 1.131200
12.965800 1.056800
13.004700 1.022200
13.043700 0.984700
13.082700 0.968900
13.121600 0.914100
13.160600 0.855400
13.199600 0.821800
13.238600 0.776300
13.277500 0.725700
13.316500 0.687600
13.355500 0.657700
13.394400 0.638900
13.433400 0.649100
13.472400 0.642200
13.511300 0.638700
13.550300 0.641800
13.589300 0.649600
13.628300 0.661200
13.667200 0.667800
13.706200 0.672500
13.745200 0.684200
13.784100 0.700500
13.823100 0.720600
13.862100 0.742900
13.901000 0.771200
13.940000 0.809200
13.979000 0.862300
14.018000 0.930200
14.056900 1.008200
14.095900 1.096500
14.134900 1.199500
14.173800 1.337400
14.212800 1.498900
14.251800 1.678900
14.290700 1.875300
14.329700 2.043800
14.368700 2.253600
14.407700 2.398400
14.446600 2.478400
14.485600 2.397300
14.524600 2.309700
14.563500 1.989800
14.602500 1.801300
14.641500 1.648600
14.680400 1.530700
14.719400 1.442900
14.758400 1.394300
14.797400 1.354300
14.836300 1.308200
14.875300 1.265000
14.914300 1.239000
14.953200 1.221700
14.992200 1.224100
15.031200 1.222400
15.070100 1.215000
15.109100 1.247100
15.148100 1.307800
15.187100 1.366800
15.226000 1.489200
15.265000 1.572700
15.304000 1.641800
15.342900 1.733700
15.381900 1.820000
15.420900 1.844300
15.459800 1.857800
15.498800 1.900800
15.537800 1.997700
15.576800 2.042700
15.615700 2.104800
15.654700 2.172700
15.693700 2.262700
15.732600 2.292800
15.771600 2.576400
15.810600 2.394300
15.849500 2.558000
15.888500 2.432100
15.927500 2.360100
15.966500 2.208300
16.005400 2.086900
16.044400 1.971500
16.083400 1.865500
16.122300 1.795000
16.161300 1.759300
16.200300 1.741000
16.239200 1.732100
16.278200 1.748000
16.317200 1.772200
16.356200 1.784000
16.395100 1.740600
16.434100 1.726100
16.473100 1.729900
16.512000 1.747500
16.551000 1.786100
16.590000 1.809500
16.628900 1.806500
16.667900 1.816100
16.706900 1.819900
16.745900 1.860200
16.784800 1.922300
16.823800 1.991700
16.862800 1.990900
16.901700 1.990600
16.940700 2.052700
16.979700 2.261500
17.018600 2.425000
17.057600 2.492400
17.096600 2.473500
17.135600 2.415800
17.174500 2.391400
17.213500 2.331500
17.252500 2.318600
17.291400 2.392800
17.330400 2.332100
17.369400 2.312400
17.408300 2.261900
17.447300 2.206700
17.486300 2.176800
17.525300 2.206100
17.564200 2.196900
17.603200 2.144600
17.642200 2.107700
17.681100 2.066600
17.720100 2.097200
17.759100 2.187900
17.798000 2.400100
17.837000 2.480600
17.876000 2.490400
17.914900 2.517500
17.953900 2.483000
17.992900 2.369000
18.031900 2.306900
18.070800 2.292300
18.109800 2.303800
18.148800 2.480000
18.187700 2.485200
18.226700 2.524900
18.265700 2.577600
18.304600 2.661700
18.343600 2.635100
18.382600 2.622000
18.421600 2.683100
18.460500 2.639500
18.499500 2.622400
18.538500 2.643000
18.577400 2.683000
18.616400 2.607500
18.655400 2.584400
18.694300 2.572500
18.733300 2.637300
18.772300 2.619700
18.811300 2.536900
18.850200 2.500800
18.889200 2.490100
18.928200 2.529100
18.967100 2.467500
19.006100 2.392200
19.045100 2.425400
19.084000 2.389500
19.123000 2.549000
19.162000 2.729900
19.201000 2.651500
19.239900 2.701800
19.278900 2.675100
19.317900 2.613500
19.356800 2.611900
19.395800 2.670800
19.434800 2.697000
19.473700 2.734000
19.512700 2.664300
19.551700 2.661600
19.590700 2.670000
19.629600 2.705700
19.668600 2.710600
19.707600 2.657500
19.746500 2.686100
19.785500 2.632100
19.824500 2.649300
19.863400 2.559800
19.902400 2.557200
19.941400 2.577900
19.980400 2.581400
20.019300 2.667800
20.058300 2.669100
20.097300 2.612800
20.136200 2.581800
20.175200 2.458600
20.214200 2.398500
20.253100 2.402800
20.292100 2.405800
20.331100 2.416600
20.370100 2.396500
20.409000 2.395500
20.448000 2.432800
20.487000 2.486800
20.525900 2.557600
20.564900 2.716700
20.603900 2.832100
20.642800 2.959500
20.681800 2.948000
20.720800 2.927100
20.759800 2.876400
20.798700 2.841100
20.837700 2.843300
20.876700 2.892200
20.915600 2.943400
20.954600 2.902600
20.993600 2.848900
21.032500 2.849600
21.071500 2.774100
21.110500 2.694100
21.149500 2.641900
21.188400 2.516000
21.227400 2.406600
21.266400 2.365800
21.305300 2.339300
21.344300 2.274800
21.383300 2.199300
21.422200 2.161400
21.461200 2.207700
21.500200 2.247400
21.539200 2.210400
21.578100 2.065900
21.617100 1.946700
21.656100 1.922800
21.695000 1.858600
21.734000 1.822100
21.773000 1.804200
21.811900 1.813300
21.850900 1.820400
21.889900 1.844300
21.928900 1.848600
21.967800 1.849900
22.006800 1.872200
22.045800 1.869600
22.084700 1.769500
22.123700 1.716300
22.162700 1.703500
22.201600 1.712500
22.240600 1.754200
22.279600 1.817900
22.318600 1.897500
22.357500 1.974900
22.396500 2.044100
22.435500 2.063900
22.474400 2.080400
22.513400 2.118200
22.552400 2.096700
22.591300 2.008400
22.630300 1.984700
22.669300 1.982600
22.708300 1.995200
22.747200 2.053900
22.786200 2.114600
22.825200 2.228500
22.864100 2.379800
22.903100 2.459000
22.942100 2.423400
22.981000 2.425500
23.020000 2.448700
23.059000 2.431200
23.098000 2.270300
23.136900 2.236900
23.175900 2.201700
23.214900 2.159100
23.253800 2.192400
23.292800 2.274600
23.331800 2.196600
23.370700 2.147700
23.409700 2.145200
23.448700 2.173000
23.487700 2.100900
23.526600 2.042200
23.565600 2.018200
23.604600 2.065500
23.643500 2.071800
23.682500 2.091300
23.721500 2.114400
23.760400 2.176400
23.799400 2.292300
23.838400 2.399400
23.877400 2.403700
23.916300 2.242700
23.955300 2.226000
23.994300 2.362100
24.033200 2.294400
24.072200 2.351500
24.111200 2.425800
24.150100 2.499100
24.189100 2.643500
24.228100 2.759800
24.267000 2.732300
24.306000 2.758800
24.345000 2.832500
24.384000 3.052000
24.422900 3.065100
24.461900 2.810200
24.500900 2.508200
24.539800 2.240300
24.578800 2.039500
24.617800 1.684100
24.656700 1.645800
24.695700 1.692600
24.734700 1.778900
24.773700 1.873200
24.812600 2.087900
24.851600 2.211000
24.890600 2.310900
24.929500 2.362300
24.968500 2.482200
25.007500 2.642800
25.046400 2.906300
25.085400 3.031500
25.124400 2.936300
25.163400 2.817500
25.202300 2.706900
25.241300 2.544700
25.280300 2.305200
25.319200 2.087100
25.358200 1.978200
25.397200 1.915100
25.436100 1.851700
25.475100 1.843200
25.514100 1.933000
25.553100 2.069300
25.592000 2.187000
25.631000 2.225300
25.670000 2.204400
25.708900 2.281600
25.747900 2.311500
25.786900 2.350800
25.825800 2.439500
25.864800 2.474300
25.903800 2.502900
25.942800 2.541800
25.981700 2.480100
26.020700 2.394400
26.059700 2.317800
26.098600 2.251400
26.137600 2.096800
26.176600 1.919800
26.215500 1.772600
26.254500 1.658400
26.293500 1.564000
26.332500 1.520900
26.371400 1.492500
26.410400 1.459100
26.449400 1.485300
26.488300 1.479000
26.527300 1.389200
26.566300 1.371100
26.605200 1.407100
26.644200 1.452000
26.683200 1.470400
26.722200 1.455500
26.761100 1.483000
26.800100 1.526000
26.839100 1.587100
26.878000 1.650800
26.917000 1.716000
26.956000 1.760000
26.994900 1.810600
27.033900 1.916200
27.072900 1.967300
27.111900 2.010900
27.150800 2.070100
27.189800 2.112600
27.228800 2.184300
27.267700 2.240200
27.306700 2.331500
27.345700 2.436900
27.384600 2.489400
27.423600 2.445300
27.462600 2.495200
27.501600 2.393900
27.540500 2.375000
27.579500 2.301600
27.618500 2.226600
27.657400 2.207600
27.696400 2.268800
27.735400 2.341400
27.774300 2.439500
27.813300 2.450100
27.852300 2.438200
27.891300 2.432800
27.930200 2.513900
27.969200 2.537100
28.008200 2.558900
28.047100 2.632800
28.086100 2.885600
28.125100 2.856500
28.164000 2.787000
28.203000 2.757700
28.242000 2.725100
28.281000 2.650200
28.319900 2.719400
28.358900 2.764700
28.397900 2.771900
28.436800 2.763700
28.475800 2.799300
28.514800 2.836900
28.553700 2.796900
28.592700 2.777300
28.631700 2.741300
28.670700 2.766600
28.709600 2.834800
28.748600 2.856400
28.787600 3.017100
28.826500 3.177600
28.865500 3.139600
28.904500 3.098200
28.943400 3.072200
28.982400 2.963400
29.021400 2.861900
29.060400 2.743800
29.099300 2.597800
29.138300 2.471400
29.177300 2.497000
29.216200 2.549700
29.255200 2.573100
29.294200 2.513200
29.333100 2.317100
29.372100 2.330100
29.411100 2.353500
29.450100 2.396200
29.489000 2.445900
29.528000 2.448700
29.567000 2.477400
29.605900 2.505300
29.644900 2.527800
29.683900 2.507200
29.722800 2.534700
29.761800 2.597700
29.800800 2.687000
29.839800 2.794300
29.878700 2.905400
29.917700 3.009700
29.956700 3.162900
29.995600 3.162200
30.034600 2.959100
30.073600 2.830100
30.112500 2.692200
30.151500 2.659100
30.190500 2.659600
30.229500 2.771600
30.268400 2.901100
30.307400 3.089400
30.346400 3.245500
30.385300 3.199900
30.424300 3.145500
30.463300 2.963400
30.502200 2.719300
30.541200 2.683800
30.580200 2.676900
30.619100 2.684400
30.658100 2.760900
30.697100 2.929300
30.736100 3.184300
30.775000 3.230900
30.814000 3.178900
30.853000 3.135200
30.891900 3.137300
30.930900 3.071600
30.969900 2.917800
31.008800 2.807200
31.047800 2.820200
31.086800 2.643500
31.125800 2.606900
31.164700 2.697800
31.203700 2.845700
31.242700 2.904000
31.281600 3.279500
31.320600 3.357300
31.359600 3.290700
31.398500 3.193600
31.437500 3.194900
31.476500 3.253800
31.515500 3.232000
31.554400 3.294100
31.593400 3.240600
31.632400 3.144300
31.671300 3.061400
31.710300 2.986300
31.749300 2.992000
31.788200 2.984300
31.827200 3.136000
31.866200 3.153500
31.905200 3.268100
31.944100 3.206400
31.983100 3.222200
32.022100 3.380900
32.061000 3.596000
32.100000 3.672500
32.139000 3.691200
32.177900 3.635700
32.216900 3.598200
32.255900 3.562800
32.294900 3.444500
32.333800 3.336300
32.372800 3.290400
32.411800 3.300400
32.450700 3.250500
32.489700 3.318200
32.528700 3.520600
32.567600 3.656100
32.606600 3.727400
32.645600 3.809800
32.684600 3.723800
32.723500 3.481800
32.762500 3.329000
32.801500 3.187900
32.840400 3.062800
32.879400 2.967100
32.918400 2.916900
32.957300 2.913600
32.996300 2.930700
33.035300 2.979700
33.074300 2.855000
33.113200 2.844800
33.152200 2.916400
33.191200 2.839300
33.230100 2.702800
33.269100 2.624400
33.308100 2.559500
33.347000 2.459800
33.386000 2.372300
33.425000 2.322200
33.464000 2.318900
33.502900 2.250200
33.541900 2.128300
33.580900 1.972000
33.619800 1.895700
33.658800 1.876100
33.697800 1.914400
33.736700 1.997400
33.775700 2.103100
33.814700 2.211300
33.853700 2.415900
33.892600 2.552500
33.931600 2.680400
33.970600 2.686000
34.009500 2.682000
34.048500 2.684700
34.087500 2.768700
34.126400 2.773400
34.165400 2.732300
34.204400 2.676300
34.243400 2.615700
34.282300 2.544200
34.321300 2.438500
34.360300 2.377600
34.399200 2.338300
34.438200 2.277700
34.477200 2.189500
34.516100 2.167500
34.555100 2.110800
34.594100 2.129400
34.633100 2.157800
34.672000 2.162700
34.711000 2.194000
34.750000 2.236100
34.788900 2.264500
34.827900 2.285100
34.866900 2.371900
34.905800 2.429800
34.944800 2.405800
34.983800 2.347100
35.022800 2.293000
35.061700 2.251100
35.100700 2.250200
35.139700 2.245900
35.178600 2.255200
35.217600 2.258700
35.256600 2.200900
35.295500 2.153300
35.334500 2.218300
35.373500 2.210200
35.412500 2.165700
35.451400 2.094100
35.490400 2.065400
35.529400 2.075000
35.568300 2.084200
35.607300 2.094500
35.646300 2.099300
35.685200 2.093900
35.724200 2.077500
35.763200 2.034100
35.802200 1.978500
35.841100 1.941900
35.880100 1.953500
35.919100 1.962500
35.958000 1.899700
35.997000 1.854100
36.036000 1.850600
36.074900 1.719100
36.113900 1.600900
36.152900 1.589800
36.191900 1.463500
36.230800 1.336300
36.269800 1.223500
36.308800 1.139400
36.347700 1.063100
36.386700 1.013100
36.425700 0.974800
36.464600 0.952700
36.503600 0.867100
36.542600 0.761900
36.581600 0.694000
36.620500 0.642200
36.659500 0.598400
36.698500 0.548400
36.737400 0.522400
36.776400 0.499200
36.815400 0.466500
36.854300 0.427400
36.893300 0.398800
36.932300 0.350300
36.971200 0.330200
37.010200 0.309800
37.049200 0.289900
37.088200 0.269800
37.127100 0.249600
37.166100 0.230500
37.205100 0.215400
37.244000 0.209700
37.283000 0.203500
37.322000 0.194000
37.360900 0.181400
37.399900 0.167100
37.438900 0.154400
37.477900 0.146600
37.516800 0.140000
37.555800 0.134000
37.594800 0.128700
37.633700 0.123400
37.672700 0.118600
37.711700 0.114200
37.750600 0.110700
37.789600 0.107900
37.828600 0.105600
37.867600 0.103300
37.906500 0.101200
37.945500 0.099200
37.984500 0.096500
38.023400 0.093600
38.062400 0.090500
38.101400 0.087200
38.140300 0.083700
38.179300 0.080700
38.218300 0.077700
38.257300 0.074400
38.296200 0.070700
38.335200 0.067000
38.374200 0.063300
38.413100 0.059600
38.452100 0.058400
38.491100 0.055400
38.530000 0.049200
38.569000 0.039600
38.608000 0.036400
38.647000 0.033100
38.685900 0.029700
38.724900 0.027100
38.763900 0.025300
38.802800 0.024300
38.841800 0.024100
38.880800 0.023400
38.919700 0.053600
38.958700 0.000000
38.997700 0.000000
39.036700 0.000000
39.075600 0.000000
39.114600 0.000000
39.153600 0.000000
39.192500 0.000000
39.231500 0.000000
39.270500 0.000000
39.309400 0.000000
39.348400 0.000000
39.387400 0.000000
39.426400 0.000000
39.465300 0.000000
39.504300 0.000000
39.543300 0.000000
39.582200 0.000000
39.621200 0.000000
39.660200 0.000000
39.699100 0.000000
39.738100 0.000000
39.777100 0.000000
39.816100 0.000000
39.855000 0.000000
39.894000 0.000000
39.933000 0.000000
39.971900 0.000000
40.010900 0.000000
40.049900 0.000000
40.088800 0.000000
40.127800 0.000000
40.166800 0.000000
40.205800 0.000000
40.244700 0.000000
40.283700 0.000000
40.322700 0.000000
40.361600 0.000000
40.400600 0.000000
40.439600 0.000000
40.478500 0.000000
40.517500 0.000000
40.556500 0.000000
40.595500 0.000000
40.634400 0.000000
40.673400 0.000000
40.712400 0.000000
40.751300 0.000000
40.790300 0.000000
40.829300 0.000000
40.868200 0.000000
40.907200 0.000000
40.946200 0.000000
40.985200 0.000000
41.024100 0.000000
41.063100 0.000000
41.102100 0.000000
41.141000 0.000000
41.180000 0.000000
41.219000 0.000000
41.257900 0.000000
41.296900 0.000000
41.335900 0.000000
41.374900 0.000000
41.413800 0.000000
41.452800 0.000000
41.491800 0.000000
41.530700 0.000000
41.569700 0.000000
41.608700 0.000000
41.647600 0.000000
41.686600 0.000000
41.725600 0.000000
41.764600 0.000000
41.803500 0.000000
41.842500 0.000000
41.881500 0.000000
41.920400 0.000000
41.959400 0.000000
41.998400 0.000000
42.037300 0.000000
42.076300 0.000000
42.115300 0.000000
42.154300 0.000000
42.193200 0.000000
42.232200 0.000000
42.271200 0.000000
42.310100 0.000000
42.349100 0.000000
42.388100 0.000000
42.427000 0.000000
42.466000 0.000000
e
