set title 'mp-570695 - Density of States'
set xlabel 'Energy (eV)'
set ylabel 'DOS (states/eV)'
set grid
set xrange [-10:10]
set yrange [0:736.034]
set xzeroaxis lt -1
set terminal png size 800,600
set output 'mp-570695_dos_gnuplot.png'
plot '-' using 1:2 with lines title 'DOS'
-12.021100 0.000000
-12.007700 0.000000
-11.994400 0.000000
-11.981100 0.000000
-11.967800 0.000000
-11.954500 0.000000
-11.941200 0.000000
-11.927900 0.000000
-11.914600 0.000000
-11.901200 0.000000
-11.887900 0.000000
-11.874600 0.000000
-11.861300 0.000000
-11.848000 0.000000
-11.834700 0.000000
-11.821400 0.000000
-11.808000 0.000000
-11.794700 0.000000
-11.781400 0.000000
-11.768100 0.000000
-11.754800 0.000000
-11.741500 0.000000
-11.728200 0.000000
-11.714900 0.000000
-11.701500 0.000000
-11.688200 0.000000
-11.674900 0.000000
-11.661600 0.000000
-11.648300 0.000000
-11.635000 0.000000
-11.621700 0.000000
-11.608400 0.000000
-11.595000 0.000000
-11.581700 0.000000
-11.568400 0.000000
-11.555100 0.000000
-11.541800 0.000000
-11.528500 0.000000
-11.515200 0.000000
-11.501900 0.000000
-11.488500 0.000000
-11.475200 0.000000
-11.461900 0.000000
-11.448600 0.000000
-11.435300 0.000000
-11.422000 0.000000
-11.408700 0.000000
-11.395300 0.000000
-11.382000 0.000000
-11.368700 0.000000
-11.355400 0.000000
-11.342100 0.000000
-11.328800 0.000000
-11.315500 0.000000
-11.302200 0.000000
-11.288800 0.000000
-11.275500 0.000000
-11.262200 0.000000
-11.248900 0.000000
-11.235600 0.000000
-11.222300 0.000000
-11.209000 0.000000
-11.195700 0.000000
-11.182300 0.000000
-11.169000 0.000000
-11.155700 0.000000
-11.142400 0.000000
-11.129100 0.000000
-11.115800 0.000000
-11.102500 0.000000
-11.089200 0.000000
-11.075800 0.000000
-11.062500 0.000000
-11.049200 0.000000
-11.035900 0.000000
-11.022600 0.000000
-11.009300 0.000000
-10.996000 0.000000
-10.982600 0.000000
-10.969300 0.000000
-10.956000 0.000000
-10.942700 0.000000
-10.929400 0.000000
-10.916100 0.000000
-10.902800 0.000000
-10.889500 0.000000
-10.876100 0.000000
-10.862800 0.000000
-10.849500 0.000000
-10.836200 0.000000
-10.822900 0.000000
-10.809600 0.042300
-10.796300 0.536300
-10.783000 1.950400
-10.769600 3.366000
-10.756300 5.451700
-10.743000 8.015400
-10.729700 10.933100
-10.716400 12.294800
-10.703100 11.667100
-10.689800 13.366400
-10.676500 12.043000
-10.663100 11.497200
-10.649800 11.909400
-10.636500 12.321500
-10.623200 12.733700
-10.609900 13.145900
-10.596600 13.558100
-10.583300 13.970300
-10.569900 14.409500
-10.556600 14.904600
-10.543300 15.413200
-10.530000 15.992900
-10.516700 16.622400
-10.503400 17.251600
-10.490100 17.880200
-10.476800 18.497500
-10.463400 19.105400
-10.450100 19.711300
-10.436800 20.317300
-10.423500 20.923300
-10.410200 21.529200
-10.396900 22.135200
-10.383600 22.741200
-10.370300 26.529900
-10.356900 34.692400
-10.343600 43.860700
-10.330300 64.995100
-10.317000 79.729000
-10.303700 88.956700
-10.290400 110.222500
-10.277100 115.619000
-10.263800 133.745800
-10.250400 175.447700
-10.237100 160.212800
-10.223800 151.214200
-10.210500 0.000000
-10.197200 0.000000
-10.183900 0.000000
-10.170600 0.000000
-10.157200 0.000000
-10.143900 0.000000
-10.130600 0.000000
-10.117300 0.000000
-10.104000 0.000000
-10.090700 0.000000
-10.077400 0.000000
-10.064100 0.000000
-10.050700 0.000000
-10.037400 0.000000
-10.024100 0.000000
-10.010800 0.000000
-9.997500 0.000000
-9.984200 0.000000
-9.970900 0.000000
-9.957600 0.000000
-9.944200 0.000000
-9.930900 0.000000
-9.917600 0.000000
-9.904300 0.000000
-9.891000 0.000000
-9.877700 0.000000
-9.864400 0.000000
-9.851000 0.000000
-9.837700 0.000000
-9.824400 0.000000
-9.811100 0.000000
-9.797800 0.000000
-9.784500 0.000000
-9.771200 0.000000
-9.757900 0.000000
-9.744500 0.000000
-9.731200 0.000000
-9.717900 0.000000
-9.704600 0.000000
-9.691300 0.000000
-9.678000 0.000000
-9.664700 0.000000
-9.651400 0.000000
-9.638000 0.000000
-9.624700 0.000000
-9.611400 0.000000
-9.598100 0.000000
-9.584800 0.000000
-9.571500 0.000000
-9.558200 0.000000
-9.544900 0.000000
-9.531500 0.000000
-9.518200 0.000000
-9.504900 0.000000
-9.491600 0.000000
-9.478300 0.000000
-9.465000 0.000000
-9.451700 0.000000
-9.438300 0.000000
-9.425000 0.000000
-9.411700 0.000000
-9.398400 0.000000
-9.385100 0.000000
-9.371800 0.000000
-9.358500 0.000000
-9.345200 0.000000
-9.331800 0.000000
-9.318500 0.000000
-9.305200 0.000000
-9.291900 0.000000
-9.278600 0.000000
-9.265300 0.000000
-9.252000 0.000000
-9.238700 0.000000
-9.225300 0.000000
-9.212000 0.000000
-9.198700 0.000000
-9.185400 0.000000
-9.172100 0.000000
-9.158800 0.000000
-9.145500 0.000000
-9.132200 0.000000
-9.118800 0.000000
-9.105500 0.000000
-9.092200 0.000000
-9.078900 0.000000
-9.065600 0.000000
-9.052300 0.000000
-9.039000 0.000000
-9.025600 0.000000
-9.012300 0.000000
-8.999000 0.000000
-8.985700 0.000000
-8.972400 0.000000
-8.959100 0.000000
-8.945800 0.000000
-8.932500 0.000000
-8.919100 0.000000
-8.905800 0.000000
-8.892500 0.000000
-8.879200 0.000000
-8.865900 0.000000
-8.852600 0.000000
-8.839300 0.000000
-8.826000 0.000000
-8.812600 0.000000
-8.799300 0.000000
-8.786000 0.000000
-8.772700 0.000000
-8.759400 0.000000
-8.746100 0.000000
-8.732800 0.000000
-8.719500 0.000000
-8.706100 0.000000
-8.692800 0.000000
-8.679500 0.000000
-8.666200 0.000000
-8.652900 0.000000
-8.639600 0.000000
-8.626300 0.000000
-8.612900 0.000000
-8.599600 0.000000
-8.586300 0.000000
-8.573000 0.000000
-8.559700 0.000000
-8.546400 0.000000
-8.533100 0.000000
-8.519800 0.000000
-8.506400 0.000000
-8.493100 0.000000
-8.479800 0.000000
-8.466500 0.000000
-8.453200 0.000000
-8.439900 0.000000
-8.426600 0.000000
-8.413300 0.000000
-8.399900 0.000000
-8.386600 0.000000
-8.373300 0.000000
-8.360000 0.000000
-8.346700 0.000000
-8.333400 0.000000
-8.320100 0.000000
-8.306800 0.000000
-8.293400 0.000000
-8.280100 0.000000
-8.266800 0.000000
-8.253500 0.000000
-8.240200 0.000000
-8.226900 0.000000
-8.213600 0.000000
-8.200200 0.000000
-8.186900 0.000000
-8.173600 0.000000
-8.160300 0.000000
-8.147000 0.000000
-8.133700 0.000000
-8.120400 0.000000
-8.107100 0.000000
-8.093700 0.000000
-8.080400 0.000000
-8.067100 0.000000
-8.053800 0.000000
-8.040500 0.000000
-8.027200 0.000000
-8.013900 0.000000
-8.000600 0.000000
-7.987200 0.000000
-7.973900 0.000000
-7.960600 0.000000
-7.947300 0.000000
-7.934000 0.000000
-7.920700 0.000000
-7.907400 0.000000
-7.894100 0.000000
-7.880700 0.000000
-7.867400 0.000000
-7.854100 0.000000
-7.840800 0.000000
-7.827500 0.000000
-7.814200 0.000000
-7.800900 0.000000
-7.787500 0.000000
-7.774200 0.000000
-7.760900 0.000000
-7.747600 0.000000
-7.734300 0.000000
-7.721000 0.000000
-7.707700 0.000000
-7.694400 0.000000
-7.681000 0.000000
-7.667700 0.000000
-7.654400 0.000000
-7.641100 0.000000
-7.627800 0.000000
-7.614500 0.000000
-7.601200 0.000000
-7.587900 0.000000
-7.574500 0.000000
-7.561200 0.000000
-7.547900 0.000000
-7.534600 0.000000
-7.521300 0.000000
-7.508000 0.000000
-7.494700 0.000000
-7.481400 0.000000
-7.468000 0.000000
-7.454700 0.000000
-7.441400 0.000000
-7.428100 0.000000
-7.414800 0.000000
-7.401500 0.000000
-7.388200 0.000000
-7.374800 0.000000
-7.361500 0.000000
-7.348200 0.000000
-7.334900 0.000000
-7.321600 0.000000
-7.308300 0.000000
-7.295000 0.000000
-7.281700 0.000000
-7.268300 0.000000
-7.255000 0.000000
-7.241700 0.000000
-7.228400 0.000000
-7.215100 0.000000
-7.201800 0.000000
-7.188500 0.000000
-7.175200 0.000000
-7.161800 0.000000
-7.148500 0.000000
-7.135200 0.000000
-7.121900 0.000000
-7.108600 0.000000
-7.095300 0.000000
-7.082000 0.000000
-7.068700 0.000000
-7.055300 0.000000
-7.042000 0.000000
-7.028700 0.000000
-7.015400 0.000000
-7.002100 0.000000
-6.988800 0.000000
-6.975500 0.000000
-6.962100 0.000000
-6.948800 0.000000
-6.935500 0.000000
-6.922200 0.000000
-6.908900 0.000000
-6.895600 0.000000
-6.882300 0.000000
-6.869000 0.000000
-6.855600 0.000000
-6.842300 0.000000
-6.829000 0.000000
-6.815700 0.000000
-6.802400 0.000000
-6.789100 0.000000
-6.775800 0.000000
-6.762500 0.000000
-6.749100 0.000000
-6.735800 0.000000
-6.722500 0.000000
-6.709200 0.000000
-6.695900 0.000000
-6.682600 0.000000
-6.669300 0.000000
-6.656000 0.000000
-6.642600 0.000000
-6.629300 0.000000
-6.616000 0.000000
-6.602700 0.000000
-6.589400 0.000000
-6.576100 0.000000
-6.562800 0.000000
-6.549400 0.000000
-6.536100 0.000000
-6.522800 0.000000
-6.509500 95.529300
-6.496200 157.823600
-6.482900 295.225900
-6.469600 219.867300
-6.456300 110.876900
-6.442900 94.472800
-6.429600 89.405200
-6.416300 188.519000
-6.403000 305.632900
-6.389700 232.460100
-6.376400 151.043400
-6.363100 90.493000
-6.349800 265.187600
-6.336400 669.122200
-6.323100 199.454600
-6.309800 305.385600
-6.296500 231.581300
-6.283200 144.913700
-6.269900 98.344600
-6.256600 84.588000
-6.243300 70.831400
-6.229900 103.490100
-6.216600 0.000000
-6.203300 0.000000
-6.190000 0.000000
-6.176700 0.000000
-6.163400 0.000000
-6.150100 0.000000
-6.136700 0.000000
-6.123400 0.000000
-6.110100 0.000000
-6.096800 0.000000
-6.083500 0.000000
-6.070200 0.000000
-6.056900 0.000000
-6.043600 0.000000
-6.030200 0.000000
-6.016900 0.000000
-6.003600 0.000000
-5.990300 0.000000
-5.977000 0.000000
-5.963700 0.000000
-5.950400 0.000000
-5.937100 0.000000
-5.923700 0.000000
-5.910400 0.000000
-5.897100 0.000000
-5.883800 0.000000
-5.870500 0.000000
-5.857200 0.000000
-5.843900 0.000000
-5.830500 0.000000
-5.817200 0.000000
-5.803900 0.000000
-5.790600 0.000000
-5.777300 0.000000
-5.764000 0.000000
-5.750700 0.000000
-5.737400 0.000000
-5.724000 0.000000
-5.710700 0.000000
-5.697400 0.000000
-5.684100 0.000000
-5.670800 0.000000
-5.657500 0.000000
-5.644200 0.000000
-5.630900 0.000000
-5.617500 0.000000
-5.604200 0.000000
-5.590900 0.000000
-5.577600 0.000000
-5.564300 0.000000
-5.551000 0.000000
-5.537700 0.000000
-5.524400 0.000000
-5.511000 0.000000
-5.497700 0.000000
-5.484400 0.000000
-5.471100 0.000000
-5.457800 0.000000
-5.444500 0.000000
-5.431200 0.000000
-5.417800 0.000000
-5.404500 0.000000
-5.391200 0.000000
-5.377900 0.000000
-5.364600 0.000000
-5.351300 0.000000
-5.338000 0.000000
-5.324700 0.000000
-5.311300 0.000000
-5.298000 0.000000
-5.284700 0.000000
-5.271400 0.000000
-5.258100 0.000000
-5.244800 0.000000
-5.231500 0.000000
-5.218200 0.000000
-5.204800 0.000000
-5.191500 0.000000
-5.178200 0.000000
-5.164900 0.000000
-5.151600 0.000000
-5.138300 0.000000
-5.125000 0.000000
-5.111700 0.000000
-5.098300 0.000000
-5.085000 0.000000
-5.071700 0.000000
-5.058400 0.000000
-5.045100 0.000000
-5.031800 0.000000
-5.018500 0.000000
-5.005100 0.000000
-4.991800 0.000000
-4.978500 0.000000
-4.965200 0.000000
-4.951900 0.000000
-4.938600 0.000000
-4.925300 0.000000
-4.912000 0.000000
-4.898600 0.000000
-4.885300 0.000000
-4.872000 0.000000
-4.858700 0.000000
-4.845400 0.000000
-4.832100 0.000000
-4.818800 0.000000
-4.805500 0.000000
-4.792100 0.000000
-4.778800 0.000000
-4.765500 0.000000
-4.752200 0.000000
-4.738900 0.000000
-4.725600 0.000000
-4.712300 0.000000
-4.699000 0.000000
-4.685600 0.000000
-4.672300 0.000000
-4.659000 0.000000
-4.645700 0.000000
-4.632400 0.000000
-4.619100 0.000000
-4.605800 0.000000
-4.592400 0.000000
-4.579100 0.000000
-4.565800 0.000000
-4.552500 0.000000
-4.539200 0.000000
-4.525900 0.000000
-4.512600 0.000000
-4.499300 0.000000
-4.485900 0.000000
-4.472600 0.000000
-4.459300 0.000000
-4.446000 0.000000
-4.432700 0.000000
-4.419400 0.000000
-4.406100 0.000000
-4.392800 0.000000
-4.379400 0.000000
-4.366100 0.000000
-4.352800 0.000000
-4.339500 0.000000
-4.326200 0.000000
-4.312900 0.000000
-4.299600 0.000000
-4.286300 0.000000
-4.272900 0.000000
-4.259600 0.000000
-4.246300 0.000000
-4.233000 0.000000
-4.219700 0.000000
-4.206400 0.000000
-4.193100 0.000000
-4.179700 0.000000
-4.166400 0.000000
-4.153100 0.000000
-4.139800 0.000000
-4.126500 0.000000
-4.113200 0.000000
-4.099900 0.000000
-4.086600 0.000000
-4.073200 0.000000
-4.059900 0.000000
-4.046600 0.000000
-4.033300 0.000000
-4.020000 0.000000
-4.006700 0.000000
-3.993400 0.000000
-3.980100 0.000000
-3.966700 0.000000
-3.953400 0.000000
-3.940100 0.000000
-3.926800 0.000000
-3.913500 0.000000
-3.900200 0.000000
-3.886900 0.000000
-3.873600 0.000000
-3.860200 0.000000
-3.846900 0.000000
-3.833600 0.000000
-3.820300 0.000000
-3.807000 0.000000
-3.793700 0.000000
-3.780400 0.000000
-3.767000 0.000000
-3.753700 0.000000
-3.740400 0.000000
-3.727100 0.000000
-3.713800 0.000000
-3.700500 0.000000
-3.687200 0.000000
-3.673900 0.000000
-3.660500 0.000000
-3.647200 0.000000
-3.633900 0.000000
-3.620600 0.000000
-3.607300 0.000000
-3.594000 0.000000
-3.580700 0.000000
-3.567400 0.000000
-3.554000 0.000000
-3.540700 0.000000
-3.527400 0.000000
-3.514100 0.000000
-3.500800 0.000000
-3.487500 0.000000
-3.474200 0.000000
-3.460900 0.000000
-3.447500 0.000000
-3.434200 0.000000
-3.420900 0.000000
-3.407600 0.000000
-3.394300 0.000000
-3.381000 0.000000
-3.367700 0.000000
-3.354300 0.000000
-3.341000 0.000000
-3.327700 0.000000
-3.314400 0.000000
-3.301100 0.000000
-3.287800 0.000000
-3.274500 0.000000
-3.261200 0.000000
-3.247800 0.000000
-3.234500 0.000000
-3.221200 0.000000
-3.207900 0.000000
-3.194600 0.000000
-3.181300 0.000000
-3.168000 0.000000
-3.154700 0.000000
-3.141300 0.000000
-3.128000 0.000000
-3.114700 0.000000
-3.101400 0.000000
-3.088100 0.000000
-3.074800 0.000000
-3.061500 0.000000
-3.048200 0.000000
-3.034800 0.000000
-3.021500 0.000000
-3.008200 0.000000
-2.994900 0.000000
-2.981600 0.000000
-2.968300 0.000000
-2.955000 0.000000
-2.941600 0.000000
-2.928300 0.000000
-2.915000 0.000000
-2.901700 0.000000
-2.888400 0.000000
-2.875100 0.000000
-2.861800 0.000000
-2.848500 0.000000
-2.835100 0.000000
-2.821800 0.000000
-2.808500 0.000000
-2.795200 0.000000
-2.781900 0.000000
-2.768600 0.000000
-2.755300 0.000000
-2.742000 0.000000
-2.728600 0.000000
-2.715300 0.000000
-2.702000 0.000000
-2.688700 0.000000
-2.675400 0.000000
-2.662100 0.000000
-2.648800 0.000000
-2.635500 0.000000
-2.622100 0.000000
-2.608800 0.000000
-2.595500 0.000000
-2.582200 10.029100
-2.568900 11.093200
-2.555600 27.200900
-2.542300 32.448500
-2.528900 33.643500
-2.515600 38.829400
-2.502300 44.015400
-2.489000 38.771900
-2.475700 34.465700
-2.462400 31.104900
-2.449100 30.450100
-2.435800 29.795300
-2.422400 26.625500
-2.409100 21.728600
-2.395800 21.323000
-2.382500 17.717600
-2.369200 16.126100
-2.355900 16.048500
-2.342600 15.970900
-2.329300 15.893200
-2.315900 16.390900
-2.302600 17.342100
-2.289300 18.293200
-2.276000 21.690600
-2.262700 28.946300
-2.249400 25.713600
-2.236100 25.437600
-2.222800 28.165200
-2.209400 35.080200
-2.196100 7.805200
-2.182800 7.852700
-2.169500 7.900200
-2.156200 7.854200
-2.142900 7.729000
-2.129600 7.629000
-2.116200 7.530000
-2.102900 7.430900
-2.089600 7.331900
-2.076300 7.232900
-2.063000 15.093700
-2.049700 1.812700
-2.036400 1.773700
-2.023100 1.734600
-2.009700 1.695600
-1.996400 1.656600
-1.983100 3.816900
-1.969800 2.537100
-1.956500 1.257400
-1.943200 0.000000
-1.929900 0.000000
-1.916600 0.000000
-1.903200 0.000000
-1.889900 0.000000
-1.876600 0.000000
-1.863300 0.000000
-1.850000 0.000000
-1.836700 0.000000
-1.823400 0.000000
-1.810000 0.000000
-1.796700 0.000000
-1.783400 0.000000
-1.770100 0.000000
-1.756800 0.000000
-1.743500 0.000000
-1.730200 0.000000
-1.716900 0.000000
-1.703500 0.000000
-1.690200 0.000000
-1.676900 0.000000
-1.663600 0.000000
-1.650300 0.000000
-1.637000 4.619800
-1.623700 14.100000
-1.610400 10.321600
-1.597000 7.441700
-1.583700 12.171900
-1.570400 15.803600
-1.557100 19.843500
-1.543800 15.426100
-1.530500 13.299500
-1.517200 13.162800
-1.503900 13.732100
-1.490500 14.301300
-1.477200 14.870600
-1.463900 15.439900
-1.450600 16.009100
-1.437300 16.578400
-1.424000 17.147600
-1.410700 17.716900
-1.397300 18.286200
-1.384000 18.855400
-1.370700 32.641100
-1.357400 16.930800
-1.344100 91.417400
-1.330800 12.120800
-1.317500 12.281900
-1.304200 12.442900
-1.290800 12.603900
-1.277500 26.035400
-1.264200 14.365400
-1.250900 8.461700
-1.237600 12.439500
-1.224300 10.824000
-1.211000 9.208600
-1.197700 7.593100
-1.184300 6.371300
-1.171000 6.289800
-1.157700 6.208200
-1.144400 6.126700
-1.131100 6.622700
-1.117800 6.587800
-1.104500 7.757800
-1.091200 7.807500
-1.077800 9.097300
-1.064500 9.825600
-1.051200 9.966400
-1.037900 10.107200
-1.024600 10.248100
-1.011300 10.388900
-0.998000 10.529700
-0.984600 10.670500
-0.971300 10.805600
-0.958000 10.936800
-0.944700 11.068100
-0.931400 11.196200
-0.918100 11.316700
-0.904800 11.437200
-0.891500 11.557600
-0.878100 11.678100
-0.864800 11.798500
-0.851500 11.919000
-0.838200 12.039400
-0.824900 12.159900
-0.811600 12.280300
-0.798300 12.400800
-0.785000 12.521300
-0.771600 12.641700
-0.758300 13.267900
-0.745000 13.697400
-0.731700 14.126900
-0.718400 14.556400
-0.705100 14.985900
-0.691800 17.626000
-0.678500 20.262200
-0.665100 22.830000
-0.651800 23.228600
-0.638500 23.630100
-0.625200 25.343000
-0.611900 27.148000
-0.598600 28.620500
-0.585300 30.415100
-0.571900 31.076700
-0.558600 29.486800
-0.545300 29.585100
-0.532000 29.666500
-0.518700 29.716500
-0.505400 29.766400
-0.492100 28.537800
-0.478800 27.098900
-0.465400 26.858500
-0.452100 26.666100
-0.438800 26.784000
-0.425500 27.287300
-0.412200 27.885500
-0.398900 28.483800
-0.385600 29.110400
-0.372300 29.815300
-0.358900 29.656500
-0.345600 29.480500
-0.332300 30.147600
-0.319000 30.814800
-0.305700 31.482000
-0.292400 32.149200
-0.279100 30.566800
-0.265800 27.869300
-0.252400 27.312400
-0.239100 26.911100
-0.225800 24.069100
-0.212500 23.493600
-0.199200 21.725400
-0.185900 26.704100
-0.172600 21.541500
-0.159200 19.433100
-0.145900 18.953400
-0.132600 19.964500
-0.119300 19.299100
-0.106000 18.633700
-0.092700 17.968300
-0.079400 17.348200
-0.066100 16.750800
-0.052700 16.196300
-0.039400 15.637700
-0.026100 15.020100
-0.012800 14.402500
0.000500 13.799300
0.013800 13.255700
0.027100 12.740200
0.040400 12.224600
0.053800 11.947300
0.067100 11.749300
0.080400 11.597800
0.093700 11.446300
0.107000 11.294800
0.120300 11.143300
0.133600 11.919800
0.146900 12.013800
0.160300 12.107800
0.173600 12.201900
0.186900 12.295900
0.200200 13.676500
0.213500 14.499200
0.226800 16.362400
0.240100 17.741400
0.253500 19.629600
0.266800 21.517800
0.280100 23.406000
0.293400 25.294200
0.306700 26.007600
0.320000 26.611800
0.333300 26.988000
0.346600 30.657300
0.360000 33.968300
0.373300 40.088100
0.386600 46.962900
0.399900 53.581600
0.413200 61.905400
0.426500 46.190300
0.439800 43.597800
0.453100 45.929500
0.466500 51.368600
0.479800 46.791700
0.493100 46.729400
0.506400 61.618100
0.519700 23.369500
0.533000 30.529100
0.546300 30.343500
0.559600 36.707100
0.573000 37.150300
0.586300 43.636800
0.599600 47.739100
0.612900 48.594000
0.626200 53.894100
0.639500 51.710800
0.652800 42.909300
0.666200 42.213000
0.679500 63.449800
0.692800 97.955700
0.706100 44.743100
0.719400 44.774000
0.732700 44.559200
0.746000 40.729400
0.759300 43.082700
0.772700 42.347300
0.786000 39.724200
0.799300 38.319300
0.812600 32.645800
0.825900 29.927800
0.839200 26.086400
0.852500 23.371200
0.865800 20.656000
0.879200 17.972200
0.892500 20.175600
0.905800 16.289300
0.919100 24.656000
0.932400 8.595400
0.945700 21.872200
0.959000 9.644400
0.972300 0.000000
0.985700 0.000000
0.999000 0.000000
1.012300 0.000000
1.025600 0.000000
1.038900 0.000000
1.052200 0.000000
1.065500 0.000000
1.078900 0.000000
1.092200 0.000000
1.105500 0.000000
1.118800 0.000000
1.132100 0.000000
1.145400 0.000000
1.158700 0.000000
1.172000 0.000000
1.185400 0.000000
1.198700 0.000000
1.212000 0.000000
1.225300 0.000000
1.238600 0.000000
1.251900 0.000000
1.265200 0.000000
1.278500 0.000000
1.291900 0.000000
1.305200 0.000000
1.318500 0.000000
1.331800 0.000000
1.345100 0.000000
1.358400 0.000000
1.371700 0.000000
1.385000 0.000000
1.398400 0.000000
1.411700 0.000000
1.425000 0.000000
1.438300 0.000000
1.451600 0.000000
1.464900 0.000000
1.478200 0.000000
1.491600 0.000000
1.504900 0.000000
1.518200 0.000000
1.531500 0.000000
1.544800 0.000000
1.558100 0.000000
1.571400 0.000000
1.584700 0.000000
1.598100 0.000000
1.611400 0.000000
1.624700 0.000000
1.638000 0.000000
1.651300 0.000000
1.664600 0.000000
1.677900 0.000000
1.691200 0.000000
1.704600 0.000000
1.717900 0.000000
1.731200 0.000000
1.744500 0.000000
1.757800 0.000000
1.771100 0.000000
1.784400 0.000000
1.797800 0.000000
1.811100 0.000000
1.824400 0.000000
1.837700 0.000000
1.851000 0.000000
1.864300 0.000000
1.877600 0.000000
1.890900 0.000000
1.904300 0.000000
1.917600 0.000000
1.930900 0.000000
1.944200 0.000000
1.957500 0.000000
1.970800 0.000000
1.984100 0.000000
1.997400 0.000000
2.010800 0.000000
2.024100 0.000000
2.037400 0.000000
2.050700 0.000000
2.064000 0.000000
2.077300 0.000000
2.090600 0.000000
2.103900 0.000000
2.117300 0.000000
2.130600 0.000000
2.143900 0.000000
2.157200 0.000000
2.170500 0.000000
2.183800 0.000000
2.197100 0.000000
2.210500 0.000000
2.223800 0.000000
2.237100 0.000000
2.250400 0.000000
2.263700 0.000000
2.277000 0.000000
2.290300 0.000000
2.303600 0.000000
2.317000 0.000000
2.330300 0.000000
2.343600 0.000000
2.356900 0.000000
2.370200 0.000000
2.383500 0.000000
2.396800 0.000000
2.410100 0.000000
2.423500 0.000000
2.436800 0.000000
2.450100 0.000000
2.463400 0.000000
2.476700 0.000000
2.490000 0.000000
2.503300 0.000000
2.516600 0.000000
2.530000 0.000000
2.543300 0.000000
2.556600 0.000000
2.569900 0.000000
2.583200 0.000000
2.596500 0.000000
2.609800 0.000000
2.623200 0.000000
2.636500 0.000000
2.649800 0.000000
2.663100 0.000000
2.676400 0.000000
2.689700 0.000000
2.703000 0.000000
2.716300 0.000000
2.729700 0.000000
2.743000 0.000000
2.756300 0.000000
2.769600 0.000000
2.782900 0.000000
2.796200 0.000000
2.809500 0.000000
2.822800 0.000000
2.836200 0.000000
2.849500 0.000000
2.862800 0.000000
2.876100 0.000000
2.889400 0.000000
2.902700 0.000000
2.916000 0.000000
2.929300 0.000000
2.942700 0.000000
2.956000 0.000000
2.969300 0.000000
2.982600 0.000000
2.995900 0.000000
3.009200 0.000000
3.022500 0.000000
3.035900 0.000000
3.049200 0.000000
3.062500 0.000000
3.075800 0.000000
3.089100 0.000000
3.102400 0.000000
3.115700 0.000000
3.129000 0.000000
3.142400 0.000000
3.155700 0.000000
3.169000 0.000000
3.182300 0.000000
3.195600 0.000000
3.208900 0.000000
3.222200 0.000000
3.235500 0.000000
3.248900 0.000000
3.262200 0.000000
3.275500 0.000000
3.288800 0.000000
3.302100 0.000000
3.315400 0.000000
3.328700 0.000000
3.342000 0.000000
3.355400 0.000000
3.368700 0.000000
3.382000 0.000000
3.395300 0.887300
3.408600 0.931900
3.421900 0.976500
3.435200 1.021100
3.448600 2.014300
3.461900 3.058500
3.475200 3.172900
3.488500 3.287300
3.501800 3.401700
3.515100 3.516100
3.528400 3.630500
3.541700 3.744900
3.555100 6.075600
3.568400 6.251300
3.581700 6.427000
3.595000 6.602800
3.608300 7.998400
3.621600 8.231700
3.634900 8.465100
3.648200 8.698400
3.661600 8.931800
3.674900 9.171500
3.688200 9.465300
3.701500 9.759100
3.714800 10.109800
3.728100 10.550000
3.741400 10.990300
3.754700 11.430600
3.768100 11.870900
3.781400 12.430300
3.794700 13.062900
3.808000 13.729200
3.821300 14.467200
3.834600 15.205200
3.847900 15.943300
3.861300 16.681300
3.874600 20.170700
3.887900 20.781500
3.901200 21.230400
3.914500 25.338400
3.927800 28.734300
3.941100 27.854800
3.954400 26.893700
3.967800 26.172500
3.981100 24.820200
3.994400 22.807400
4.007700 32.687400
4.021000 26.421500
4.034300 20.399400
4.047600 25.528700
4.060900 19.614500
4.074300 18.964200
4.087600 18.087000
4.100900 17.209800
4.114200 16.332600
4.127500 15.455400
4.140800 14.578200
4.154100 13.701100
4.167400 12.823900
4.180800 11.946700
4.194100 11.193300
4.207400 10.481200
4.220700 9.769100
4.234000 9.226500
4.247300 25.730800
4.260600 2.913700
4.274000 3.093900
4.287300 3.972400
4.300600 4.850900
4.313900 5.729300
4.327200 0.000000
4.340500 0.000000
4.353800 0.000000
4.367100 0.000000
4.380500 0.000000
4.393800 0.000000
4.407100 0.000000
4.420400 0.000000
4.433700 0.000000
4.447000 0.000000
4.460300 0.000000
4.473600 0.000000
4.487000 0.000000
4.500300 0.000000
4.513600 0.000000
4.526900 0.000000
4.540200 0.000000
4.553500 0.000000
4.566800 0.000000
4.580100 0.000000
4.593500 0.000000
4.606800 0.000000
4.620100 0.000000
4.633400 0.000000
4.646700 0.000000
4.660000 0.000000
4.673300 0.000000
4.686700 0.000000
4.700000 0.000000
4.713300 0.000000
4.726600 0.000000
4.739900 0.000000
4.753200 0.000000
4.766500 0.000000
4.779800 0.000000
4.793200 0.000000
4.806500 0.000000
4.819800 0.000000
4.833100 0.000000
4.846400 0.000000
4.859700 0.000000
4.873000 0.000000
4.886300 0.000000
4.899700 0.000000
4.913000 0.000000
4.926300 0.000000
4.939600 0.000000
4.952900 0.000000
4.966200 0.000000
4.979500 0.000000
4.992800 0.000000
5.006200 0.000000
5.019500 0.000000
5.032800 0.000000
5.046100 0.000000
5.059400 0.000000
5.072700 0.000000
5.086000 0.000000
5.099400 0.000000
5.112700 0.000000
5.126000 0.000000
5.139300 0.000000
5.152600 0.000000
5.165900 0.000000
5.179200 0.000000
5.192500 0.000000
5.205900 0.000000
5.219200 0.000000
5.232500 0.000000
5.245800 0.000000
5.259100 0.000000
5.272400 0.000000
5.285700 0.000000
5.299000 0.000000
5.312400 0.000000
5.325700 0.000000
5.339000 0.000000
5.352300 0.000000
5.365600 0.000000
5.378900 0.000000
5.392200 0.000000
5.405500 0.000000
5.418900 0.000000
5.432200 0.000000
5.445500 0.000000
5.458800 0.000000
5.472100 0.000000
5.485400 0.013700
5.498700 0.070300
5.512100 0.127600
5.525400 0.184900
5.538700 0.242200
5.552000 0.299400
5.565300 0.356700
5.578600 0.414000
5.591900 0.471300
5.605200 0.528500
5.618600 0.585800
5.631900 0.643100
5.645200 0.700400
5.658500 0.757700
5.671800 0.814900
5.685100 0.872200
5.698400 0.929500
5.711700 0.986800
5.725100 1.044000
5.738400 1.101300
5.751700 1.158600
5.765000 1.215900
5.778300 1.273100
5.791600 1.330400
5.804900 1.387700
5.818300 1.445000
5.831600 1.502300
5.844900 1.559500
5.858200 1.616800
5.871500 1.674100
5.884800 1.731400
5.898100 1.788600
5.911400 1.845900
5.924800 1.903200
5.938100 1.960500
5.951400 3.602300
5.964700 3.824000
5.978000 4.045600
5.991300 4.267200
6.004600 4.488800
6.017900 5.289400
6.031300 6.432600
6.044600 7.010100
6.057900 8.641200
6.071200 10.221700
6.084500 10.193900
6.097800 10.248200
6.111100 10.244000
6.124400 10.269000
6.137800 10.277000
6.151100 10.284900
6.164400 10.292900
6.177700 10.892600
6.191000 11.564500
6.204300 11.750600
6.217600 11.936800
6.231000 12.122900
6.244300 12.309000
6.257600 12.495200
6.270900 13.254400
6.284200 13.491400
6.297500 13.728400
6.310800 13.965500
6.324100 14.202500
6.337500 14.424300
6.350800 14.393600
6.364100 14.350500
6.377400 14.307500
6.390700 14.264400
6.404000 14.221300
6.417300 14.178200
6.430600 19.270600
6.444000 18.652100
6.457300 18.033500
6.470600 17.029500
6.483900 22.302600
6.497200 27.920400
6.510500 22.548200
6.523800 17.023400
6.537100 15.839600
6.550500 15.349000
6.563800 14.858400
6.577100 14.367800
6.590400 11.949900
6.603700 11.686100
6.617000 11.422400
6.630300 11.158600
6.643700 11.693600
6.657000 12.958100
6.670300 14.326100
6.683600 15.697700
6.696900 11.849700
6.710200 8.975900
6.723500 9.914300
6.736800 9.595700
6.750200 8.204200
6.763500 7.993500
6.776800 10.437100
6.790100 12.443900
6.803400 11.955200
6.816700 11.466400
6.830000 10.977600
6.843300 10.506700
6.856700 10.236500
6.870000 9.966300
6.883300 9.696100
6.896600 9.428800
6.909900 9.373200
6.923200 9.633500
6.936500 9.469000
6.949800 9.304500
6.963200 13.035200
6.976500 15.853600
6.989800 15.027000
7.003100 13.542400
7.016400 12.779700
7.029700 12.017000
7.043000 10.635700
7.056400 10.145000
7.069700 13.579000
7.083000 16.627200
7.096300 22.113700
7.109600 20.599000
7.122900 23.753200
7.136200 27.619500
7.149500 23.240200
7.162900 18.861000
7.176200 25.669900
7.189500 29.107100
7.202800 33.226300
7.216100 37.409000
7.229400 16.774100
7.242700 17.142400
7.256000 22.249300
7.269400 31.812200
7.282700 28.635900
7.296000 21.407400
7.309300 17.888300
7.322600 18.582700
7.335900 19.718800
7.349200 24.222500
7.362500 20.379500
7.375900 20.806800
7.389200 18.173100
7.402500 20.763500
7.415800 23.354000
7.429100 28.753800
7.442400 29.533500
7.455700 25.477200
7.469100 22.378000
7.482400 20.537800
7.495700 18.697500
7.509000 17.209200
7.522300 16.770200
7.535600 18.029500
7.548900 16.714600
7.562200 19.707300
7.575600 18.935200
7.588900 18.693900
7.602200 18.768700
7.615500 21.748200
7.628800 25.054000
7.642100 28.782100
7.655400 30.469700
7.668700 29.890500
7.682100 31.535100
7.695400 30.705800
7.708700 28.944200
7.722000 30.825900
7.735300 32.956900
7.748600 34.484200
7.761900 36.350700
7.775200 32.605400
7.788600 29.829900
7.801900 29.975400
7.815200 27.968200
7.828500 26.527100
7.841800 25.086100
7.855100 26.592300
7.868400 25.230000
7.881800 23.726300
7.895100 18.421200
7.908400 22.376400
7.921700 21.673500
7.935000 21.879700
7.948300 19.592100
7.961600 24.235500
7.974900 23.679700
7.988300 23.123900
8.001600 22.355100
8.014900 21.878200
8.028200 20.472000
8.041500 20.113900
8.054800 19.911600
8.068100 22.675700
8.081400 22.475600
8.094800 22.275500
8.108100 22.062800
8.121400 21.732400
8.134700 21.402000
8.148000 21.076600
8.161300 20.768500
8.174600 20.460400
8.187900 22.843400
8.201300 25.007500
8.214600 23.730100
8.227900 24.381600
8.241200 24.584800
8.254500 22.094000
8.267800 20.364200
8.281100 19.959600
8.294500 23.210300
8.307800 20.503800
8.321100 17.926800
8.334400 15.574900
8.347700 13.681100
8.361000 12.032600
8.374300 12.201800
8.387600 12.400000
8.401000 12.598200
8.414300 11.315500
8.427600 9.451200
8.440900 9.155200
8.454200 8.859200
8.467500 8.563200
8.480800 8.267200
8.494100 7.971200
8.507500 7.675200
8.520800 7.379200
8.534100 7.083200
8.547400 6.787200
8.560700 6.189600
8.574000 6.065200
8.587300 5.573400
8.600600 5.468300
8.614000 5.363100
8.627300 5.258000
8.640600 4.827400
8.653900 4.863600
8.667200 4.915800
8.680500 6.198500
8.693800 8.622100
8.707200 11.820300
8.720500 7.677200
8.733800 8.991500
8.747100 5.400700
8.760400 5.922800
8.773700 6.534100
8.787000 4.260500
8.800300 4.734800
8.813700 5.219000
8.827000 6.734100
8.840300 8.375100
8.853600 9.296500
8.866900 10.193900
8.880200 10.806100
8.893500 10.901900
8.906800 10.997600
8.920200 14.530300
8.933500 9.730900
8.946800 9.680400
8.960100 9.588100
8.973400 9.587500
8.986700 9.977900
9.000000 10.368200
9.013300 10.758500
9.026700 11.148800
9.040000 14.993400
9.053300 14.738000
9.066600 14.482700
9.079900 18.085000
9.093200 18.090700
9.106500 17.412600
9.119900 17.005700
9.133200 18.809600
9.146500 18.623200
9.159800 18.934900
9.173100 20.276300
9.186400 20.529500
9.199700 20.191400
9.213000 19.853300
9.226400 19.515200
9.239700 24.303200
9.253000 17.101300
9.266300 15.606600
9.279600 14.501900
9.292900 12.734500
9.306200 13.101300
9.319500 12.991900
9.332900 12.882600
9.346200 17.745000
9.359500 18.694400
9.372800 23.661300
9.386100 37.862200
9.399400 26.721900
9.412700 28.846500
9.426000 30.971100
9.439400 28.284200
9.452700 25.059800
9.466000 23.381800
9.479300 18.083000
9.492600 17.250100
9.505900 16.424000
9.519200 15.680100
9.532600 16.640600
9.545900 19.037800
9.559200 21.564200
9.572500 17.875000
9.585800 18.960800
9.599100 20.339500
9.612400 21.718200
9.625700 23.709800
9.639100 20.585000
9.652400 20.202400
9.665700 19.982500
9.679000 19.762600
9.692300 17.972600
9.705600 18.222500
9.718900 18.553200
9.732200 16.846100
9.745600 17.485700
9.758900 18.150900
9.772200 16.812700
9.785500 17.884500
9.798800 19.221500
9.812100 20.677300
9.825400 19.719700
9.838800 20.998200
9.852100 22.336500
9.865400 17.659400
9.878700 15.280900
9.892000 15.226200
9.905300 15.976800
9.918600 17.002100
9.931900 16.965500
9.945300 18.264200
9.958600 19.563000
9.971900 21.105100
9.985200 19.996000
9.998500 22.026800
10.011800 24.057600
10.025100 18.786800
10.038400 21.517900
10.051800 13.750800
10.065100 14.477900
10.078400 15.000700
10.091700 15.523500
10.105000 16.046300
10.118300 16.569100
10.131600 14.982400
10.144900 17.218300
10.158300 18.472200
10.171600 19.614700
10.184900 20.757100
10.198200 16.986700
10.211500 15.664900
10.224800 17.981300
10.238100 19.383300
10.251500 13.978500
10.264800 13.854200
10.278100 13.730000
10.291400 13.935900
10.304700 13.889200
10.318000 13.844900
10.331300 13.865600
10.344600 13.886200
10.358000 13.906900
10.371300 12.456800
10.384600 13.381300
10.397900 13.363400
10.411200 13.345600
10.424500 13.327800
10.437800 13.326200
10.451100 14.230500
10.464500 14.258100
10.477800 14.729000
10.491100 14.850300
10.504400 14.971600
10.517700 15.092800
10.531000 15.214100
10.544300 15.359800
10.557600 13.211400
10.571000 13.234400
10.584300 13.272800
10.597600 13.628500
10.610900 13.748800
10.624200 13.871300
10.637500 14.006300
10.650800 12.999600
10.664200 13.113800
10.677500 13.227900
10.690800 13.350700
10.704100 13.498800
10.717400 11.925500
10.730700 11.768500
10.744000 11.635200
10.757300 11.711400
10.770700 11.817700
10.784000 11.888400
10.797300 11.923900
10.810600 11.959500
10.823900 12.005400
10.837200 12.057700
10.850500 9.835400
10.863800 9.858800
10.877200 9.904600
10.890500 11.687900
10.903800 11.843300
10.917100 13.490100
10.930400 13.697100
10.943700 15.097900
10.957000 15.131700
10.970300 15.165600
10.983700 15.199400
10.997000 15.677000
11.010300 15.630700
11.023600 15.385200
11.036900 15.139700
11.050200 14.903600
11.063500 14.668200
11.076900 14.527800
11.090200 14.348500
11.103500 14.186600
11.116800 15.767600
11.130100 16.902400
11.143400 16.546400
11.156700 16.177800
11.170000 15.809200
11.183400 15.440500
11.196700 16.440900
11.210000 16.071700
11.223300 15.805300
11.236600 15.541500
11.249900 15.979000
11.263200 16.414700
11.276500 16.090800
11.289900 15.777200
11.303200 15.477800
11.316500 15.188900
11.329800 14.616500
11.343100 14.416900
11.356400 14.189300
11.369700 14.517500
11.383000 14.224500
11.396400 14.706000
11.409700 14.359300
11.423000 14.012600
11.436300 13.694800
11.449600 13.989000
11.462900 13.704200
11.476200 13.427500
11.489600 12.876000
11.502900 12.158700
11.516200 15.194300
11.529500 14.408200
11.542800 14.943600
11.556100 20.918800
11.569400 18.235200
11.582700 15.551700
11.596100 15.528700
11.609400 15.562800
11.622700 19.175900
11.636000 18.778400
11.649300 18.390400
11.662600 17.984000
11.675900 18.507400
11.689200 18.761600
11.702600 19.035200
11.715900 17.878000
11.729200 18.160700
11.742500 17.967600
11.755800 16.867800
11.769100 16.589000
11.782400 14.986400
11.795700 14.143200
11.809100 14.239900
11.822400 15.733400
11.835700 16.559700
11.849000 17.314300
11.862300 18.068900
11.875600 18.911600
11.888900 15.693900
11.902300 15.943000
11.915600 23.381800
11.928900 16.436700
11.942200 16.120000
11.955500 16.961200
11.968800 17.290000
11.982100 17.618800
11.995400 17.947500
12.008800 18.276300
12.022100 18.757200
12.035400 17.890100
12.048700 17.186700
12.062000 17.668800
12.075300 18.016700
12.088600 16.799400
12.101900 16.958900
12.115300 17.118500
12.128600 17.278000
12.141900 15.520800
12.155200 15.466900
12.168500 27.265100
12.181800 18.388800
12.195100 14.260600
12.208400 14.129700
12.221800 14.537200
12.235100 14.469200
12.248400 14.575400
12.261700 16.007800
12.275000 15.477100
12.288300 15.507200
12.301600 15.563500
12.315000 15.501100
12.328300 15.438600
12.341600 15.376200
12.354900 16.551000
12.368200 16.830400
12.381500 17.057800
12.394800 15.486600
12.408100 15.813200
12.421500 16.413800
12.434800 16.250900
12.448100 16.088100
12.461400 15.925300
12.474700 15.762500
12.488000 15.677900
12.501300 15.616400
12.514600 15.554800
12.528000 15.493200
12.541300 14.850200
12.554600 14.384600
12.567900 13.919000
12.581200 13.453400
12.594500 13.702100
12.607800 14.398700
12.621100 14.306700
12.634500 14.255700
12.647800 14.204700
12.661100 14.153700
12.674400 13.139900
12.687700 13.749200
12.701000 13.401500
12.714300 13.053900
12.727700 13.691500
12.741000 13.717200
12.754300 14.049400
12.767600 14.381600
12.780900 13.235600
12.794200 12.780700
12.807500 12.325900
12.820800 12.921100
12.834200 14.808300
12.847500 15.146800
12.860800 17.489900
12.874100 17.171300
12.887400 16.402000
12.900700 15.632600
12.914000 15.056200
12.927300 16.781900
12.940700 16.966800
12.954000 15.743800
12.967300 16.559300
12.980600 14.989000
12.993900 12.710600
13.007200 11.818400
13.020500 10.926100
13.033800 10.033900
13.047200 8.453100
13.060500 8.293600
13.073800 8.013500
13.087100 7.662800
13.100400 7.250000
13.113700 6.837300
13.127000 6.424600
13.140400 21.173600
13.153700 9.225900
13.167000 8.627300
13.180300 8.028600
13.193600 7.429900
13.206900 6.831300
13.220200 5.476300
13.233500 5.103900
13.246900 4.731600
13.260200 4.359200
13.273500 3.986800
13.286800 2.699600
13.300100 2.519600
13.313400 2.339500
13.326700 2.159400
13.340000 1.979400
13.353400 1.799300
13.366700 1.619200
13.380000 1.439100
13.393300 1.259100
13.406600 0.000000
13.419900 0.000000
13.433200 0.000000
13.446500 0.000000
13.459900 0.000000
13.473200 0.000000
13.486500 0.000000
13.499800 0.000000
13.513100 0.000000
13.526400 0.000000
13.539700 0.000000
13.553100 0.000000
13.566400 0.000000
13.579700 0.000000
13.593000 0.000000
13.606300 0.000000
13.619600 0.000000
13.632900 0.000000
13.646200 0.000000
13.659600 0.000000
13.672900 0.000000
13.686200 0.000000
13.699500 0.000000
13.712800 0.000000
13.726100 0.000000
13.739400 0.000000
13.752700 0.000000
13.766100 0.000000
13.779400 0.000000
13.792700 0.000000
13.806000 0.000000
13.819300 0.000000
13.832600 0.000000
13.845900 0.000000
13.859300 0.000000
13.872600 0.000000
13.885900 0.000000
13.899200 0.000000
13.912500 0.000000
13.925800 0.000000
13.939100 0.000000
13.952400 0.000000
13.965800 0.000000
13.979100 0.000000
13.992400 0.000000
14.005700 0.000000
14.019000 0.000000
14.032300 0.000000
14.045600 0.000000
14.058900 0.000000
14.072300 0.000000
14.085600 0.000000
14.098900 0.000000
14.112200 0.000000
14.125500 0.000000
14.138800 0.000000
14.152100 0.000000
14.165400 0.000000
14.178800 0.000000
14.192100 0.000000
14.205400 0.000000
14.218700 0.000000
14.232000 0.000000
14.245300 0.000000
14.258600 0.000000
14.272000 0.000000
14.285300 0.000000
14.298600 0.000000
14.311900 0.000000
14.325200 0.000000
14.338500 0.000000
14.351800 0.000000
14.365100 0.000000
14.378500 0.000000
14.391800 0.000000
14.405100 0.000000
14.418400 0.000000
14.431700 0.000000
14.445000 0.000000
14.458300 0.000000
14.471600 0.000000
14.485000 0.000000
14.498300 0.000000
14.511600 0.000000
14.524900 0.000000
14.538200 0.000000
14.551500 0.000000
14.564800 0.000000
14.578100 0.000000
14.591500 0.000000
14.604800 0.000000
e
