set title 'mp-567336 - Density of States'
set xlabel 'Energy (eV)'
set ylabel 'DOS (states/eV)'
set grid
set xrange [-10:10]
set yrange [0:267.946]
set xzeroaxis lt -1
set terminal png size 800,600
set output 'mp-567336_dos_gnuplot.png'
plot '-' using 1:2 with lines title 'DOS'
-12.108300 0.000000
-12.094900 0.000000
-12.081500 0.000000
-12.068100 0.000000
-12.054700 0.000000
-12.041300 0.000000
-12.027900 0.000000
-12.014500 0.000000
-12.001100 0.000000
-11.987700 0.000000
-11.974200 0.000000
-11.960800 0.000000
-11.947400 0.000000
-11.934000 0.000000
-11.920600 0.000000
-11.907200 0.000000
-11.893800 0.000000
-11.880400 0.000000
-11.867000 0.000000
-11.853600 0.000000
-11.840200 0.000000
-11.826800 0.000000
-11.813400 0.000000
-11.800000 0.000000
-11.786600 0.000000
-11.773100 0.000000
-11.759700 0.000000
-11.746300 0.000000
-11.732900 0.000000
-11.719500 0.000000
-11.706100 0.000000
-11.692700 0.000000
-11.679300 0.000000
-11.665900 0.000000
-11.652500 0.000000
-11.639100 0.000000
-11.625700 0.000000
-11.612300 0.000000
-11.598900 0.000000
-11.585400 0.000000
-11.572000 0.000000
-11.558600 0.000000
-11.545200 0.000000
-11.531800 0.000000
-11.518400 0.000000
-11.505000 0.000000
-11.491600 0.000000
-11.478200 0.000000
-11.464800 0.000000
-11.451400 0.000000
-11.438000 0.000000
-11.424600 0.000000
-11.411200 0.000000
-11.397800 0.000000
-11.384300 0.000000
-11.370900 0.000000
-11.357500 0.000000
-11.344100 0.000000
-11.330700 0.000000
-11.317300 0.000000
-11.303900 0.000000
-11.290500 0.000000
-11.277100 0.000000
-11.263700 0.000000
-11.250300 0.000000
-11.236900 0.000000
-11.223500 0.000000
-11.210100 0.000000
-11.196600 0.000000
-11.183200 0.000000
-11.169800 0.000000
-11.156400 0.000000
-11.143000 0.000000
-11.129600 0.000000
-11.116200 0.000000
-11.102800 0.000000
-11.089400 0.000000
-11.076000 0.000000
-11.062600 0.000000
-11.049200 0.000000
-11.035800 0.000000
-11.022400 0.000000
-11.009000 0.000000
-10.995500 0.000000
-10.982100 0.000000
-10.968700 0.000000
-10.955300 0.000000
-10.941900 0.000000
-10.928500 0.000000
-10.915100 0.000000
-10.901700 0.000000
-10.888300 0.044000
-10.874900 0.528100
-10.861500 1.012100
-10.848100 1.496200
-10.834700 1.980200
-10.821300 2.464300
-10.807800 2.948300
-10.794400 1.792000
-10.781000 1.860100
-10.767600 2.034700
-10.754200 3.066100
-10.740800 4.118000
-10.727400 5.169900
-10.714000 6.221700
-10.700600 7.273600
-10.687200 7.020100
-10.673800 6.034100
-10.660400 6.254500
-10.647000 6.496200
-10.633600 7.215400
-10.620200 7.955800
-10.606700 8.696100
-10.593300 9.433700
-10.579900 10.171300
-10.566500 10.908900
-10.553100 10.004100
-10.539700 10.380100
-10.526300 10.803100
-10.512900 11.226100
-10.499500 11.649100
-10.486100 12.088500
-10.472700 12.549500
-10.459300 14.502900
-10.445900 15.724400
-10.432500 19.406600
-10.419000 32.897900
-10.405600 30.568200
-10.392200 31.317600
-10.378800 29.403000
-10.365400 25.674700
-10.352000 53.241000
-10.338600 37.093900
-10.325200 20.774800
-10.311800 25.444500
-10.298400 51.560500
-10.285000 44.256700
-10.271600 43.126700
-10.258200 43.792500
-10.244800 77.708500
-10.231400 99.874400
-10.217900 54.862200
-10.204500 9.368300
-10.191100 9.224200
-10.177700 22.192000
-10.164300 20.616900
-10.150900 20.363000
-10.137500 21.988000
-10.124100 35.799500
-10.110700 269.556000
-10.097300 22.916000
-10.083900 0.000000
-10.070500 0.000000
-10.057100 0.000000
-10.043700 0.000000
-10.030200 0.000000
-10.016800 0.000000
-10.003400 0.000000
-9.990000 0.000000
-9.976600 0.000000
-9.963200 0.000000
-9.949800 0.000000
-9.936400 0.000000
-9.923000 0.000000
-9.909600 0.000000
-9.896200 0.000000
-9.882800 0.000000
-9.869400 0.000000
-9.856000 0.000000
-9.842600 0.000000
-9.829100 0.000000
-9.815700 0.000000
-9.802300 0.000000
-9.788900 0.000000
-9.775500 0.000000
-9.762100 0.000000
-9.748700 0.000000
-9.735300 0.000000
-9.721900 0.000000
-9.708500 0.000000
-9.695100 0.000000
-9.681700 0.000000
-9.668300 0.000000
-9.654900 0.000000
-9.641400 0.000000
-9.628000 0.000000
-9.614600 0.000000
-9.601200 0.000000
-9.587800 0.000000
-9.574400 0.000000
-9.561000 0.000000
-9.547600 0.000000
-9.534200 0.000000
-9.520800 0.000000
-9.507400 0.000000
-9.494000 0.000000
-9.480600 0.000000
-9.467200 0.000000
-9.453800 0.000000
-9.440300 0.000000
-9.426900 0.000000
-9.413500 0.000000
-9.400100 0.000000
-9.386700 0.000000
-9.373300 0.000000
-9.359900 0.000000
-9.346500 0.000000
-9.333100 0.000000
-9.319700 0.000000
-9.306300 0.000000
-9.292900 0.000000
-9.279500 0.000000
-9.266100 0.000000
-9.252600 0.000000
-9.239200 0.000000
-9.225800 0.000000
-9.212400 0.000000
-9.199000 0.000000
-9.185600 0.000000
-9.172200 0.000000
-9.158800 0.000000
-9.145400 0.000000
-9.132000 0.000000
-9.118600 0.000000
-9.105200 0.000000
-9.091800 0.000000
-9.078400 0.000000
-9.065000 0.000000
-9.051500 0.000000
-9.038100 0.000000
-9.024700 0.000000
-9.011300 0.000000
-8.997900 0.000000
-8.984500 0.000000
-8.971100 0.000000
-8.957700 0.000000
-8.944300 0.000000
-8.930900 0.000000
-8.917500 0.000000
-8.904100 0.000000
-8.890700 0.000000
-8.877300 0.000000
-8.863800 0.000000
-8.850400 0.000000
-8.837000 0.000000
-8.823600 0.000000
-8.810200 0.000000
-8.796800 0.000000
-8.783400 0.000000
-8.770000 0.000000
-8.756600 0.000000
-8.743200 0.000000
-8.729800 0.000000
-8.716400 0.000000
-8.703000 0.000000
-8.689600 0.000000
-8.676200 0.000000
-8.662700 0.000000
-8.649300 0.000000
-8.635900 0.000000
-8.622500 0.000000
-8.609100 0.000000
-8.595700 0.000000
-8.582300 0.000000
-8.568900 0.000000
-8.555500 0.000000
-8.542100 0.000000
-8.528700 0.000000
-8.515300 0.000000
-8.501900 0.000000
-8.488500 0.000000
-8.475000 0.000000
-8.461600 0.000000
-8.448200 0.000000
-8.434800 0.000000
-8.421400 0.000000
-8.408000 0.000000
-8.394600 0.000000
-8.381200 0.000000
-8.367800 0.000000
-8.354400 0.000000
-8.341000 0.000000
-8.327600 0.000000
-8.314200 0.000000
-8.300800 0.000000
-8.287400 0.000000
-8.273900 0.000000
-8.260500 0.000000
-8.247100 0.000000
-8.233700 0.000000
-8.220300 0.000000
-8.206900 0.000000
-8.193500 0.000000
-8.180100 0.000000
-8.166700 0.000000
-8.153300 0.000000
-8.139900 0.000000
-8.126500 0.000000
-8.113100 0.000000
-8.099700 0.000000
-8.086200 0.000000
-8.072800 0.000000
-8.059400 0.000000
-8.046000 0.000000
-8.032600 0.000000
-8.019200 0.000000
-8.005800 0.000000
-7.992400 0.000000
-7.979000 0.000000
-7.965600 0.000000
-7.952200 0.000000
-7.938800 0.000000
-7.925400 0.000000
-7.912000 0.000000
-7.898600 0.000000
-7.885100 0.000000
-7.871700 0.000000
-7.858300 0.000000
-7.844900 0.000000
-7.831500 0.000000
-7.818100 0.000000
-7.804700 0.000000
-7.791300 0.000000
-7.777900 0.000000
-7.764500 0.000000
-7.751100 0.000000
-7.737700 0.000000
-7.724300 0.000000
-7.710900 0.000000
-7.697400 0.000000
-7.684000 0.000000
-7.670600 0.000000
-7.657200 0.000000
-7.643800 0.000000
-7.630400 0.000000
-7.617000 0.000000
-7.603600 0.000000
-7.590200 0.000000
-7.576800 0.000000
-7.563400 0.000000
-7.550000 0.000000
-7.536600 0.000000
-7.523200 0.000000
-7.509800 0.000000
-7.496300 0.000000
-7.482900 0.000000
-7.469500 0.000000
-7.456100 0.000000
-7.442700 0.000000
-7.429300 0.000000
-7.415900 0.000000
-7.402500 0.000000
-7.389100 0.000000
-7.375700 0.000000
-7.362300 0.000000
-7.348900 0.000000
-7.335500 0.000000
-7.322100 0.000000
-7.308600 0.000000
-7.295200 0.000000
-7.281800 0.000000
-7.268400 0.000000
-7.255000 0.000000
-7.241600 0.000000
-7.228200 0.000000
-7.214800 0.000000
-7.201400 0.000000
-7.188000 0.000000
-7.174600 0.000000
-7.161200 0.000000
-7.147800 0.000000
-7.134400 0.000000
-7.121000 0.000000
-7.107500 0.000000
-7.094100 0.000000
-7.080700 0.000000
-7.067300 0.000000
-7.053900 0.000000
-7.040500 0.000000
-7.027100 0.000000
-7.013700 0.000000
-7.000300 0.000000
-6.986900 0.000000
-6.973500 0.000000
-6.960100 0.000000
-6.946700 0.000000
-6.933300 0.000000
-6.919800 0.000000
-6.906400 0.000000
-6.893000 0.000000
-6.879600 0.000000
-6.866200 0.000000
-6.852800 0.000000
-6.839400 0.000000
-6.826000 0.000000
-6.812600 0.000000
-6.799200 0.000000
-6.785800 0.000000
-6.772400 0.000000
-6.759000 0.000000
-6.745600 0.000000
-6.732200 0.000000
-6.718700 0.000000
-6.705300 0.000000
-6.691900 0.000000
-6.678500 0.000000
-6.665100 0.000000
-6.651700 0.000000
-6.638300 0.720300
-6.624900 17.702900
-6.611500 31.437100
-6.598100 43.886500
-6.584700 25.260200
-6.571300 16.284200
-6.557900 15.442200
-6.544500 14.600300
-6.531000 63.995700
-6.517600 42.795700
-6.504200 53.287300
-6.490800 57.877400
-6.477400 130.037200
-6.464000 161.191700
-6.450600 167.939800
-6.437200 73.854900
-6.423800 98.178300
-6.410400 54.142400
-6.397000 172.258200
-6.383600 71.685000
-6.370200 87.623500
-6.356800 81.026300
-6.343400 100.724400
-6.329900 243.587600
-6.316500 92.187300
-6.303100 89.619200
-6.289700 143.474700
-6.276300 93.167600
-6.262900 43.554300
-6.249500 49.508500
-6.236100 49.766000
-6.222700 41.318300
-6.209300 108.069000
-6.195900 151.486700
-6.182500 30.461600
-6.169100 101.191900
-6.155700 10.185100
-6.142200 17.832200
-6.128800 15.515800
-6.115400 13.199500
-6.102000 10.883200
-6.088600 37.778900
-6.075200 0.000000
-6.061800 0.000000
-6.048400 0.000000
-6.035000 0.000000
-6.021600 0.000000
-6.008200 0.000000
-5.994800 0.000000
-5.981400 0.000000
-5.968000 0.000000
-5.954600 0.000000
-5.941100 0.000000
-5.927700 0.000000
-5.914300 0.000000
-5.900900 0.000000
-5.887500 0.000000
-5.874100 0.000000
-5.860700 0.000000
-5.847300 0.000000
-5.833900 0.000000
-5.820500 0.000000
-5.807100 0.000000
-5.793700 0.000000
-5.780300 0.000000
-5.766900 0.000000
-5.753500 0.000000
-5.740000 0.000000
-5.726600 0.000000
-5.713200 0.000000
-5.699800 0.000000
-5.686400 0.000000
-5.673000 0.000000
-5.659600 0.000000
-5.646200 0.000000
-5.632800 0.000000
-5.619400 0.000000
-5.606000 0.000000
-5.592600 0.000000
-5.579200 0.000000
-5.565800 0.000000
-5.552300 0.000000
-5.538900 0.000000
-5.525500 0.000000
-5.512100 0.000000
-5.498700 0.000000
-5.485300 0.000000
-5.471900 0.000000
-5.458500 0.000000
-5.445100 0.000000
-5.431700 0.000000
-5.418300 0.000000
-5.404900 0.000000
-5.391500 0.000000
-5.378100 0.000000
-5.364700 0.000000
-5.351200 0.000000
-5.337800 0.000000
-5.324400 0.000000
-5.311000 0.000000
-5.297600 0.000000
-5.284200 0.000000
-5.270800 0.000000
-5.257400 0.000000
-5.244000 0.000000
-5.230600 0.000000
-5.217200 0.000000
-5.203800 0.000000
-5.190400 0.000000
-5.177000 0.000000
-5.163500 0.000000
-5.150100 0.000000
-5.136700 0.000000
-5.123300 0.000000
-5.109900 0.000000
-5.096500 0.000000
-5.083100 0.000000
-5.069700 0.000000
-5.056300 0.000000
-5.042900 0.000000
-5.029500 0.000000
-5.016100 0.000000
-5.002700 0.000000
-4.989300 0.000000
-4.975900 0.000000
-4.962400 0.000000
-4.949000 0.000000
-4.935600 0.000000
-4.922200 0.000000
-4.908800 0.000000
-4.895400 0.000000
-4.882000 0.000000
-4.868600 0.000000
-4.855200 0.000000
-4.841800 0.000000
-4.828400 0.000000
-4.815000 0.000000
-4.801600 0.000000
-4.788200 0.000000
-4.774700 0.000000
-4.761300 0.000000
-4.747900 0.000000
-4.734500 0.000000
-4.721100 0.000000
-4.707700 0.000000
-4.694300 0.000000
-4.680900 0.000000
-4.667500 0.000000
-4.654100 0.000000
-4.640700 0.000000
-4.627300 0.000000
-4.613900 0.000000
-4.600500 0.000000
-4.587100 0.000000
-4.573600 0.000000
-4.560200 0.000000
-4.546800 0.000000
-4.533400 0.000000
-4.520000 0.000000
-4.506600 0.000000
-4.493200 0.000000
-4.479800 0.000000
-4.466400 0.000000
-4.453000 0.000000
-4.439600 0.000000
-4.426200 0.000000
-4.412800 0.000000
-4.399400 0.000000
-4.385900 0.000000
-4.372500 0.000000
-4.359100 0.000000
-4.345700 0.000000
-4.332300 0.000000
-4.318900 0.000000
-4.305500 0.000000
-4.292100 0.000000
-4.278700 0.000000
-4.265300 0.000000
-4.251900 0.000000
-4.238500 0.000000
-4.225100 0.000000
-4.211700 0.000000
-4.198300 0.000000
-4.184800 0.000000
-4.171400 0.000000
-4.158000 0.000000
-4.144600 0.000000
-4.131200 0.000000
-4.117800 0.000000
-4.104400 0.000000
-4.091000 0.000000
-4.077600 0.000000
-4.064200 0.000000
-4.050800 0.000000
-4.037400 0.000000
-4.024000 0.000000
-4.010600 0.000000
-3.997100 0.000000
-3.983700 0.000000
-3.970300 0.000000
-3.956900 0.000000
-3.943500 0.000000
-3.930100 0.000000
-3.916700 0.000000
-3.903300 0.000000
-3.889900 0.000000
-3.876500 0.000000
-3.863100 0.000000
-3.849700 0.000000
-3.836300 0.000000
-3.822900 0.000000
-3.809500 0.000000
-3.796000 0.000000
-3.782600 0.000000
-3.769200 0.000000
-3.755800 0.000000
-3.742400 0.000000
-3.729000 0.000000
-3.715600 0.000000
-3.702200 0.000000
-3.688800 0.000000
-3.675400 0.000000
-3.662000 0.000000
-3.648600 0.000000
-3.635200 0.000000
-3.621800 0.000000
-3.608300 0.000000
-3.594900 0.000000
-3.581500 0.000000
-3.568100 0.000000
-3.554700 0.000000
-3.541300 0.000000
-3.527900 0.000000
-3.514500 0.000000
-3.501100 0.000000
-3.487700 0.000000
-3.474300 0.000000
-3.460900 0.000000
-3.447500 0.000000
-3.434100 0.000000
-3.420700 0.000000
-3.407200 0.000000
-3.393800 0.000000
-3.380400 0.000000
-3.367000 0.000000
-3.353600 0.000000
-3.340200 0.000000
-3.326800 0.000000
-3.313400 0.000000
-3.300000 0.000000
-3.286600 0.000000
-3.273200 0.000000
-3.259800 0.000000
-3.246400 0.000000
-3.233000 0.000000
-3.219500 0.000000
-3.206100 0.000000
-3.192700 0.000000
-3.179300 0.000000
-3.165900 0.000000
-3.152500 0.000000
-3.139100 0.000000
-3.125700 0.000000
-3.112300 0.000000
-3.098900 0.000000
-3.085500 0.000000
-3.072100 0.000000
-3.058700 0.000000
-3.045300 0.000000
-3.031900 0.000000
-3.018400 0.000000
-3.005000 0.000000
-2.991600 0.000000
-2.978200 0.000000
-2.964800 0.000000
-2.951400 0.000000
-2.938000 0.000000
-2.924600 0.000000
-2.911200 0.000000
-2.897800 0.000000
-2.884400 0.000000
-2.871000 0.000000
-2.857600 0.000000
-2.844200 0.000000
-2.830700 0.000000
-2.817300 0.000000
-2.803900 0.000000
-2.790500 0.000000
-2.777100 0.000000
-2.763700 0.000000
-2.750300 0.000000
-2.736900 0.000000
-2.723500 0.000000
-2.710100 0.000000
-2.696700 0.000000
-2.683300 0.000000
-2.669900 3.468300
-2.656500 4.339700
-2.643100 5.211100
-2.629600 6.082500
-2.616200 6.953900
-2.602800 7.825300
-2.589400 5.396100
-2.576000 5.282000
-2.562600 5.167800
-2.549200 57.849400
-2.535800 13.682400
-2.522400 15.301700
-2.509000 14.934300
-2.495600 16.655600
-2.482200 18.376800
-2.468800 13.334500
-2.455400 13.084300
-2.441900 12.834100
-2.428500 29.376500
-2.415100 16.712900
-2.401700 17.326000
-2.388300 14.173400
-2.374900 14.999200
-2.361500 16.102300
-2.348100 15.044800
-2.334700 17.423100
-2.321300 19.801400
-2.307900 22.179700
-2.294500 10.026800
-2.281100 9.878200
-2.267700 7.944800
-2.254300 7.906200
-2.240800 8.026300
-2.227400 8.666100
-2.214000 9.305900
-2.200600 9.945600
-2.187200 10.585400
-2.173800 11.229500
-2.160400 11.983900
-2.147000 14.577400
-2.133600 36.762000
-2.120200 2.579900
-2.106800 2.607300
-2.093400 2.634600
-2.080000 2.662000
-2.066600 2.689400
-2.053100 2.716800
-2.039700 2.692800
-2.026300 2.640100
-2.012900 2.587300
-1.999500 2.534600
-1.986100 2.481800
-1.972700 2.429100
-1.959300 2.376300
-1.945900 2.323500
-1.932500 4.621600
-1.919100 2.570100
-1.905700 0.518500
-1.892300 0.000000
-1.878900 0.000000
-1.865500 0.000000
-1.852000 0.000000
-1.838600 0.000000
-1.825200 0.000000
-1.811800 0.000000
-1.798400 0.000000
-1.785000 0.000000
-1.771600 0.000000
-1.758200 0.000000
-1.744800 0.000000
-1.731400 0.000000
-1.718000 0.000000
-1.704600 4.945500
-1.691200 3.558100
-1.677800 2.170700
-1.664300 1.919500
-1.650900 2.032500
-1.637500 2.145500
-1.624100 2.258600
-1.610700 2.371600
-1.597300 8.614100
-1.583900 12.903700
-1.570500 9.692700
-1.557100 6.871100
-1.543700 6.686500
-1.530300 6.988000
-1.516900 7.289400
-1.503500 7.590900
-1.490100 7.892400
-1.476700 8.193800
-1.463200 14.000100
-1.449800 12.293000
-1.436400 10.834300
-1.423000 8.517700
-1.409600 8.806100
-1.396200 9.094600
-1.382800 9.383000
-1.369400 9.671400
-1.356000 9.959900
-1.342600 10.248300
-1.329200 10.536700
-1.315800 10.825200
-1.302400 20.779900
-1.289000 16.716200
-1.275500 6.541400
-1.262100 6.616000
-1.248700 6.690600
-1.235300 6.765200
-1.221900 6.839800
-1.208500 6.914500
-1.195100 7.287100
-1.181700 10.198300
-1.168300 4.271000
-1.154900 4.223800
-1.141500 4.178700
-1.128100 4.870400
-1.114700 4.879400
-1.101300 4.888400
-1.087900 5.507800
-1.074400 6.155400
-1.061000 6.231000
-1.047600 6.306600
-1.034200 6.382100
-1.020800 6.457700
-1.007400 6.528600
-0.994000 6.600600
-0.980600 6.672600
-0.967200 7.364000
-0.953800 7.466900
-0.940400 7.569700
-0.927000 7.672600
-0.913600 7.775500
-0.900200 7.878300
-0.886700 7.981200
-0.873300 8.084000
-0.859900 8.178200
-0.846500 8.269100
-0.833100 8.360100
-0.819700 8.451000
-0.806300 8.541900
-0.792900 8.632900
-0.779500 10.056200
-0.766100 10.123500
-0.752700 11.321800
-0.739300 11.403900
-0.725900 11.486100
-0.712500 11.568200
-0.699100 11.651300
-0.685600 11.744700
-0.672200 12.144100
-0.658800 12.740100
-0.645400 15.122900
-0.632000 15.982600
-0.618600 17.343200
-0.605200 17.479500
-0.591800 16.308300
-0.578400 16.323800
-0.565000 16.444200
-0.551600 16.877600
-0.538200 17.319600
-0.524800 17.808300
-0.511400 18.489200
-0.497900 19.790800
-0.484500 19.768000
-0.471100 19.745200
-0.457700 19.722400
-0.444300 19.699500
-0.430900 19.815600
-0.417500 19.203000
-0.404100 19.438900
-0.390700 18.620600
-0.377300 18.700100
-0.363900 18.701500
-0.350500 17.493100
-0.337100 17.468700
-0.323700 17.470200
-0.310300 17.626900
-0.296800 17.786900
-0.283400 18.069700
-0.270000 18.425500
-0.256600 18.902600
-0.243200 19.433200
-0.229800 17.522000
-0.216400 19.157700
-0.203000 17.644200
-0.189600 16.130800
-0.176200 14.701100
-0.162800 14.538400
-0.149400 14.375700
-0.136000 14.213000
-0.122600 14.050300
-0.109100 12.873600
-0.095700 12.342500
-0.082300 11.837900
-0.068900 11.726900
-0.055500 11.357600
-0.042100 11.013600
-0.028700 10.702300
-0.015300 10.391000
-0.001900 10.079700
0.011500 9.768400
0.024900 9.457100
0.038300 9.171300
0.051700 8.966300
0.065100 8.847900
0.078500 8.633200
0.092000 8.526600
0.105400 9.456000
0.118800 9.525400
0.132200 9.603700
0.145600 9.681900
0.159000 9.760100
0.172400 9.911200
0.185800 10.067200
0.199200 10.223100
0.212600 10.379100
0.226000 10.776400
0.239400 13.646700
0.252800 15.754000
0.266200 15.418400
0.279700 15.139000
0.293100 17.424500
0.306500 19.927600
0.319900 21.609300
0.333300 23.213600
0.346700 24.671100
0.360100 26.128600
0.373500 25.097100
0.386900 20.508500
0.400300 21.079200
0.413700 20.542100
0.427100 20.716100
0.440500 21.177600
0.453900 25.254900
0.467300 23.650500
0.480800 24.677300
0.494200 26.402200
0.507600 28.574200
0.521000 35.169700
0.534400 38.658700
0.547800 42.415800
0.561200 35.146300
0.574600 27.221400
0.588000 30.124500
0.601400 33.067100
0.614800 31.043900
0.628200 25.887800
0.641600 25.675900
0.655000 23.921100
0.668500 24.060300
0.681900 24.199600
0.695300 24.395300
0.708700 28.595300
0.722100 33.658400
0.735500 31.669300
0.748900 32.542000
0.762300 29.859700
0.775700 28.516500
0.789100 23.464100
0.802500 21.175600
0.815900 18.950200
0.829300 18.318700
0.842700 16.956500
0.856100 19.825300
0.869600 17.673500
0.883000 15.647800
0.896400 14.342300
0.909800 13.441600
0.923200 10.338600
0.936600 53.716300
0.950000 7.421200
0.963400 6.547800
0.976800 5.674400
0.990200 4.806100
1.003600 4.132400
1.017000 3.458700
1.030400 2.785000
1.043800 2.111300
1.057300 12.031300
1.070700 0.000000
1.084100 0.000000
1.097500 0.000000
1.110900 0.000000
1.124300 0.000000
1.137700 0.000000
1.151100 0.000000
1.164500 0.000000
1.177900 0.000000
1.191300 0.000000
1.204700 0.000000
1.218100 0.000000
1.231500 0.000000
1.244900 0.000000
1.258400 0.000000
1.271800 0.000000
1.285200 0.000000
1.298600 0.000000
1.312000 0.000000
1.325400 0.000000
1.338800 0.000000
1.352200 0.000000
1.365600 0.000000
1.379000 0.000000
1.392400 0.000000
1.405800 0.000000
1.419200 0.000000
1.432600 0.000000
1.446100 0.000000
1.459500 0.000000
1.472900 0.000000
1.486300 0.000000
1.499700 0.000000
1.513100 0.000000
1.526500 0.000000
1.539900 0.000000
1.553300 0.000000
1.566700 0.000000
1.580100 0.000000
1.593500 0.000000
1.606900 0.000000
1.620300 0.000000
1.633700 0.000000
1.647200 0.000000
1.660600 0.000000
1.674000 0.000000
1.687400 0.000000
1.700800 0.000000
1.714200 0.000000
1.727600 0.000000
1.741000 0.000000
1.754400 0.000000
1.767800 0.000000
1.781200 0.000000
1.794600 0.000000
1.808000 0.000000
1.821400 0.000000
1.834900 0.000000
1.848300 0.000000
1.861700 0.000000
1.875100 0.000000
1.888500 0.000000
1.901900 0.000000
1.915300 0.000000
1.928700 0.000000
1.942100 0.000000
1.955500 0.000000
1.968900 0.000000
1.982300 0.000000
1.995700 0.000000
2.009100 0.000000
2.022500 0.000000
2.036000 0.000000
2.049400 0.000000
2.062800 0.000000
2.076200 0.000000
2.089600 0.000000
2.103000 0.000000
2.116400 0.000000
2.129800 0.000000
2.143200 0.000000
2.156600 0.000000
2.170000 0.000000
2.183400 0.000000
2.196800 0.000000
2.210200 0.000000
2.223700 0.000000
2.237100 0.000000
2.250500 0.000000
2.263900 0.000000
2.277300 0.000000
2.290700 0.000000
2.304100 0.000000
2.317500 0.000000
2.330900 0.000000
2.344300 0.000000
2.357700 0.000000
2.371100 0.000000
2.384500 0.000000
2.397900 0.000000
2.411300 0.000000
2.424800 0.000000
2.438200 0.000000
2.451600 0.000000
2.465000 0.000000
2.478400 0.000000
2.491800 0.000000
2.505200 0.000000
2.518600 0.000000
2.532000 0.000000
2.545400 0.000000
2.558800 0.000000
2.572200 0.000000
2.585600 0.000000
2.599000 0.000000
2.612500 0.000000
2.625900 0.000000
2.639300 0.000000
2.652700 0.000000
2.666100 0.000000
2.679500 0.000000
2.692900 0.000000
2.706300 0.000000
2.719700 0.000000
2.733100 0.000000
2.746500 0.000000
2.759900 0.000000
2.773300 0.000000
2.786700 0.000000
2.800100 0.000000
2.813600 0.000000
2.827000 0.000000
2.840400 0.000000
2.853800 0.000000
2.867200 0.000000
2.880600 0.000000
2.894000 0.000000
2.907400 0.000000
2.920800 0.000000
2.934200 0.000000
2.947600 0.000000
2.961000 0.000000
2.974400 0.000000
2.987800 0.000000
3.001300 0.000000
3.014700 0.000000
3.028100 0.000000
3.041500 0.000000
3.054900 0.000000
3.068300 0.000000
3.081700 0.000000
3.095100 0.000000
3.108500 0.000000
3.121900 0.000000
3.135300 0.000000
3.148700 0.000000
3.162100 0.000000
3.175500 0.000000
3.188900 0.000000
3.202400 0.000000
3.215800 0.000000
3.229200 0.000000
3.242600 0.000000
3.256000 0.000000
3.269400 0.000000
3.282800 0.000000
3.296200 0.000000
3.309600 0.000000
3.323000 0.000000
3.336400 0.000000
3.349800 0.000000
3.363200 0.960800
3.376600 0.998800
3.390100 1.045000
3.403500 1.091100
3.416900 1.137200
3.430300 1.183300
3.443700 1.229400
3.457100 1.275500
3.470500 1.321600
3.483900 1.367800
3.497300 2.421600
3.510700 2.499900
3.524100 3.635800
3.537500 3.748600
3.550900 3.861300
3.564300 3.974100
3.577700 4.086900
3.591200 4.199700
3.604600 4.312400
3.618000 4.438700
3.631400 4.632800
3.644800 4.826900
3.658200 6.120300
3.671600 6.344400
3.685000 6.568500
3.698400 6.792600
3.711800 7.016800
3.725200 7.240900
3.738600 7.465000
3.752000 7.764300
3.765400 8.155000
3.778900 8.545600
3.792300 8.936300
3.805700 9.327000
3.819100 13.681900
3.832500 13.663300
3.845900 13.320500
3.859300 12.958400
3.872700 12.596400
3.886100 12.278600
3.899500 11.328800
3.912900 11.858900
3.926300 12.389100
3.939700 13.483700
3.953100 13.591200
3.966500 22.819800
3.980000 21.001100
3.993400 18.509300
4.006800 15.920100
4.020200 13.330900
4.033600 11.053900
4.047000 10.955900
4.060400 10.857900
4.073800 10.759900
4.087200 10.662000
4.100600 10.564000
4.114000 15.676800
4.127400 13.886600
4.140800 11.991200
4.154200 9.277400
4.167700 12.113000
4.181100 10.572600
4.194500 9.032300
4.207900 7.491900
4.221300 6.035300
4.234700 4.630200
4.248100 3.225100
4.261500 2.826600
4.274900 2.930000
4.288300 3.033500
4.301700 3.137000
4.315100 3.240400
4.328500 3.343900
4.341900 3.447400
4.355300 3.550800
4.368800 3.654300
4.382200 0.000000
4.395600 0.000000
4.409000 0.000000
4.422400 0.000000
4.435800 0.000000
4.449200 0.000000
4.462600 0.000000
4.476000 0.000000
4.489400 0.000000
4.502800 0.000000
4.516200 0.000000
4.529600 0.000000
4.543000 0.000000
4.556500 0.000000
4.569900 0.000000
4.583300 0.000000
4.596700 0.000000
4.610100 0.000000
4.623500 0.000000
4.636900 0.000000
4.650300 0.000000
4.663700 0.000000
4.677100 0.000000
4.690500 0.000000
4.703900 0.000000
4.717300 0.000000
4.730700 0.000000
4.744100 0.000000
4.757600 0.000000
4.771000 0.000000
4.784400 0.000000
4.797800 0.000000
4.811200 0.000000
4.824600 0.000000
4.838000 0.000000
4.851400 0.000000
4.864800 0.000000
4.878200 0.000000
4.891600 0.000000
4.905000 0.000000
4.918400 0.000000
4.931800 0.000000
4.945300 0.000000
4.958700 0.000000
4.972100 0.000000
4.985500 0.000000
4.998900 0.000000
5.012300 0.000000
5.025700 0.000000
5.039100 0.000000
5.052500 0.000000
5.065900 0.000000
5.079300 0.000000
5.092700 0.000000
5.106100 0.000000
5.119500 0.000000
5.132900 0.000000
5.146400 0.000000
5.159800 0.000000
5.173200 0.000000
5.186600 0.000000
5.200000 0.000000
5.213400 0.000000
5.226800 0.000000
5.240200 0.000000
5.253600 0.000000
5.267000 0.000000
5.280400 0.000000
5.293800 0.000000
5.307200 0.000000
5.320600 0.000000
5.334100 0.000000
5.347500 0.000000
5.360900 0.000000
5.374300 0.000000
5.387700 0.007500
5.401100 0.017200
5.414500 0.026900
5.427900 0.036700
5.441300 0.046400
5.454700 0.056200
5.468100 0.065900
5.481500 0.075600
5.494900 0.088500
5.508300 0.115900
5.521700 0.144800
5.535200 0.173600
5.548600 0.202500
5.562000 0.231400
5.575400 0.260300
5.588800 0.289200
5.602200 0.318100
5.615600 0.350500
5.629000 0.388800
5.642400 0.427100
5.655800 0.465300
5.669200 0.503600
5.682600 0.541900
5.696000 0.580200
5.709400 0.618500
5.722800 0.656700
5.736300 0.695000
5.749700 0.733300
5.763100 0.771600
5.776500 0.809900
5.789900 0.848100
5.803300 0.886400
5.816700 0.924700
5.830100 0.963000
5.843500 1.001300
5.856900 1.039500
5.870300 1.077800
5.883700 1.116100
5.897100 1.154400
5.910500 1.889100
5.924000 2.576600
5.937400 3.064700
5.950800 3.505100
5.964200 3.810100
5.977600 3.812500
5.991000 3.814900
6.004400 3.817200
6.017800 3.819600
6.031200 3.822000
6.044600 3.824400
6.058000 3.826800
6.071400 3.829200
6.084800 4.042500
6.098200 4.753000
6.111600 5.040200
6.125100 5.327400
6.138500 6.298100
6.151900 6.753900
6.165300 7.209600
6.178700 7.665400
6.192100 8.121200
6.205500 8.623500
6.218900 8.874800
6.232300 8.829300
6.245700 8.783800
6.259100 8.738300
6.272500 8.692800
6.285900 8.647300
6.299300 8.601800
6.312800 9.125900
6.326200 9.138600
6.339600 9.151200
6.353000 9.163900
6.366400 9.176500
6.379800 9.189200
6.393200 9.201900
6.406600 14.794400
6.420000 14.349100
6.433400 13.754000
6.446800 12.320900
6.460200 10.887800
6.473600 10.700500
6.487000 10.527300
6.500400 10.354000
6.513900 10.164100
6.527300 9.890000
6.540700 9.615800
6.554100 12.161900
6.567500 18.263200
6.580900 7.046400
6.594300 7.031900
6.607700 8.712300
6.621100 6.791300
6.634500 6.639800
6.647900 6.488200
6.661300 6.336700
6.674700 6.185100
6.688100 6.033600
6.701600 8.095700
6.715000 7.847200
6.728400 7.598700
6.741800 7.350800
6.755200 7.106700
6.768600 7.017400
6.782000 6.928100
6.795400 6.838800
6.808800 6.749500
6.822200 6.660200
6.835600 6.581700
6.849000 6.658200
6.862400 6.734800
6.875800 10.067200
6.889200 12.599900
6.902700 10.765800
6.916100 10.569600
6.929500 10.373500
6.942900 12.922000
6.956300 10.654400
6.969700 8.386800
6.983100 6.297400
6.996500 4.925100
7.009900 4.870600
7.023300 4.930600
7.036700 4.990700
7.050100 5.050800
7.063500 5.110900
7.076900 11.356800
7.090400 13.912200
7.103800 13.142000
7.117200 12.371900
7.130600 11.601800
7.144000 10.831700
7.157400 15.068800
7.170800 13.414800
7.184200 16.747200
7.197600 15.620800
7.211000 14.585800
7.224400 14.446800
7.237800 32.673300
7.251200 14.523100
7.264600 13.671000
7.278000 12.998000
7.291500 12.468300
7.304900 11.979000
7.318300 27.583800
7.331700 19.770800
7.345100 16.614600
7.358500 16.111600
7.371900 23.239500
7.385300 19.910500
7.398700 20.702100
7.412100 15.274400
7.425500 14.332000
7.438900 13.440700
7.452300 13.108100
7.465700 11.683900
7.479200 12.772900
7.492600 13.999900
7.506000 15.424200
7.519400 16.468400
7.532800 11.398600
7.546200 11.812300
7.559600 12.225900
7.573000 12.639600
7.586400 13.053300
7.599800 10.962400
7.613200 10.903600
7.626600 11.798500
7.640000 18.620800
7.653400 18.351500
7.666800 17.923500
7.680300 18.135400
7.693700 19.757400
7.707100 17.084900
7.720500 17.739600
7.733900 18.394200
7.747300 19.048900
7.760700 16.517800
7.774100 18.319200
7.787500 20.120600
7.800900 21.922000
7.814300 20.552300
7.827700 18.412600
7.841100 13.202500
7.854500 12.944400
7.868000 22.659500
7.881400 23.742900
7.894800 21.802500
7.908200 15.232000
7.921600 13.647200
7.935000 13.266700
7.948400 12.886200
7.961800 14.011700
7.975200 13.818500
7.988600 13.625400
8.002000 13.432300
8.015400 13.268600
8.028800 13.274700
8.042200 13.280800
8.055600 13.286900
8.069100 13.106900
8.082500 12.897700
8.095900 12.686900
8.109300 18.591500
8.122700 17.694500
8.136100 16.797600
8.149500 17.454900
8.162900 16.895100
8.176300 16.157300
8.189700 22.721300
8.203100 18.437900
8.216500 14.154400
8.229900 12.035900
8.243300 11.655000
8.256800 11.274000
8.270200 10.496800
8.283600 10.147400
8.297000 9.847100
8.310400 9.609400
8.323800 9.501800
8.337200 11.371500
8.350600 10.758800
8.364000 9.750000
8.377400 9.178600
8.390800 8.716100
8.404200 8.253500
8.417600 7.791000
8.431000 7.328500
8.444400 6.865900
8.457900 6.403400
8.471300 5.940900
8.484700 5.810400
8.498100 5.693000
8.511500 5.575500
8.524900 5.077000
8.538300 4.979700
8.551700 4.882400
8.565100 4.857600
8.578500 4.955800
8.591900 9.580500
8.605300 7.951000
8.618700 6.337700
8.632100 5.659700
8.645600 5.317900
8.659000 4.820400
8.672400 4.707000
8.685800 4.593600
8.699200 4.106200
8.712600 4.014400
8.726000 3.922600
8.739400 3.953000
8.752800 4.118700
8.766200 4.496500
8.779600 6.638600
8.793000 8.780700
8.806400 3.622800
8.819800 3.674700
8.833200 3.726500
8.846700 3.778400
8.860100 3.830300
8.873500 3.882100
8.886900 4.405800
8.900300 4.666700
8.913700 4.927600
8.927100 5.188600
8.940500 5.449500
8.953900 5.710400
8.967300 5.971300
8.980700 6.232300
8.994100 6.982700
9.007500 7.410500
9.020900 7.637100
9.034400 8.339300
9.047800 12.988300
9.061200 12.950400
9.074600 13.508600
9.088000 13.629400
9.101400 13.019800
9.114800 13.147900
9.128200 13.301500
9.141600 9.158100
9.155000 9.026300
9.168400 9.278900
9.181800 9.786000
9.195200 10.293100
9.208600 10.800300
9.222000 11.307400
9.235500 25.407700
9.248900 11.670000
9.262300 11.206300
9.275700 10.742600
9.289100 10.278900
9.302500 10.034700
9.315900 10.572000
9.329300 11.109300
9.342700 11.646600
9.356100 11.739300
9.369500 12.436200
9.382900 14.018800
9.396300 15.817500
9.409700 14.698600
9.423200 15.523200
9.436600 27.482700
9.450000 23.060400
9.463400 18.010300
9.476800 17.580500
9.490200 16.895900
9.503600 13.257200
9.517000 18.474600
9.530400 14.592200
9.543800 14.185300
9.557200 13.815500
9.570600 13.562900
9.584000 16.322600
9.597400 25.318000
9.610800 12.300700
9.624300 12.201700
9.637700 12.102800
9.651100 12.003800
9.664500 11.904900
9.677900 13.579100
9.691300 15.437800
9.704700 8.835800
9.718100 8.896100
9.731500 9.299000
9.744900 9.702000
9.758300 10.132600
9.771700 10.568900
9.785100 11.005300
9.798500 8.173700
9.812000 8.440500
9.825400 9.038800
9.838800 10.684400
9.852200 12.094300
9.865600 13.940000
9.879000 16.152700
9.892400 22.785400
9.905800 13.640600
9.919200 14.602000
9.932600 15.682000
9.946000 10.883800
9.959400 11.233000
9.972800 12.272800
9.986200 13.090600
9.999600 13.908500
10.013100 12.555500
10.026500 13.422700
10.039900 9.085400
10.053300 9.849700
10.066700 10.364000
10.080100 10.878300
10.093500 12.210800
10.106900 11.120400
10.120300 10.915400
10.133700 10.710400
10.147100 10.505400
10.160500 10.300400
10.173900 10.097800
10.187300 10.312300
10.200800 8.754800
10.214200 8.833900
10.227600 8.913000
10.241000 8.992100
10.254400 9.071200
10.267800 10.943100
10.281200 10.964300
10.294600 10.985500
10.308000 11.006800
10.321400 11.028000
10.334800 11.049200
10.348200 9.662600
10.361600 9.657300
10.375000 9.724800
10.388400 9.792300
10.401900 8.642900
10.415300 8.653900
10.428700 8.683000
10.442100 8.760800
10.455500 48.301900
10.468900 9.425000
10.482300 9.382800
10.495700 9.352500
10.509100 9.322100
10.522500 7.670100
10.535900 7.573400
10.549300 7.476700
10.562700 7.380000
10.576100 7.283400
10.589600 7.198300
10.603000 7.116900
10.616400 7.035600
10.629800 6.954300
10.643200 6.873000
10.656600 6.791700
10.670000 8.450200
10.683400 8.594100
10.696800 9.585700
10.710200 9.737800
10.723600 9.889900
10.737000 10.042100
10.750400 10.194200
10.763800 10.346300
10.777200 10.498500
10.790700 10.650600
10.804100 10.815700
10.817500 10.854500
10.830900 10.630500
10.844300 8.493000
10.857700 8.437000
10.871100 8.381000
10.884500 8.325000
10.897900 8.268900
10.911300 8.212900
10.924700 8.839900
10.938100 9.087400
10.951500 9.005000
10.964900 8.935900
10.978400 8.866800
10.991800 8.797700
11.005200 8.728600
11.018600 8.659400
11.032000 8.590300
11.045400 9.620800
11.058800 9.522900
11.072200 9.425000
11.085600 9.328000
11.099000 9.235000
11.112400 9.142000
11.125800 9.049000
11.139200 8.956000
11.152600 8.651700
11.166000 8.606300
11.179500 8.508000
11.192900 8.995500
11.206300 8.812900
11.219700 11.590200
11.233100 11.327200
11.246500 11.064100
11.259900 10.801100
11.273300 10.538100
11.286700 10.275000
11.300100 10.094300
11.313500 13.321700
11.326900 14.590900
11.340300 13.644300
11.353700 13.067600
11.367200 12.408700
11.380600 11.673100
11.394000 10.937500
11.407400 10.278600
11.420800 10.010400
11.434200 10.376400
11.447600 10.066700
11.461000 9.757000
11.474400 9.600600
11.487800 9.008500
11.501200 15.785500
11.514600 11.966200
11.528000 9.374600
11.541400 9.432500
11.554800 9.552900
11.568300 9.687800
11.581700 9.855500
11.595100 10.054300
11.608500 12.056200
11.621900 11.702000
11.635300 11.359400
11.648700 11.281100
11.662100 9.129500
11.675500 8.955400
11.688900 9.488100
11.702300 9.544600
11.715700 9.518600
11.729100 9.491200
11.742500 9.463800
11.756000 9.436400
11.769400 9.409000
11.782800 9.381600
11.796200 10.052000
11.809600 12.581800
11.823000 15.168000
11.836400 11.240200
11.849800 11.347000
11.863200 11.355500
11.876600 11.364100
11.890000 14.670400
11.903400 16.075200
11.916800 18.475000
11.930200 19.983800
11.943600 16.652400
11.957100 13.406500
11.970500 12.795400
11.983900 13.648100
11.997300 14.500800
12.010700 15.353400
12.024100 12.056100
12.037500 12.126500
12.050900 50.288400
12.064300 11.157300
12.077700 11.197400
12.091100 11.237500
12.104500 11.277700
12.117900 11.317800
12.131300 15.350900
12.144800 12.548100
12.158200 9.781900
12.171600 9.856000
12.185000 9.930100
12.198400 8.444800
12.211800 8.454400
12.225200 8.521500
12.238600 10.712300
12.252000 10.069000
12.265400 9.425700
12.278800 9.411400
12.292200 9.293300
12.305600 8.719700
12.319000 8.537900
12.332400 8.822100
12.345900 11.200400
12.359300 10.263500
12.372700 9.326700
12.386100 8.389800
12.399500 7.580200
12.412900 6.926600
12.426300 8.012000
12.439700 8.108000
12.453100 8.204000
12.466500 8.300000
12.479900 8.396000
12.493300 8.492000
12.506700 8.587900
12.520100 8.683900
12.533600 8.779900
12.547000 8.875900
12.560400 8.971900
12.573800 10.726700
12.587200 10.898400
12.600600 11.070100
12.614000 11.241800
12.627400 11.413500
12.640800 11.585200
12.654200 9.758300
12.667600 8.525700
12.681000 9.241600
12.694400 9.416200
12.707800 9.590800
12.721200 9.765400
12.734700 9.940000
12.748100 10.114600
12.761500 10.289200
12.774900 10.464900
12.788300 10.672400
12.801700 10.882400
12.815100 10.701500
12.828500 7.744100
12.841900 7.914300
12.855300 8.084500
12.868700 8.254700
12.882100 7.201900
12.895500 8.257100
12.908900 7.813200
12.922400 7.369300
12.935800 6.925300
12.949200 6.481400
12.962600 6.332600
12.976000 6.475100
12.989400 6.617600
13.002800 8.433200
13.016200 9.014100
13.029600 10.163500
13.043000 10.295700
13.056400 5.023600
13.069800 5.028800
13.083200 5.034000
13.096600 5.039200
13.110000 5.044400
13.123500 5.049700
13.136900 5.054900
13.150300 47.234500
13.163700 20.458300
13.177100 13.090900
13.190500 4.231900
13.203900 4.683100
13.217300 4.702600
13.230700 4.368600
13.244100 4.018400
13.257500 3.668300
13.270900 3.318100
13.284300 3.119700
13.297700 2.970700
13.311200 2.821700
13.324600 2.672700
13.338000 2.523700
13.351400 2.374700
13.364800 2.225700
13.378200 2.076700
13.391600 1.927700
13.405000 1.778700
13.418400 0.508800
13.431800 0.468400
13.445200 0.353900
13.458600 0.239400
13.472000 0.124900
13.485400 0.010400
13.498800 0.000000
13.512300 0.000000
13.525700 0.000000
13.539100 0.000000
13.552500 0.000000
13.565900 0.000000
13.579300 0.000000
13.592700 0.000000
13.606100 0.000000
13.619500 0.000000
13.632900 0.000000
13.646300 0.000000
13.659700 0.000000
13.673100 0.000000
13.686500 0.000000
13.700000 0.000000
13.713400 0.000000
13.726800 0.000000
13.740200 0.000000
13.753600 0.000000
13.767000 0.000000
13.780400 0.000000
13.793800 0.000000
13.807200 0.000000
13.820600 0.000000
13.834000 0.000000
13.847400 0.000000
13.860800 0.000000
13.874200 0.000000
13.887600 0.000000
13.901100 0.000000
13.914500 0.000000
13.927900 0.000000
13.941300 0.000000
13.954700 0.000000
13.968100 0.000000
13.981500 0.000000
13.994900 0.000000
14.008300 0.000000
14.021700 0.000000
14.035100 0.000000
14.048500 0.000000
14.061900 0.000000
14.075300 0.000000
14.088800 0.000000
14.102200 0.000000
14.115600 0.000000
14.129000 0.000000
14.142400 0.000000
14.155800 0.000000
14.169200 0.000000
14.182600 0.000000
14.196000 0.000000
14.209400 0.000000
14.222800 0.000000
14.236200 0.000000
14.249600 0.000000
14.263000 0.000000
14.276400 0.000000
14.289900 0.000000
14.303300 0.000000
14.316700 0.000000
14.330100 0.000000
14.343500 0.000000
14.356900 0.000000
14.370300 0.000000
14.383700 0.000000
14.397100 0.000000
14.410500 0.000000
14.423900 0.000000
14.437300 0.000000
14.450700 0.000000
14.464100 0.000000
14.477600 0.000000
14.491000 0.000000
14.504400 0.000000
14.517800 0.000000
14.531200 0.000000
14.544600 0.000000
14.558000 0.000000
14.571400 0.000000
14.584800 0.000000
14.598200 0.000000
14.611600 0.000000
14.625000 0.000000
14.638400 0.000000
14.651800 0.000000
14.665200 0.000000
14.678700 0.000000
14.692100 0.000000
14.705500 0.000000
e
