set title 'mp-1093993 - Density of States'
set xlabel 'Energy (eV)'
set ylabel 'DOS (states/eV)'
set grid
set xrange [-10:10]
set yrange [0:66.156]
set xzeroaxis lt -1
set terminal png size 800,600
set output 'mp-1093993_dos_gnuplot.png'
plot '-' using 1:2 with lines title 'DOS'
-19.232900 0.000000
-19.210100 0.000000
-19.187300 0.000000
-19.164500 0.000000
-19.141700 0.000000
-19.118900 0.000000
-19.096100 0.000000
-19.073200 0.000000
-19.050400 0.000000
-19.027600 0.000000
-19.004800 0.000000
-18.982000 0.000000
-18.959200 0.000000
-18.936400 0.000000
-18.913600 0.000000
-18.890800 0.000000
-18.868000 0.000000
-18.845200 0.000000
-18.822400 0.000000
-18.799600 0.000000
-18.776800 0.000000
-18.754000 0.000000
-18.731200 0.000000
-18.708400 0.000000
-18.685600 0.000000
-18.662800 0.000000
-18.640000 0.000000
-18.617200 0.000000
-18.594400 0.000000
-18.571600 0.000000
-18.548800 0.000000
-18.526000 0.000000
-18.503200 0.000000
-18.480400 0.000000
-18.457600 0.000000
-18.434800 0.000000
-18.412000 0.000000
-18.389200 0.000000
-18.366400 0.000000
-18.343600 0.000000
-18.320800 0.000000
-18.298000 0.000000
-18.275200 0.000000
-18.252400 0.000000
-18.229500 0.000000
-18.206700 0.000000
-18.183900 0.000000
-18.161100 0.000000
-18.138300 0.000000
-18.115500 0.000000
-18.092700 0.000000
-18.069900 0.000000
-18.047100 0.000000
-18.024300 0.000000
-18.001500 0.000000
-17.978700 0.000000
-17.955900 0.000000
-17.933100 0.000000
-17.910300 0.000000
-17.887500 0.000000
-17.864700 0.000000
-17.841900 0.000000
-17.819100 0.000000
-17.796300 0.000000
-17.773500 0.000000
-17.750700 0.000000
-17.727900 0.000000
-17.705100 0.000000
-17.682300 0.000000
-17.659500 0.000000
-17.636700 0.000000
-17.613900 0.000000
-17.591100 0.000000
-17.568300 0.000000
-17.545500 0.000000
-17.522700 0.000000
-17.499900 0.000000
-17.477100 0.000000
-17.454300 0.000000
-17.431500 0.000000
-17.408700 0.000000
-17.385900 0.000000
-17.363000 0.000000
-17.340200 0.000000
-17.317400 0.000000
-17.294600 0.000000
-17.271800 0.000000
-17.249000 0.000000
-17.226200 0.000000
-17.203400 0.000000
-17.180600 0.000000
-17.157800 0.001300
-17.135000 0.192200
-17.112200 0.705900
-17.089400 1.353900
-17.066600 1.707600
-17.043800 1.837600
-17.021000 2.081700
-16.998200 2.451200
-16.975400 2.992500
-16.952600 4.243300
-16.929800 4.828600
-16.907000 4.399200
-16.884200 4.330000
-16.861400 4.396300
-16.838600 4.685100
-16.815800 4.204900
-16.793000 4.336800
-16.770200 9.462400
-16.747400 10.272000
-16.724600 8.423600
-16.701800 8.889800
-16.679000 9.349500
-16.656200 10.158600
-16.633400 11.223200
-16.610600 12.501100
-16.587800 12.668500
-16.565000 14.541800
-16.542200 6.407300
-16.519300 6.434100
-16.496500 11.246500
-16.473700 13.510900
-16.450900 12.937900
-16.428100 16.298000
-16.405300 29.459700
-16.382500 20.914600
-16.359700 21.035800
-16.336900 38.526300
-16.314100 1.189900
-16.291300 0.000000
-16.268500 0.000000
-16.245700 0.000000
-16.222900 0.000000
-16.200100 0.000000
-16.177300 0.000000
-16.154500 0.000000
-16.131700 0.000000
-16.108900 0.000000
-16.086100 0.000000
-16.063300 0.000000
-16.040500 0.000000
-16.017700 0.000000
-15.994900 0.000000
-15.972100 0.000000
-15.949300 0.000000
-15.926500 0.000000
-15.903700 0.000000
-15.880900 0.000000
-15.858100 0.000000
-15.835300 0.000000
-15.812500 0.000000
-15.789700 0.000000
-15.766900 0.000000
-15.744100 0.000000
-15.721300 0.000000
-15.698500 0.000000
-15.675600 0.000000
-15.652800 0.000000
-15.630000 0.000000
-15.607200 0.000000
-15.584400 0.000000
-15.561600 0.000000
-15.538800 0.000000
-15.516000 0.000000
-15.493200 0.000000
-15.470400 0.000000
-15.447600 0.000000
-15.424800 0.000000
-15.402000 0.000000
-15.379200 0.000000
-15.356400 0.000000
-15.333600 0.000000
-15.310800 0.000000
-15.288000 0.000000
-15.265200 0.000000
-15.242400 0.000000
-15.219600 0.000000
-15.196800 0.000000
-15.174000 0.000000
-15.151200 0.000000
-15.128400 0.000000
-15.105600 0.000000
-15.082800 0.000000
-15.060000 0.000000
-15.037200 0.000000
-15.014400 0.000000
-14.991600 0.000000
-14.968800 0.000000
-14.946000 0.000000
-14.923200 0.000000
-14.900400 0.000000
-14.877600 0.000000
-14.854800 0.000000
-14.832000 0.000000
-14.809100 0.000000
-14.786300 0.000000
-14.763500 0.000000
-14.740700 0.000000
-14.717900 0.000000
-14.695100 0.000000
-14.672300 0.000000
-14.649500 0.000000
-14.626700 0.000000
-14.603900 0.000000
-14.581100 0.000000
-14.558300 0.000000
-14.535500 0.000000
-14.512700 0.000000
-14.489900 0.000000
-14.467100 0.000000
-14.444300 0.000000
-14.421500 0.000000
-14.398700 0.000000
-14.375900 0.000000
-14.353100 0.000000
-14.330300 0.000000
-14.307500 0.000000
-14.284700 0.000000
-14.261900 0.000000
-14.239100 0.000000
-14.216300 0.000000
-14.193500 0.000000
-14.170700 0.000000
-14.147900 0.000000
-14.125100 0.000000
-14.102300 0.000000
-14.079500 0.000000
-14.056700 0.000000
-14.033900 0.000000
-14.011100 0.000000
-13.988300 0.000000
-13.965400 0.000000
-13.942600 0.000000
-13.919800 0.000000
-13.897000 0.000000
-13.874200 0.000000
-13.851400 0.000000
-13.828600 0.000000
-13.805800 0.000000
-13.783000 0.000000
-13.760200 0.000000
-13.737400 0.000000
-13.714600 0.000000
-13.691800 0.000000
-13.669000 0.000000
-13.646200 0.000000
-13.623400 0.000000
-13.600600 0.000000
-13.577800 0.000000
-13.555000 0.000000
-13.532200 0.000000
-13.509400 0.000000
-13.486600 0.000000
-13.463800 0.000000
-13.441000 0.000000
-13.418200 0.000000
-13.395400 0.000000
-13.372600 0.000000
-13.349800 0.000000
-13.327000 0.000000
-13.304200 0.000000
-13.281400 0.000000
-13.258600 0.000000
-13.235800 0.000000
-13.213000 0.000000
-13.190200 0.000000
-13.167400 0.000000
-13.144600 0.000000
-13.121700 0.000000
-13.098900 0.000000
-13.076100 0.000000
-13.053300 0.000000
-13.030500 0.000000
-13.007700 0.000000
-12.984900 0.000000
-12.962100 0.000000
-12.939300 0.000000
-12.916500 0.000000
-12.893700 0.000000
-12.870900 0.000000
-12.848100 0.000000
-12.825300 0.000000
-12.802500 0.000000
-12.779700 0.000000
-12.756900 0.000000
-12.734100 0.000000
-12.711300 0.000000
-12.688500 0.000000
-12.665700 0.000000
-12.642900 0.000000
-12.620100 0.000000
-12.597300 0.000000
-12.574500 0.000000
-12.551700 0.000000
-12.528900 0.000000
-12.506100 0.000000
-12.483300 0.000000
-12.460500 0.000000
-12.437700 0.000000
-12.414900 0.000000
-12.392100 0.000000
-12.369300 0.000000
-12.346500 0.000000
-12.323700 0.000000
-12.300900 0.000000
-12.278100 0.000000
-12.255200 0.000000
-12.232400 0.000000
-12.209600 0.000000
-12.186800 0.000000
-12.164000 0.000000
-12.141200 0.000000
-12.118400 0.000000
-12.095600 0.000000
-12.072800 0.000000
-12.050000 0.000000
-12.027200 0.000000
-12.004400 0.000000
-11.981600 0.000000
-11.958800 0.000000
-11.936000 0.000000
-11.913200 0.000000
-11.890400 0.000000
-11.867600 0.000000
-11.844800 0.000000
-11.822000 0.000000
-11.799200 0.000000
-11.776400 0.000000
-11.753600 0.000000
-11.730800 0.000000
-11.708000 0.000000
-11.685200 0.000000
-11.662400 0.000000
-11.639600 0.000000
-11.616800 0.000000
-11.594000 0.000000
-11.571200 0.000000
-11.548400 0.000000
-11.525600 0.000000
-11.502800 0.000000
-11.480000 0.000000
-11.457200 0.000000
-11.434400 0.000000
-11.411500 0.000000
-11.388700 0.000000
-11.365900 0.000000
-11.343100 0.000000
-11.320300 0.000000
-11.297500 0.000000
-11.274700 0.000000
-11.251900 0.000000
-11.229100 0.000000
-11.206300 0.000000
-11.183500 0.000000
-11.160700 0.000000
-11.137900 0.000000
-11.115100 0.000000
-11.092300 0.000000
-11.069500 0.000000
-11.046700 0.000000
-11.023900 0.000000
-11.001100 0.000000
-10.978300 0.000000
-10.955500 0.000000
-10.932700 0.000000
-10.909900 0.000000
-10.887100 0.000000
-10.864300 0.000000
-10.841500 0.000000
-10.818700 0.000000
-10.795900 0.000000
-10.773100 0.000000
-10.750300 0.000000
-10.727500 0.000000
-10.704700 0.000000
-10.681900 0.000000
-10.659100 0.000000
-10.636300 0.000000
-10.613500 0.000000
-10.590700 0.000000
-10.567800 0.000000
-10.545000 0.000000
-10.522200 0.000000
-10.499400 0.000000
-10.476600 0.000000
-10.453800 0.000000
-10.431000 0.000000
-10.408200 0.000000
-10.385400 0.000000
-10.362600 0.000000
-10.339800 0.000000
-10.317000 0.000000
-10.294200 0.000000
-10.271400 0.000000
-10.248600 0.000000
-10.225800 0.000000
-10.203000 0.000000
-10.180200 0.000000
-10.157400 0.000000
-10.134600 0.000000
-10.111800 0.000000
-10.089000 0.000000
-10.066200 0.000000
-10.043400 0.000000
-10.020600 0.000000
-9.997800 0.000000
-9.975000 0.000000
-9.952200 0.000000
-9.929400 0.000000
-9.906600 0.000000
-9.883800 0.000000
-9.861000 0.000000
-9.838200 0.000000
-9.815400 0.000000
-9.792600 0.000000
-9.769800 0.000000
-9.747000 0.000000
-9.724100 0.000000
-9.701300 0.000000
-9.678500 0.000000
-9.655700 0.000000
-9.632900 0.000000
-9.610100 0.000000
-9.587300 0.000000
-9.564500 0.000000
-9.541700 0.000000
-9.518900 0.000000
-9.496100 0.000000
-9.473300 0.000000
-9.450500 0.000000
-9.427700 0.000000
-9.404900 0.000000
-9.382100 0.000000
-9.359300 0.000000
-9.336500 0.000000
-9.313700 0.000000
-9.290900 0.000000
-9.268100 0.000000
-9.245300 0.000000
-9.222500 0.000000
-9.199700 0.000000
-9.176900 0.000000
-9.154100 0.000000
-9.131300 0.000000
-9.108500 0.000000
-9.085700 0.000000
-9.062900 0.000000
-9.040100 0.000000
-9.017300 0.000000
-8.994500 0.000000
-8.971700 0.000000
-8.948900 0.000000
-8.926100 0.000000
-8.903300 0.000000
-8.880500 0.000000
-8.857600 0.000000
-8.834800 0.000000
-8.812000 0.000000
-8.789200 0.000000
-8.766400 0.000000
-8.743600 0.000000
-8.720800 0.000000
-8.698000 0.000000
-8.675200 0.000000
-8.652400 0.000000
-8.629600 0.000000
-8.606800 0.000000
-8.584000 0.000000
-8.561200 0.000000
-8.538400 0.000000
-8.515600 0.000000
-8.492800 0.000000
-8.470000 0.000000
-8.447200 0.000000
-8.424400 0.000000
-8.401600 0.000000
-8.378800 0.000000
-8.356000 0.000000
-8.333200 0.000000
-8.310400 0.000000
-8.287600 0.000000
-8.264800 0.000000
-8.242000 0.000000
-8.219200 0.000000
-8.196400 0.000000
-8.173600 0.000000
-8.150800 0.000000
-8.128000 0.000000
-8.105200 0.000000
-8.082400 0.000000
-8.059600 0.000000
-8.036800 0.000000
-8.013900 0.000000
-7.991100 0.000000
-7.968300 0.000000
-7.945500 0.000000
-7.922700 0.000000
-7.899900 0.000000
-7.877100 0.000000
-7.854300 0.000000
-7.831500 0.000000
-7.808700 0.000000
-7.785900 0.000000
-7.763100 0.000000
-7.740300 0.000000
-7.717500 0.000000
-7.694700 0.000000
-7.671900 0.000000
-7.649100 0.000000
-7.626300 0.000000
-7.603500 0.000000
-7.580700 0.000000
-7.557900 0.000000
-7.535100 0.000000
-7.512300 0.000000
-7.489500 0.000000
-7.466700 0.000000
-7.443900 0.000000
-7.421100 0.000000
-7.398300 0.000000
-7.375500 0.000000
-7.352700 0.000000
-7.329900 0.000000
-7.307100 0.000000
-7.284300 0.000000
-7.261500 0.000000
-7.238700 0.000000
-7.215900 0.000000
-7.193100 0.000000
-7.170200 0.000000
-7.147400 0.000000
-7.124600 0.000000
-7.101800 0.000000
-7.079000 0.000000
-7.056200 0.000000
-7.033400 0.000000
-7.010600 0.000000
-6.987800 0.000000
-6.965000 0.000000
-6.942200 0.000000
-6.919400 0.000000
-6.896600 0.000000
-6.873800 0.000000
-6.851000 0.000000
-6.828200 0.000000
-6.805400 0.000000
-6.782600 0.000000
-6.759800 0.000000
-6.737000 0.000000
-6.714200 0.000000
-6.691400 0.000000
-6.668600 0.000000
-6.645800 0.000000
-6.623000 0.000000
-6.600200 0.000000
-6.577400 0.000000
-6.554600 0.000000
-6.531800 0.000000
-6.509000 0.000000
-6.486200 0.000000
-6.463400 0.000000
-6.440600 0.000000
-6.417800 0.000000
-6.395000 0.000000
-6.372200 0.000000
-6.349400 0.000000
-6.326600 0.000000
-6.303700 0.000000
-6.280900 0.000000
-6.258100 0.000000
-6.235300 0.000000
-6.212500 0.000000
-6.189700 0.000000
-6.166900 0.000000
-6.144100 0.000000
-6.121300 0.000000
-6.098500 0.000000
-6.075700 0.000000
-6.052900 0.000000
-6.030100 0.000000
-6.007300 0.000000
-5.984500 0.000000
-5.961700 0.000000
-5.938900 0.000000
-5.916100 0.000000
-5.893300 0.000000
-5.870500 0.000000
-5.847700 0.000000
-5.824900 0.000000
-5.802100 0.000000
-5.779300 0.000000
-5.756500 0.000000
-5.733700 0.000000
-5.710900 0.000000
-5.688100 0.000000
-5.665300 0.000000
-5.642500 0.000000
-5.619700 0.000000
-5.596900 0.000000
-5.574100 0.000000
-5.551300 0.000000
-5.528500 0.000000
-5.505700 0.000000
-5.482900 0.000000
-5.460000 1.493500
-5.437200 5.847300
-5.414400 8.528000
-5.391600 9.383700
-5.368800 11.574700
-5.346000 18.933800
-5.323200 23.146600
-5.300400 16.366500
-5.277600 12.245500
-5.254800 8.593000
-5.232000 9.254000
-5.209200 8.575600
-5.186400 8.027600
-5.163600 7.710000
-5.140800 9.083800
-5.118000 11.007300
-5.095200 16.443100
-5.072400 15.074900
-5.049600 14.079400
-5.026800 17.036400
-5.004000 15.760700
-4.981200 18.078200
-4.958400 19.903300
-4.935600 21.498100
-4.912800 22.012700
-4.890000 21.993000
-4.867200 18.063500
-4.844400 16.410000
-4.821600 16.897300
-4.798800 12.690000
-4.776000 17.400100
-4.753200 17.374300
-4.730400 22.775500
-4.707600 27.358600
-4.684800 42.611300
-4.662000 40.944600
-4.639200 45.603800
-4.616300 45.792400
-4.593500 34.558600
-4.570700 23.805800
-4.547900 20.988700
-4.525100 24.008900
-4.502300 26.873900
-4.479500 30.136300
-4.456700 24.313900
-4.433900 22.441500
-4.411100 19.262300
-4.388300 19.250700
-4.365500 19.664100
-4.342700 20.289900
-4.319900 19.717000
-4.297100 18.974900
-4.274300 16.778700
-4.251500 11.119400
-4.228700 9.029800
-4.205900 7.178300
-4.183100 5.598700
-4.160300 4.470900
-4.137500 3.263600
-4.114700 2.283800
-4.091900 1.134100
-4.069100 0.744100
-4.046300 1.543400
-4.023500 4.494800
-4.000700 12.496900
-3.977900 19.753600
-3.955100 36.140100
-3.932300 50.264100
-3.909500 43.946800
-3.886700 32.665100
-3.863900 36.233100
-3.841100 60.141800
-3.818300 40.036900
-3.795500 23.539600
-3.772600 45.691400
-3.749800 42.306000
-3.727000 17.959000
-3.704200 18.553100
-3.681400 18.487900
-3.658600 26.713900
-3.635800 20.696800
-3.613000 18.973300
-3.590200 37.287900
-3.567400 25.637700
-3.544600 26.685100
-3.521800 28.910400
-3.499000 13.238100
-3.476200 2.233000
-3.453400 0.539000
-3.430600 0.197000
-3.407800 0.151700
-3.385000 0.195100
-3.362200 0.255200
-3.339400 0.334000
-3.316600 0.461900
-3.293800 0.728000
-3.271000 1.126200
-3.248200 1.484200
-3.225400 2.271900
-3.202600 3.155100
-3.179800 3.793900
-3.157000 4.836700
-3.134200 6.473600
-3.111400 14.973100
-3.088600 10.558300
-3.065800 9.697300
-3.043000 8.141200
-3.020200 6.977900
-2.997400 6.429400
-2.974600 6.392900
-2.951800 6.460100
-2.929000 6.427300
-2.906100 6.354400
-2.883300 6.495600
-2.860500 6.429500
-2.837700 6.968900
-2.814900 7.628600
-2.792100 8.088000
-2.769300 8.370900
-2.746500 8.270200
-2.723700 8.299900
-2.700900 10.148100
-2.678100 9.484200
-2.655300 7.634000
-2.632500 6.901300
-2.609700 6.433200
-2.586900 6.002200
-2.564100 5.345600
-2.541300 5.133900
-2.518500 4.964200
-2.495700 4.801200
-2.472900 4.606800
-2.450100 4.442800
-2.427300 5.542600
-2.404500 3.895800
-2.381700 3.968500
-2.358900 4.139000
-2.336100 4.336300
-2.313300 4.486900
-2.290500 4.605500
-2.267700 4.760500
-2.244900 5.459300
-2.222100 5.443500
-2.199300 6.284900
-2.176500 6.947200
-2.153700 8.009100
-2.130900 6.767900
-2.108100 7.470800
-2.085300 7.928000
-2.062400 7.425500
-2.039600 7.762200
-2.016800 5.666800
-1.994000 3.762200
-1.971200 3.757900
-1.948400 3.805600
-1.925600 3.843100
-1.902800 3.938200
-1.880000 3.973100
-1.857200 3.981800
-1.834400 3.992900
-1.811600 4.006100
-1.788800 4.021700
-1.766000 4.030800
-1.743200 4.042400
-1.720400 4.116800
-1.697600 4.541700
-1.674800 4.491200
-1.652000 4.754700
-1.629200 4.677700
-1.606400 4.891500
-1.583600 4.692500
-1.560800 4.928400
-1.538000 5.300100
-1.515200 5.518300
-1.492400 5.061500
-1.469600 4.639200
-1.446800 4.662800
-1.424000 4.566200
-1.401200 4.669300
-1.378400 4.996400
-1.355600 5.331500
-1.332800 6.203500
-1.310000 7.073300
-1.287200 7.916900
-1.264400 5.846800
-1.241600 6.102000
-1.218700 6.511300
-1.195900 6.619600
-1.173100 6.747400
-1.150300 7.531800
-1.127500 8.282700
-1.104700 8.705100
-1.081900 9.031700
-1.059100 9.341600
-1.036300 8.660900
-1.013500 8.445300
-0.990700 8.695200
-0.967900 8.244100
-0.945100 8.132100
-0.922300 8.399800
-0.899500 7.942500
-0.876700 7.673400
-0.853900 7.554700
-0.831100 7.488300
-0.808300 7.560100
-0.785500 7.931000
-0.762700 8.414800
-0.739900 8.613400
-0.717100 8.981900
-0.694300 9.331700
-0.671500 9.434500
-0.648700 10.378100
-0.625900 13.985500
-0.603100 11.687800
-0.580300 11.253800
-0.557500 11.021600
-0.534700 10.563600
-0.511900 10.244800
-0.489100 9.980600
-0.466300 9.735400
-0.443500 9.375800
-0.420700 8.874700
-0.397900 8.421600
-0.375100 8.298000
-0.352200 8.292600
-0.329400 8.206400
-0.306600 8.221100
-0.283800 8.169100
-0.261000 8.201300
-0.238200 8.317100
-0.215400 8.554100
-0.192600 8.759800
-0.169800 8.795800
-0.147000 8.543600
-0.124200 8.240800
-0.101400 7.812100
-0.078600 7.342500
-0.055800 6.971500
-0.033000 6.585800
-0.010200 6.035600
0.012600 5.858600
0.035400 5.218700
0.058200 4.795000
0.081000 4.534300
0.103800 4.612300
0.126600 4.869900
0.149400 5.054800
0.172200 4.695000
0.195000 4.201400
0.217800 3.774800
0.240600 3.549300
0.263400 3.385500
0.286200 3.132100
0.309000 2.724000
0.331800 2.214800
0.354600 1.711600
0.377400 1.229200
0.400200 0.924400
0.423000 0.772900
0.445800 0.643900
0.468600 0.521500
0.491500 0.400800
0.514300 0.281100
0.537100 0.162600
0.559900 0.069300
0.582700 0.015200
0.605500 0.000000
0.628300 0.000000
0.651100 0.000000
0.673900 0.000000
0.696700 0.000000
0.719500 0.000000
0.742300 0.000000
0.765100 0.000000
0.787900 0.000000
0.810700 0.000000
0.833500 0.000000
0.856300 0.000000
0.879100 0.000000
0.901900 0.000000
0.924700 0.000000
0.947500 0.000000
0.970300 0.000000
0.993100 0.000000
1.015900 0.000000
1.038700 0.000000
1.061500 0.000000
1.084300 0.000000
1.107100 0.000000
1.129900 0.000000
1.152700 0.000000
1.175500 0.000000
1.198300 0.000000
1.221100 0.000000
1.243900 0.000000
1.266700 0.000000
1.289500 0.000000
1.312300 0.000000
1.335200 0.000000
1.358000 0.000000
1.380800 0.000200
1.403600 0.000500
1.426400 0.001000
1.449200 0.001600
1.472000 0.002300
1.494800 0.003100
1.517600 0.004100
1.540400 0.005200
1.563200 0.006500
1.586000 0.007900
1.608800 0.009400
1.631600 0.011100
1.654400 0.012900
1.677200 0.014900
1.700000 0.016900
1.722800 0.019200
1.745600 0.021500
1.768400 0.024000
1.791200 0.026600
1.814000 0.029400
1.836800 0.032300
1.859600 0.035300
1.882400 0.038500
1.905200 0.041800
1.928000 0.045200
1.950800 0.048800
1.973600 0.052500
1.996400 0.056400
2.019200 0.060400
2.042000 0.064500
2.064800 0.070300
2.087600 0.076600
2.110400 0.083300
2.133200 0.090500
2.156000 0.098200
2.178900 0.106300
2.201700 0.114600
2.224500 0.122700
2.247300 0.130500
2.270100 0.138000
2.292900 0.145300
2.315700 0.152400
2.338500 0.159200
2.361300 0.165800
2.384100 0.172100
2.406900 0.178200
2.429700 0.184100
2.452500 0.189700
2.475300 0.195000
2.498100 0.200100
2.520900 0.204900
2.543700 0.209400
2.566500 0.213600
2.589300 0.217400
2.612100 0.220800
2.634900 0.224300
2.657700 0.228200
2.680500 0.232300
2.703300 0.236800
2.726100 0.241500
2.748900 0.246500
2.771700 0.251800
2.794500 0.257300
2.817300 0.263200
2.840100 0.269300
2.862900 0.275700
2.885700 0.282400
2.908500 0.289400
2.931300 0.296700
2.954100 0.304200
2.976900 0.311700
2.999700 0.319400
3.022500 0.327100
3.045400 0.334900
3.068200 0.342800
3.091000 0.350800
3.113800 0.358900
3.136600 0.367100
3.159400 0.391200
3.182200 0.416600
3.205000 0.441100
3.227800 0.464800
3.250600 0.487600
3.273400 0.509500
3.296200 0.530600
3.319000 0.550800
3.341800 0.570100
3.364600 0.588600
3.387400 0.606200
3.410200 0.619900
3.433000 0.627900
3.455800 0.635300
3.478600 0.642100
3.501400 0.648400
3.524200 0.654200
3.547000 0.648500
3.569800 0.641200
3.592600 0.634500
3.615400 0.628200
3.638200 0.622400
3.661000 0.617100
3.683800 0.612200
3.706600 0.607600
3.729400 0.603300
3.752200 0.599400
3.775000 0.601700
3.797800 0.605500
3.820600 0.608800
3.843400 0.611800
3.866200 0.614300
3.889100 0.616500
3.911900 0.618500
3.934700 0.620400
3.957500 0.622000
3.980300 0.623500
4.003100 0.624900
4.025900 0.626100
4.048700 0.627100
4.071500 0.627900
4.094300 0.687900
4.117100 0.679700
4.139900 0.671600
4.162700 0.663600
4.185500 0.655800
4.208300 0.648100
4.231100 0.640500
4.253900 0.633000
4.276700 0.647900
4.299500 0.673600
4.322300 0.701100
4.345100 0.730200
4.367900 0.761100
4.390700 0.791500
4.413500 0.797100
4.436300 0.835500
4.459100 0.871000
4.481900 0.906500
4.504700 0.941900
4.527500 0.977000
4.550300 1.011800
4.573100 1.046500
4.595900 1.081100
4.618700 1.115400
4.641500 1.131800
4.664300 1.147100
4.687100 1.161300
4.709900 1.174600
4.732800 1.186700
4.755600 1.197800
4.778400 1.252000
4.801200 1.253600
4.824000 1.255000
4.846800 1.256000
4.869600 1.256600
4.892400 1.256900
4.915200 1.256700
4.938000 1.256100
4.960800 1.255000
4.983600 1.253600
5.006400 1.251900
5.029200 1.253000
5.052000 1.253100
5.074800 1.252700
5.097600 1.251800
5.120400 1.250400
5.143200 1.248600
5.166000 1.224200
5.188800 1.228000
5.211600 1.234300
5.234400 1.287200
5.257200 1.396300
5.280000 1.416800
5.302800 1.437800
5.325600 1.459200
5.348400 1.481100
5.371200 1.513000
5.394000 1.542800
5.416800 1.569400
5.439600 1.596300
5.462400 1.571700
5.485200 1.590500
5.508000 1.610900
5.530800 1.631000
5.553600 1.650500
5.576400 1.669800
5.599300 1.694000
5.622100 1.722600
5.644900 1.751300
5.667700 1.791000
5.690500 1.838300
5.713300 1.892100
5.736100 1.949300
5.758900 2.009400
5.781700 2.072400
5.804500 2.138500
5.827300 2.207500
5.850100 2.331000
5.872900 2.414700
5.895700 2.457800
5.918500 2.495000
5.941300 2.529300
5.964100 2.469700
5.986900 2.448600
6.009700 2.415700
6.032500 2.370700
6.055300 2.312700
6.078100 2.293600
6.100900 2.283300
6.123700 2.233900
6.146500 2.211100
6.169300 2.605000
6.192100 2.953100
6.214900 3.151400
6.237700 3.226200
6.260500 3.305700
6.283300 3.374900
6.306100 3.448000
6.328900 3.244700
6.351700 2.220100
6.374500 2.571500
6.397300 1.986600
6.420100 1.958900
6.443000 1.933900
6.465800 1.912100
6.488600 1.890400
6.511400 1.869100
6.534200 1.848100
6.557000 1.828100
6.579800 1.809300
6.602600 1.836800
6.625400 1.834300
6.648200 1.835000
6.671000 1.840900
6.693800 1.849300
6.716600 1.859400
6.739400 1.871100
6.762200 1.884500
6.785000 1.899500
6.807800 1.916200
6.830600 3.032300
6.853400 1.988000
6.876200 2.002400
6.899000 2.016800
6.921800 2.032600
6.944600 2.029900
6.967400 2.027900
6.990200 2.026000
7.013000 2.027800
7.035800 2.037000
7.058600 2.052200
7.081400 2.074400
7.104200 2.095300
7.127000 2.114700
7.149800 2.136600
7.172600 2.173400
7.195400 2.009500
7.218200 1.991800
7.241000 1.974200
7.263800 1.956900
7.286700 1.939700
7.309500 1.924800
7.332300 1.916900
7.355100 1.912400
7.377900 1.911400
7.400700 1.955500
7.423500 2.023400
7.446300 2.100000
7.469100 2.187300
7.491900 2.196700
7.514700 2.203600
7.537500 2.196800
7.560300 2.180500
7.583100 2.164600
7.605900 2.149600
7.628700 2.135300
7.651500 2.111200
7.674300 2.084600
7.697100 2.056000
7.719900 2.027200
7.742700 2.001300
7.765500 1.978400
7.788300 1.958800
7.811100 1.932600
7.833900 1.898000
7.856700 1.865600
7.879500 1.834100
7.902300 1.803400
7.925100 1.773700
7.947900 1.770100
7.970700 1.829400
7.993500 1.947400
8.016300 2.791600
8.039100 2.878700
8.061900 2.568400
8.084700 2.180700
8.107500 1.833200
8.130400 1.487800
8.153200 1.193700
8.176000 1.027900
8.198800 1.059700
8.221600 2.651800
8.244400 3.405300
8.267200 3.840600
8.290000 4.729200
8.312800 5.159400
8.335600 5.527500
8.358400 5.931700
8.381200 6.325600
8.404000 6.458900
8.426800 6.540400
8.449600 6.461400
8.472400 6.298400
8.495200 6.402100
8.518000 8.640000
8.540800 8.950800
8.563600 7.472700
8.586400 6.992200
8.609200 6.825000
8.632000 6.071500
8.654800 5.184800
8.677600 4.914600
8.700400 5.024000
8.723200 5.318500
8.746000 5.845400
8.768800 6.557200
8.791600 6.777900
8.814400 6.700300
8.837200 8.179900
8.860000 8.488400
8.882800 7.371800
8.905600 7.104100
8.928400 6.494300
8.951200 4.766900
8.974000 4.471400
8.996900 4.163800
9.019700 4.080100
9.042500 3.902100
9.065300 3.700100
9.088100 3.654000
9.110900 4.203700
9.133700 4.633200
9.156500 4.452500
9.179300 3.372200
9.202100 2.991000
9.224900 2.806900
9.247700 2.653400
9.270500 2.523100
9.293300 2.426800
9.316100 2.381600
9.338900 2.481200
9.361700 2.516300
9.384500 2.463300
9.407300 2.360500
9.430100 2.260400
9.452900 2.162900
9.475700 2.068200
9.498500 1.976200
9.521300 1.887000
9.544100 1.800400
9.566900 1.780900
9.589700 1.712800
9.612500 2.071000
9.635300 2.734300
9.658100 3.535200
9.680900 3.995700
9.703700 4.327900
9.726500 3.663400
9.749300 3.386500
9.772100 3.338300
9.794900 3.322700
9.817700 3.164400
9.840600 3.079900
9.863400 3.040600
9.886200 3.039000
9.909000 3.054900
9.931800 3.066900
9.954600 3.082800
9.977400 3.102500
10.000200 3.126000
10.023000 3.167800
10.045800 3.232300
10.068600 3.224600
10.091400 3.295500
10.114200 3.386100
10.137000 3.209600
10.159800 3.154000
10.182600 2.970500
10.205400 2.957900
10.228200 2.953900
10.251000 3.453200
10.273800 3.394200
10.296600 3.341100
10.319400 3.241800
10.342200 2.936200
10.365000 2.844200
10.387800 2.673100
10.410600 2.647300
10.433400 2.630300
10.456200 2.680100
10.479000 2.654600
10.501800 2.725100
10.524600 3.220100
10.547400 4.748300
10.570200 4.986900
10.593000 5.253600
10.615800 5.330500
10.638600 4.556900
10.661400 4.077800
10.684300 3.543900
10.707100 2.477900
10.729900 2.349500
10.752700 2.259100
10.775500 2.468300
10.798300 2.327700
10.821100 1.755800
10.843900 1.728300
10.866700 1.742200
10.889500 1.965000
10.912300 2.148700
10.935100 3.269700
10.957900 2.241700
10.980700 2.603400
11.003500 2.721500
11.026300 2.846000
11.049100 2.977100
11.071900 2.885800
11.094700 2.967100
11.117500 3.267300
11.140300 3.099100
11.163100 2.909400
11.185900 2.955300
11.208700 3.127100
11.231500 3.307400
11.254300 3.470800
11.277100 3.628300
11.299900 3.901100
11.322700 4.015300
11.345500 3.999600
11.368300 3.689300
11.391100 3.398600
11.413900 3.131000
11.436700 2.893400
11.459500 3.231100
11.482300 3.112400
11.505100 2.806200
11.527900 2.774200
11.550800 2.802100
11.573600 2.831900
11.596400 2.868100
11.619200 2.924700
11.642000 2.981200
11.664800 3.034800
11.687600 3.010600
11.710400 3.031900
11.733200 3.040400
11.756000 3.056200
11.778800 3.070100
11.801600 3.016900
11.824400 2.999700
11.847200 2.978900
11.870000 2.978300
11.892800 2.991700
11.915600 3.032000
11.938400 3.075100
11.961200 3.117400
11.984000 3.051900
12.006800 2.987400
12.029600 2.921900
12.052400 2.855500
12.075200 2.788300
12.098000 2.730900
12.120800 2.742700
12.143600 2.700900
12.166400 2.684100
12.189200 2.664800
12.212000 2.642900
12.234800 2.624500
12.257600 2.618600
12.280400 2.651900
12.303200 2.549100
12.326000 2.475200
12.348800 2.443100
12.371600 2.440200
12.394500 2.345300
12.417300 2.244400
12.440100 2.169100
12.462900 2.117000
12.485700 2.013500
12.508500 1.922800
12.531300 1.845200
12.554100 1.779500
12.576900 1.725800
12.599700 1.684100
12.622500 1.671800
12.645300 1.754400
12.668100 1.855600
12.690900 1.967700
12.713700 2.101200
12.736500 2.253100
12.759300 2.401100
12.782100 2.544700
12.804900 2.683800
12.827700 2.818600
12.850500 2.947400
12.873300 3.069000
12.896100 3.186600
12.918900 3.300100
12.941700 3.502100
12.964500 3.594600
12.987300 3.676000
13.010100 3.745800
13.032900 3.833000
13.055700 3.887100
13.078500 4.000200
13.101300 3.769200
13.124100 3.850300
13.146900 3.867600
13.169700 3.961000
13.192500 3.827400
13.215300 3.696900
13.238200 3.588400
13.261000 3.542900
13.283800 3.514800
13.306600 3.514600
13.329400 3.575800
13.352200 3.614500
13.375000 3.684800
13.397800 3.756400
13.420600 3.810100
13.443400 3.836500
13.466200 5.278800
13.489000 5.362000
13.511800 5.567300
13.534600 5.689800
13.557400 4.885600
13.580200 4.255900
13.603000 3.745400
13.625800 3.352000
13.648600 3.081400
13.671400 2.957500
13.694200 2.777300
13.717000 2.610200
13.739800 2.456100
13.762600 2.315200
13.785400 2.130600
13.808200 2.333600
13.831000 1.379200
13.853800 1.317700
13.876600 1.396800
13.899400 1.434700
13.922200 1.525800
13.945000 1.647900
13.967800 1.765400
13.990600 1.877900
14.013400 1.973400
14.036200 1.926800
14.059000 1.769600
14.081800 1.652500
14.104700 1.549000
14.127500 2.892400
14.150300 1.789100
14.173100 2.118300
14.195900 2.208500
14.218700 2.306300
14.241500 2.412700
14.264300 2.525900
14.287100 2.340600
14.309900 2.628300
14.332700 2.779500
14.355500 2.830600
14.378300 2.989000
14.401100 3.415400
14.423900 3.600600
14.446700 3.919700
14.469500 4.215300
14.492300 4.603900
14.515100 5.022100
14.537900 5.590200
14.560700 5.835800
14.583500 5.852300
14.606300 5.706400
14.629100 5.378800
14.651900 4.968500
14.674700 4.646800
14.697500 4.421100
14.720300 4.268700
14.743100 4.169500
14.765900 3.981700
14.788700 3.865300
14.811500 3.750800
14.834300 3.544600
14.857100 3.451500
14.879900 3.287900
14.902700 3.231700
14.925500 3.175100
14.948400 3.127200
14.971200 3.080500
14.994000 3.034900
15.016800 2.989100
15.039600 2.941900
15.062400 2.894300
15.085200 2.853200
15.108000 2.819700
15.130800 2.656400
15.153600 2.405800
15.176400 2.251900
15.199200 2.201000
15.222000 2.147000
15.244800 2.089800
15.267600 2.037600
15.290400 1.994500
15.313200 1.939300
15.336000 1.870600
15.358800 1.759100
15.381600 1.655000
15.404400 1.558300
15.427200 1.469000
15.450000 1.386300
15.472800 1.328700
15.495600 1.284500
15.518400 1.260300
15.541200 1.236000
15.564000 1.211500
15.586800 1.187000
15.609600 1.162700
15.632400 1.141200
15.655200 1.124700
15.678000 1.112200
15.700800 1.103400
15.723600 1.096500
15.746400 1.091400
15.769200 1.088000
15.792100 1.086400
15.814900 1.086500
15.837700 1.088300
15.860500 1.092400
15.883300 1.098700
15.906100 1.114700
15.928900 1.141300
15.951700 1.168300
15.974500 1.196000
15.997300 1.225200
16.020100 1.255800
16.042900 1.288400
16.065700 1.323900
16.088500 1.362700
16.111300 1.405600
16.134100 1.452800
16.156900 1.504200
16.179700 1.593800
16.202500 1.755100
16.225300 1.936800
16.248100 2.123000
16.270900 2.266000
16.293700 2.443200
16.316500 2.861300
16.339300 3.152300
16.362100 3.324600
16.384900 3.562800
16.407700 3.517600
16.430500 3.615800
16.453300 3.707300
16.476100 3.792200
16.498900 3.908500
16.521700 3.961500
16.544500 4.057500
16.567300 4.200900
16.590100 4.953000
16.612900 5.624000
16.635800 5.203100
16.658600 5.382100
16.681400 5.509800
16.704200 4.484300
16.727000 4.325600
16.749800 4.185600
16.772600 4.051000
16.795400 3.815500
16.818200 3.608200
16.841000 3.665200
16.863800 3.477300
16.886600 3.305300
16.909400 3.147100
16.932200 2.999100
16.955000 2.804200
16.977800 2.706000
17.000600 2.706300
17.023400 2.717900
17.046200 2.850900
17.069000 2.701800
17.091800 2.458100
17.114600 2.141500
17.137400 1.973200
17.160200 1.936700
17.183000 1.949900
17.205800 1.990100
17.228600 2.043400
17.251400 2.136000
17.274200 2.883900
17.297000 3.065200
17.319800 3.224900
17.342600 3.362700
17.365400 3.479800
17.388200 3.438600
17.411000 3.243900
17.433800 2.967200
17.456600 2.820900
17.479400 2.813400
17.502300 2.821400
17.525100 2.864800
17.547900 3.029700
17.570700 3.230400
17.593500 3.435600
17.616300 3.434900
17.639100 3.418800
17.661900 3.404100
17.684700 3.415100
17.707500 3.427900
17.730300 3.206600
17.753100 3.122200
17.775900 2.952500
17.798700 2.871200
17.821500 2.811300
17.844300 2.772700
17.867100 2.874200
17.889900 2.851600
17.912700 2.834000
17.935500 2.821300
17.958300 2.813700
17.981100 2.800400
18.003900 2.838500
18.026700 2.707500
18.049500 2.772300
18.072300 2.942600
18.095100 3.173500
18.117900 3.585000
18.140700 3.449100
18.163500 3.355500
18.186300 3.389700
18.209100 3.413300
18.231900 3.426000
18.254700 3.424200
18.277500 3.378400
18.300300 3.228000
18.323100 3.005300
18.346000 2.951500
18.368800 2.897000
18.391600 2.841800
18.414400 2.786100
18.437200 2.746200
18.460000 2.708200
18.482800 2.849900
18.505600 2.839700
18.528400 2.841800
18.551200 3.176600
18.574000 1.994800
18.596800 2.170400
18.619600 2.039400
18.642400 1.953500
18.665200 1.904900
18.688000 1.971300
18.710800 2.061500
18.733600 2.172700
18.756400 2.218400
18.779200 2.344500
18.802000 2.468900
18.824800 2.419900
18.847600 2.430200
18.870400 2.568400
18.893200 2.548000
18.916000 2.545700
18.938800 2.556400
18.961600 2.563100
18.984400 3.026100
19.007200 2.692900
19.030000 2.921800
19.052800 3.152200
19.075600 3.379000
19.098400 3.524900
19.121200 3.608700
19.144000 3.733900
19.166800 3.840600
19.189700 3.949900
19.212500 3.976400
19.235300 3.810200
19.258100 3.640400
19.280900 3.462200
19.303700 3.375400
19.326500 3.225300
19.349300 3.073000
19.372100 2.918500
19.394900 2.760500
19.417700 2.602300
19.440500 2.469900
19.463300 2.374500
19.486100 2.286000
19.508900 2.262200
19.531700 2.263900
19.554500 2.270600
19.577300 2.297100
19.600100 2.372000
19.622900 2.418000
19.645700 2.493600
19.668500 2.566100
19.691300 2.635500
19.714100 2.701800
19.736900 2.764900
19.759700 2.780700
19.782500 2.863300
19.805300 2.953100
19.828100 3.034000
19.850900 3.172700
19.873700 3.311500
19.896500 3.327600
19.919300 3.299700
19.942100 3.280300
19.964900 3.269500
19.987700 3.263200
20.010500 3.261700
20.033300 3.245800
20.056200 3.308000
20.079000 5.732100
20.101800 3.103800
20.124600 2.957000
20.147400 2.844400
20.170200 2.762900
20.193000 2.728900
20.215800 2.743000
20.238600 2.753600
20.261400 2.683000
20.284200 2.626000
20.307000 2.617500
20.329800 2.535300
20.352600 2.534300
20.375400 2.527200
20.398200 2.521500
20.421000 2.515300
20.443800 2.518300
20.466600 2.524100
20.489400 2.532200
20.512200 2.542400
20.535000 2.554800
20.557800 2.569400
20.580600 2.686700
20.603400 2.747100
20.626200 2.838000
20.649000 2.970400
20.671800 3.165800
20.694600 3.368600
20.717400 3.546500
20.740200 3.652600
20.763000 3.668100
20.785800 3.668900
20.808600 3.709200
20.831400 3.780200
20.854200 3.803900
20.877000 3.830100
20.899900 3.774300
20.922700 3.725400
20.945500 3.672500
20.968300 3.615100
20.991100 3.553200
21.013900 3.487300
21.036700 3.417800
21.059500 3.463800
21.082300 3.502100
21.105100 3.454900
21.127900 3.369400
21.150700 3.273600
21.173500 3.177800
21.196300 3.070900
21.219100 2.946300
21.241900 2.844100
21.264700 2.771100
21.287500 2.701400
21.310300 2.626200
21.333100 2.545500
21.355900 2.490200
21.378700 2.452100
21.401500 2.471900
21.424300 2.410100
21.447100 2.500500
21.469900 2.559300
21.492700 2.653600
21.515500 3.641700
21.538300 6.413200
21.561100 2.628800
21.583900 2.863700
21.606700 3.014900
21.629500 3.167100
21.652300 3.319700
21.675100 3.473100
21.697900 3.627400
21.720700 3.962300
21.743600 4.319600
21.766400 4.692600
21.789200 5.113400
21.812000 5.382000
21.834800 4.533000
21.857600 2.838900
21.880400 2.804800
21.903200 2.776400
21.926000 2.753800
21.948800 2.737000
21.971600 2.722100
21.994400 2.688900
22.017200 2.634400
22.040000 2.568500
22.062800 2.530300
22.085600 2.570400
22.108400 2.657600
22.131200 2.996800
22.154000 2.990400
22.176800 2.952400
22.199600 2.578900
22.222400 2.580300
22.245200 2.660300
22.268000 2.723500
22.290800 2.808600
22.313600 2.831300
22.336400 2.800000
22.359200 2.725900
22.382000 2.709400
22.404800 2.606700
22.427600 2.499500
22.450400 2.471400
22.473200 2.700400
22.496000 2.684700
22.518800 2.576500
22.541600 2.332400
22.564400 2.285500
22.587300 2.270400
22.610100 2.302200
22.632900 2.273900
22.655700 2.350300
22.678500 2.469100
22.701300 2.710700
22.724100 2.839600
22.746900 2.966300
22.769700 3.090900
22.792500 3.213300
22.815300 3.014900
22.838100 3.106500
22.860900 3.265900
22.883700 3.507000
22.906500 3.672700
22.929300 3.811800
22.952100 3.866700
22.974900 3.858600
22.997700 3.773000
23.020500 3.566600
23.043300 3.368000
23.066100 3.172900
23.088900 3.030500
23.111700 2.917900
23.134500 2.859800
23.157300 2.823300
23.180100 2.783300
23.202900 2.741600
23.225700 2.698700
23.248500 2.654500
23.271300 2.609000
23.294100 2.541800
23.316900 2.472200
23.339700 2.404000
23.362500 2.337800
23.385300 2.273500
23.408100 2.211100
23.430900 2.150700
23.453800 2.092200
23.476600 2.031100
23.499400 1.966600
23.522200 1.901300
23.545000 1.835300
23.567800 1.769000
23.590600 1.700200
23.613400 1.628900
23.636200 1.555100
23.659000 1.478800
23.681800 1.181600
23.704600 1.023200
23.727400 0.950300
23.750200 0.881400
23.773000 0.816000
23.795800 0.744600
23.818600 0.722100
23.841400 0.699300
23.864200 0.634300
23.887000 0.611400
23.909800 0.588700
23.932600 0.566300
23.955400 0.544100
23.978200 0.522100
24.001000 0.500400
24.023800 0.478900
24.046600 0.457600
24.069400 0.436600
24.092200 0.415800
24.115000 0.395200
24.137800 0.374900
24.160600 0.395900
24.183400 0.371400
24.206200 0.289900
24.229000 0.197500
24.251800 0.119000
24.274600 0.054500
24.297500 0.003900
24.320300 0.000000
24.343100 0.000000
24.365900 0.000000
24.388700 0.000000
24.411500 0.000000
24.434300 0.000000
24.457100 0.000000
24.479900 0.000000
24.502700 0.000000
24.525500 0.000000
24.548300 0.000000
24.571100 0.000000
24.593900 0.000000
24.616700 0.000000
24.639500 0.000000
24.662300 0.000000
24.685100 0.000000
24.707900 0.000000
24.730700 0.000000
24.753500 0.000000
24.776300 0.000000
24.799100 0.000000
24.821900 0.000000
24.844700 0.000000
24.867500 0.000000
24.890300 0.000000
24.913100 0.000000
24.935900 0.000000
24.958700 0.000000
24.981500 0.000000
25.004300 0.000000
25.027100 0.000000
25.049900 0.000000
25.072700 0.000000
25.095500 0.000000
25.118300 0.000000
25.141200 0.000000
25.164000 0.000000
25.186800 0.000000
25.209600 0.000000
25.232400 0.000000
25.255200 0.000000
25.278000 0.000000
25.300800 0.000000
25.323600 0.000000
25.346400 0.000000
25.369200 0.000000
25.392000 0.000000
25.414800 0.000000
25.437600 0.000000
25.460400 0.000000
25.483200 0.000000
25.506000 0.000000
25.528800 0.000000
25.551600 0.000000
25.574400 0.000000
25.597200 0.000000
25.620000 0.000000
25.642800 0.000000
25.665600 0.000000
25.688400 0.000000
25.711200 0.000000
25.734000 0.000000
25.756800 0.000000
25.779600 0.000000
25.802400 0.000000
25.825200 0.000000
25.848000 0.000000
25.870800 0.000000
25.893600 0.000000
25.916400 0.000000
25.939200 0.000000
25.962000 0.000000
25.984800 0.000000
26.007700 0.000000
26.030500 0.000000
26.053300 0.000000
26.076100 0.000000
26.098900 0.000000
26.121700 0.000000
26.144500 0.000000
26.167300 0.000000
26.190100 0.000000
26.212900 0.000000
26.235700 0.000000
26.258500 0.000000
26.281300 0.000000
26.304100 0.000000
26.326900 0.000000
26.349700 0.000000
26.372500 0.000000
e
