set title 'mp-28933 - Density of States'
set xlabel 'Energy (eV)'
set ylabel 'DOS (states/eV)'
set grid
set xrange [-10:10]
set yrange [0:195.280]
set xzeroaxis lt -1
set terminal png size 800,600
set output 'mp-28933_dos_gnuplot.png'
plot '-' using 1:2 with lines title 'DOS'
-25.094400 0.000000
-25.074500 0.000000
-25.054500 0.000000
-25.034500 0.000000
-25.014600 0.000000
-24.994600 0.000000
-24.974600 0.000000
-24.954600 0.000000
-24.934700 0.000000
-24.914700 0.000000
-24.894700 0.000000
-24.874700 0.000000
-24.854800 0.000000
-24.834800 0.000000
-24.814800 0.000000
-24.794900 0.000000
-24.774900 0.000000
-24.754900 0.000000
-24.734900 0.000000
-24.715000 0.000000
-24.695000 0.000000
-24.675000 0.000000
-24.655100 0.000000
-24.635100 0.000000
-24.615100 0.000000
-24.595100 0.000000
-24.575200 0.000000
-24.555200 0.000000
-24.535200 0.000000
-24.515300 0.000000
-24.495300 0.000000
-24.475300 0.000000
-24.455300 0.000000
-24.435400 0.000000
-24.415400 0.000000
-24.395400 0.000000
-24.375400 0.000000
-24.355500 0.000000
-24.335500 0.000000
-24.315500 0.000000
-24.295600 0.000000
-24.275600 0.000000
-24.255600 0.000000
-24.235600 0.000000
-24.215700 0.000000
-24.195700 0.000000
-24.175700 0.000000
-24.155800 0.000000
-24.135800 0.000000
-24.115800 0.000000
-24.095800 0.000000
-24.075900 0.000000
-24.055900 0.000000
-24.035900 0.000000
-24.016000 0.000000
-23.996000 0.000000
-23.976000 0.000000
-23.956000 0.000000
-23.936100 0.000000
-23.916100 0.000000
-23.896100 0.000000
-23.876100 0.000000
-23.856200 0.000000
-23.836200 0.000000
-23.816200 0.000000
-23.796300 0.000000
-23.776300 0.000000
-23.756300 0.000000
-23.736300 0.000000
-23.716400 0.000000
-23.696400 0.000000
-23.676400 0.000000
-23.656500 0.000000
-23.636500 0.000000
-23.616500 0.000000
-23.596500 0.000000
-23.576600 0.000000
-23.556600 0.000000
-23.536600 0.000000
-23.516700 0.000000
-23.496700 0.000000
-23.476700 0.000000
-23.456700 0.000000
-23.436800 0.000000
-23.416800 0.000000
-23.396800 0.000000
-23.376800 0.000000
-23.356900 0.000000
-23.336900 0.000000
-23.316900 0.000000
-23.297000 0.000000
-23.277000 14.304500
-23.257000 175.127400
-23.237000 160.215400
-23.217100 0.000000
-23.197100 0.000000
-23.177100 0.000000
-23.157200 0.000000
-23.137200 0.000000
-23.117200 0.000000
-23.097200 0.000000
-23.077300 0.000000
-23.057300 0.000000
-23.037300 0.000000
-23.017300 0.000000
-22.997400 0.000000
-22.977400 0.000000
-22.957400 0.000000
-22.937500 0.000000
-22.917500 138.017500
-22.897500 0.000000
-22.877500 88.163900
-22.857600 0.000000
-22.837600 0.000000
-22.817600 0.000000
-22.797700 0.000000
-22.777700 0.000000
-22.757700 0.000000
-22.737700 0.000000
-22.717800 0.000000
-22.697800 0.000000
-22.677800 0.000000
-22.657900 0.000000
-22.637900 0.000000
-22.617900 0.000000
-22.597900 0.000000
-22.578000 0.000000
-22.558000 0.000000
-22.538000 0.000000
-22.518000 0.000000
-22.498100 0.000000
-22.478100 0.000000
-22.458100 0.000000
-22.438200 0.000000
-22.418200 0.000000
-22.398200 0.000000
-22.378200 0.000000
-22.358300 0.000000
-22.338300 0.000000
-22.318300 0.000000
-22.298400 0.000000
-22.278400 0.000000
-22.258400 0.000000
-22.238400 0.000000
-22.218500 0.000000
-22.198500 0.000000
-22.178500 0.000000
-22.158600 0.000000
-22.138600 0.000000
-22.118600 0.000000
-22.098600 0.000000
-22.078700 0.000000
-22.058700 0.000000
-22.038700 0.000000
-22.018700 0.000000
-21.998800 0.000000
-21.978800 0.000000
-21.958800 0.000000
-21.938900 0.000000
-21.918900 0.000000
-21.898900 0.000000
-21.878900 0.000000
-21.859000 0.000000
-21.839000 0.000000
-21.819000 0.000000
-21.799100 0.000000
-21.779100 0.000000
-21.759100 0.000000
-21.739100 0.000000
-21.719200 0.000000
-21.699200 0.000000
-21.679200 0.000000
-21.659300 0.000000
-21.639300 0.000000
-21.619300 0.000000
-21.599300 0.000000
-21.579400 0.000000
-21.559400 0.000000
-21.539400 0.000000
-21.519400 0.000000
-21.499500 0.000000
-21.479500 0.000000
-21.459500 0.000000
-21.439600 0.000000
-21.419600 0.000000
-21.399600 0.000000
-21.379600 0.000000
-21.359700 0.000000
-21.339700 0.000000
-21.319700 0.000000
-21.299800 0.000000
-21.279800 0.000000
-21.259800 0.000000
-21.239800 0.000000
-21.219900 0.000000
-21.199900 0.000000
-21.179900 0.000000
-21.159900 0.000000
-21.140000 0.000000
-21.120000 0.000000
-21.100000 0.000000
-21.080100 0.000000
-21.060100 0.000000
-21.040100 0.000000
-21.020100 0.000000
-21.000200 0.000000
-20.980200 0.000000
-20.960200 0.000000
-20.940300 0.000000
-20.920300 0.000000
-20.900300 0.000000
-20.880300 0.000000
-20.860400 0.000000
-20.840400 0.000000
-20.820400 0.000000
-20.800500 0.000000
-20.780500 0.000000
-20.760500 0.000000
-20.740500 0.000000
-20.720600 0.000000
-20.700600 0.000000
-20.680600 0.000000
-20.660600 0.000000
-20.640700 0.000000
-20.620700 0.000000
-20.600700 0.000000
-20.580800 0.000000
-20.560800 0.000000
-20.540800 0.000000
-20.520800 0.000000
-20.500900 0.000000
-20.480900 0.000000
-20.460900 0.000000
-20.441000 0.000000
-20.421000 0.000000
-20.401000 0.000000
-20.381000 0.000000
-20.361100 0.000000
-20.341100 0.000000
-20.321100 0.000000
-20.301200 0.000000
-20.281200 0.000000
-20.261200 0.000000
-20.241200 0.000000
-20.221300 0.000000
-20.201300 0.000000
-20.181300 0.000000
-20.161300 0.000000
-20.141400 0.000000
-20.121400 0.000000
-20.101400 0.000000
-20.081500 0.000000
-20.061500 0.000000
-20.041500 0.000000
-20.021500 0.000000
-20.001600 74.231200
-19.981600 108.640400
-19.961600 105.550600
-19.941700 0.000000
-19.921700 0.000000
-19.901700 0.000000
-19.881700 0.000000
-19.861800 0.000000
-19.841800 0.000000
-19.821800 0.000000
-19.801900 0.000000
-19.781900 0.000000
-19.761900 0.000000
-19.741900 0.000000
-19.722000 89.554500
-19.702000 214.513500
-19.682000 0.000000
-19.662000 0.000000
-19.642100 0.000000
-19.622100 0.000000
-19.602100 0.000000
-19.582200 0.000000
-19.562200 0.000000
-19.542200 0.000000
-19.522200 0.000000
-19.502300 0.000000
-19.482300 0.000000
-19.462300 0.000000
-19.442400 0.000000
-19.422400 0.000000
-19.402400 0.000000
-19.382400 0.000000
-19.362500 0.000000
-19.342500 371.662600
-19.322500 2570.352000
-19.302600 0.000000
-19.282600 0.000000
-19.262600 0.000000
-19.242600 0.000000
-19.222700 74.466600
-19.202700 65.685200
-19.182700 0.000000
-19.162700 71.688300
-19.142800 0.000000
-19.122800 0.000000
-19.102800 0.000000
-19.082900 0.000000
-19.062900 0.000000
-19.042900 0.000000
-19.022900 0.000000
-19.003000 0.000000
-18.983000 0.000000
-18.963000 0.000000
-18.943100 0.000000
-18.923100 0.000000
-18.903100 0.000000
-18.883100 0.000000
-18.863200 0.000000
-18.843200 0.000000
-18.823200 0.000000
-18.803200 0.000000
-18.783300 0.000000
-18.763300 0.000000
-18.743300 0.000000
-18.723400 0.000000
-18.703400 0.000000
-18.683400 0.000000
-18.663400 0.000000
-18.643500 0.000000
-18.623500 0.000000
-18.603500 0.000000
-18.583600 0.000000
-18.563600 0.000000
-18.543600 0.000000
-18.523600 0.000000
-18.503700 0.000000
-18.483700 0.000000
-18.463700 0.000000
-18.443800 0.000000
-18.423800 0.000000
-18.403800 0.000000
-18.383800 0.000000
-18.363900 0.000000
-18.343900 0.000000
-18.323900 0.000000
-18.303900 0.000000
-18.284000 0.000000
-18.264000 0.000000
-18.244000 0.000000
-18.224100 0.000000
-18.204100 0.000000
-18.184100 0.000000
-18.164100 0.000000
-18.144200 0.000000
-18.124200 0.000000
-18.104200 0.000000
-18.084300 0.000000
-18.064300 0.000000
-18.044300 0.000000
-18.024300 0.000000
-18.004400 0.000000
-17.984400 0.000000
-17.964400 0.000000
-17.944500 0.000000
-17.924500 0.000000
-17.904500 0.000000
-17.884500 0.000000
-17.864600 0.000000
-17.844600 0.000000
-17.824600 0.000000
-17.804600 0.000000
-17.784700 0.000000
-17.764700 0.000000
-17.744700 0.000000
-17.724800 0.000000
-17.704800 0.000000
-17.684800 0.000000
-17.664800 0.000000
-17.644900 0.000000
-17.624900 0.000000
-17.604900 0.000000
-17.585000 0.000000
-17.565000 0.000000
-17.545000 0.000000
-17.525000 0.000000
-17.505100 0.000000
-17.485100 0.000000
-17.465100 0.000000
-17.445200 0.000000
-17.425200 0.000000
-17.405200 0.000000
-17.385200 0.000000
-17.365300 0.000000
-17.345300 0.000000
-17.325300 0.000000
-17.305300 0.000000
-17.285400 0.000000
-17.265400 0.000000
-17.245400 0.000000
-17.225500 0.000000
-17.205500 0.000000
-17.185500 0.000000
-17.165500 0.000000
-17.145600 0.000000
-17.125600 0.000000
-17.105600 0.000000
-17.085700 0.000000
-17.065700 0.000000
-17.045700 0.000000
-17.025700 0.000000
-17.005800 0.000000
-16.985800 0.000000
-16.965800 0.000000
-16.945800 0.000000
-16.925900 0.000000
-16.905900 0.000000
-16.885900 0.000000
-16.866000 0.000000
-16.846000 0.000000
-16.826000 0.000000
-16.806000 0.000000
-16.786100 0.000000
-16.766100 0.000000
-16.746100 0.000000
-16.726200 0.000000
-16.706200 0.000000
-16.686200 0.000000
-16.666200 0.000000
-16.646300 0.000000
-16.626300 0.000000
-16.606300 0.000000
-16.586400 0.000000
-16.566400 0.000000
-16.546400 0.000000
-16.526400 0.000000
-16.506500 0.000000
-16.486500 0.000000
-16.466500 0.000000
-16.446500 0.000000
-16.426600 0.000000
-16.406600 0.000000
-16.386600 0.000000
-16.366700 0.000000
-16.346700 0.000000
-16.326700 0.000000
-16.306700 0.000000
-16.286800 0.000000
-16.266800 0.000000
-16.246800 0.000000
-16.226900 0.000000
-16.206900 0.000000
-16.186900 0.000000
-16.166900 0.000000
-16.147000 0.000000
-16.127000 0.000000
-16.107000 0.000000
-16.087100 0.000000
-16.067100 0.000000
-16.047100 0.000000
-16.027100 0.000000
-16.007200 0.000000
-15.987200 0.000000
-15.967200 0.000000
-15.947200 0.000000
-15.927300 0.000000
-15.907300 0.000000
-15.887300 0.000000
-15.867400 0.000000
-15.847400 0.000000
-15.827400 0.000000
-15.807400 0.000000
-15.787500 0.000000
-15.767500 0.000000
-15.747500 0.000000
-15.727600 0.000000
-15.707600 0.000000
-15.687600 0.000000
-15.667600 0.000000
-15.647700 0.000000
-15.627700 0.000000
-15.607700 0.000000
-15.587800 0.000000
-15.567800 0.000000
-15.547800 0.000000
-15.527800 0.000000
-15.507900 0.000000
-15.487900 0.000000
-15.467900 0.000000
-15.447900 0.000000
-15.428000 0.000000
-15.408000 0.000000
-15.388000 10.446200
-15.368100 14.801900
-15.348100 26.295700
-15.328100 29.185000
-15.308100 54.634200
-15.288200 14.402100
-15.268200 50.277500
-15.248200 8.860600
-15.228300 0.000000
-15.208300 0.000000
-15.188300 0.000000
-15.168300 0.000000
-15.148400 0.000000
-15.128400 0.000000
-15.108400 0.000000
-15.088400 105.283700
-15.068500 10.421200
-15.048500 54.938300
-15.028500 22.826300
-15.008600 22.793600
-14.988600 22.760800
-14.968600 20.324800
-14.948600 6.111900
-14.928700 0.000000
-14.908700 0.000000
-14.888700 0.000000
-14.868800 0.000000
-14.848800 0.000000
-14.828800 0.000000
-14.808800 0.000000
-14.788900 0.000000
-14.768900 0.000000
-14.748900 0.000000
-14.729000 0.000000
-14.709000 0.000000
-14.689000 0.000000
-14.669000 0.000000
-14.649100 0.000000
-14.629100 0.000000
-14.609100 0.000000
-14.589100 0.000000
-14.569200 0.000000
-14.549200 0.000000
-14.529200 0.000000
-14.509300 0.000000
-14.489300 0.000000
-14.469300 0.000000
-14.449300 63.734200
-14.429400 77.131200
-14.409400 0.000000
-14.389400 120.172500
-14.369500 66.485400
-14.349500 0.027200
-14.329500 0.000000
-14.309500 0.000000
-14.289600 0.000000
-14.269600 0.000000
-14.249600 0.000000
-14.229700 0.000000
-14.209700 0.000000
-14.189700 0.000000
-14.169700 0.000000
-14.149800 0.000000
-14.129800 0.000000
-14.109800 0.000000
-14.089800 0.000000
-14.069900 0.000000
-14.049900 0.000000
-14.029900 0.000000
-14.010000 0.000000
-13.990000 0.000000
-13.970000 0.000000
-13.950000 0.000000
-13.930100 0.000000
-13.910100 0.000000
-13.890100 0.000000
-13.870200 0.000000
-13.850200 0.000000
-13.830200 0.000000
-13.810200 0.000000
-13.790300 0.000000
-13.770300 0.000000
-13.750300 0.000000
-13.730400 0.000000
-13.710400 0.000000
-13.690400 0.215600
-13.670400 2.699500
-13.650500 8.430400
-13.630500 8.427900
-13.610500 8.425600
-13.590500 8.525100
-13.570600 11.491100
-13.550600 14.728800
-13.530600 27.876800
-13.510700 25.043100
-13.490700 8.025300
-13.470700 8.036100
-13.450700 8.047600
-13.430800 8.059900
-13.410800 58.778900
-13.390800 12.758800
-13.370900 10.357400
-13.350900 0.000000
-13.330900 0.000000
-13.310900 0.000000
-13.291000 0.000000
-13.271000 12.077200
-13.251000 17.064600
-13.231100 13.036500
-13.211100 13.015700
-13.191100 13.024500
-13.171100 18.650600
-13.151200 24.448500
-13.131200 18.504800
-13.111200 16.997600
-13.091200 13.985800
-13.071300 10.869400
-13.051300 8.079700
-13.031300 5.016900
-13.011400 2.161600
-12.991400 0.725600
-12.971400 0.054500
-12.951400 0.000000
-12.931500 0.000000
-12.911500 0.000000
-12.891500 0.000000
-12.871600 0.000000
-12.851600 0.000000
-12.831600 0.000000
-12.811600 0.000000
-12.791700 39.525800
-12.771700 108.695500
-12.751700 41.402000
-12.731700 48.194800
-12.711800 72.008900
-12.691800 58.259400
-12.671800 0.000000
-12.651900 0.000000
-12.631900 0.000000
-12.611900 0.000000
-12.591900 0.000000
-12.572000 0.000000
-12.552000 0.000000
-12.532000 0.000000
-12.512100 0.000000
-12.492100 0.000000
-12.472100 0.000000
-12.452100 0.000000
-12.432200 0.000000
-12.412200 0.000000
-12.392200 0.000000
-12.372300 0.000000
-12.352300 0.000000
-12.332300 0.000000
-12.312300 0.000000
-12.292400 0.000000
-12.272400 0.000000
-12.252400 0.000000
-12.232400 0.000000
-12.212500 0.000000
-12.192500 0.000000
-12.172500 0.000000
-12.152600 0.000000
-12.132600 0.000000
-12.112600 0.000000
-12.092600 0.000000
-12.072700 0.000000
-12.052700 0.000000
-12.032700 0.000000
-12.012800 0.000000
-11.992800 0.000000
-11.972800 0.000000
-11.952800 0.000000
-11.932900 0.000000
-11.912900 0.000000
-11.892900 0.000000
-11.873000 0.000000
-11.853000 0.000000
-11.833000 0.000000
-11.813000 0.000000
-11.793100 0.000000
-11.773100 0.000000
-11.753100 0.000000
-11.733100 0.000000
-11.713200 0.000000
-11.693200 0.000000
-11.673200 0.000000
-11.653300 0.000000
-11.633300 0.000000
-11.613300 0.000000
-11.593300 0.000000
-11.573400 0.000000
-11.553400 0.000000
-11.533400 0.000000
-11.513500 0.000000
-11.493500 0.000000
-11.473500 0.000000
-11.453500 0.000000
-11.433600 0.000000
-11.413600 0.000000
-11.393600 0.000000
-11.373700 0.000000
-11.353700 0.000000
-11.333700 0.000000
-11.313700 0.000000
-11.293800 0.000000
-11.273800 0.000000
-11.253800 0.000000
-11.233800 0.000000
-11.213900 0.000000
-11.193900 0.000000
-11.173900 0.000000
-11.154000 0.000000
-11.134000 0.000000
-11.114000 0.000000
-11.094000 0.000000
-11.074100 0.000000
-11.054100 0.000000
-11.034100 0.000000
-11.014200 0.000000
-10.994200 0.000000
-10.974200 0.000000
-10.954200 0.000000
-10.934300 0.000000
-10.914300 0.000000
-10.894300 0.000000
-10.874300 0.000000
-10.854400 0.000000
-10.834400 0.000000
-10.814400 0.000000
-10.794500 0.000000
-10.774500 0.000000
-10.754500 0.000000
-10.734500 0.000000
-10.714600 0.000000
-10.694600 0.000000
-10.674600 0.000000
-10.654700 0.000000
-10.634700 0.000000
-10.614700 0.000000
-10.594700 0.000000
-10.574800 0.000000
-10.554800 0.000000
-10.534800 0.000000
-10.514900 0.000000
-10.494900 0.000000
-10.474900 0.000000
-10.454900 0.000000
-10.435000 0.000000
-10.415000 0.000000
-10.395000 0.000000
-10.375000 0.000000
-10.355100 0.000000
-10.335100 0.000000
-10.315100 0.000000
-10.295200 0.000000
-10.275200 0.000000
-10.255200 0.000000
-10.235200 0.000000
-10.215300 0.000000
-10.195300 0.000000
-10.175300 0.000000
-10.155400 0.000000
-10.135400 0.000000
-10.115400 0.000000
-10.095400 0.000000
-10.075500 0.000000
-10.055500 0.000000
-10.035500 0.000000
-10.015600 0.000000
-9.995600 0.000000
-9.975600 0.000000
-9.955600 0.000000
-9.935700 0.000000
-9.915700 0.000000
-9.895700 0.000000
-9.875700 0.000000
-9.855800 0.000000
-9.835800 0.000000
-9.815800 0.000000
-9.795900 0.000000
-9.775900 0.000000
-9.755900 0.000000
-9.735900 0.000000
-9.716000 0.000000
-9.696000 0.000000
-9.676000 0.000000
-9.656100 0.000000
-9.636100 0.000000
-9.616100 0.000000
-9.596100 0.000000
-9.576200 0.000000
-9.556200 0.000000
-9.536200 0.000000
-9.516300 0.000000
-9.496300 0.000000
-9.476300 0.000000
-9.456300 0.000000
-9.436400 0.000000
-9.416400 0.000000
-9.396400 0.000000
-9.376400 0.000000
-9.356500 0.000000
-9.336500 0.000000
-9.316500 0.000000
-9.296600 0.000000
-9.276600 0.000000
-9.256600 0.000000
-9.236600 0.000000
-9.216700 0.000000
-9.196700 0.000000
-9.176700 0.000000
-9.156800 0.000000
-9.136800 0.000000
-9.116800 0.000000
-9.096800 0.000000
-9.076900 0.000000
-9.056900 0.000000
-9.036900 0.000000
-9.016900 0.000000
-8.997000 0.000000
-8.977000 0.000000
-8.957000 0.000000
-8.937100 0.000000
-8.917100 0.000000
-8.897100 0.000000
-8.877100 0.000000
-8.857200 0.000000
-8.837200 0.000000
-8.817200 0.000000
-8.797300 0.000000
-8.777300 0.000000
-8.757300 0.000000
-8.737300 0.000000
-8.717400 0.000000
-8.697400 0.000000
-8.677400 0.000000
-8.657500 0.000000
-8.637500 0.000000
-8.617500 0.000000
-8.597500 0.000000
-8.577600 0.000000
-8.557600 0.000000
-8.537600 0.000000
-8.517600 0.000000
-8.497700 0.000000
-8.477700 0.000000
-8.457700 0.000000
-8.437800 0.000000
-8.417800 0.000000
-8.397800 0.000000
-8.377800 0.000000
-8.357900 0.000000
-8.337900 0.000000
-8.317900 0.000000
-8.298000 0.000000
-8.278000 0.000000
-8.258000 0.000000
-8.238000 0.000000
-8.218100 0.000000
-8.198100 0.000000
-8.178100 6.668900
-8.158200 17.487800
-8.138200 33.237800
-8.118200 33.174900
-8.098200 50.905200
-8.078300 15.702000
-8.058300 27.475700
-8.038300 0.000000
-8.018300 0.000000
-7.998400 0.000000
-7.978400 0.000000
-7.958400 18.538700
-7.938500 45.271500
-7.918500 18.240600
-7.898500 120.780400
-7.878500 27.923500
-7.858600 18.845100
-7.838600 17.621600
-7.818600 4.945200
-7.798700 0.000000
-7.778700 0.000000
-7.758700 0.000000
-7.738700 0.000000
-7.718800 0.000000
-7.698800 0.000000
-7.678800 0.000000
-7.658900 0.000000
-7.638900 0.000000
-7.618900 0.000000
-7.598900 28.329200
-7.579000 93.272400
-7.559000 63.066500
-7.539000 23.136500
-7.519000 7.083500
-7.499100 0.203800
-7.479100 128.709400
-7.459100 88.889100
-7.439200 11.872200
-7.419200 9.059700
-7.399200 21.307800
-7.379200 36.602400
-7.359300 61.487100
-7.339300 42.208700
-7.319300 22.784800
-7.299400 17.799000
-7.279400 23.003600
-7.259400 98.760300
-7.239400 29.737400
-7.219500 41.712700
-7.199500 28.505000
-7.179500 29.417800
-7.159600 23.322000
-7.139600 13.354400
-7.119600 17.261000
-7.099600 24.815700
-7.079700 19.130800
-7.059700 14.039700
-7.039700 5.134400
-7.019700 0.000000
-6.999800 0.134900
-6.979800 19.419500
-6.959800 20.714700
-6.939900 21.105300
-6.919900 19.988000
-6.899900 16.599800
-6.879900 2.168600
-6.860000 9.838800
-6.840000 21.667500
-6.820000 23.365800
-6.800100 21.007100
-6.780100 14.239300
-6.760100 14.764700
-6.740100 33.162400
-6.720200 37.933600
-6.700200 101.722300
-6.680200 34.528300
-6.660200 1.952600
-6.640300 0.000000
-6.620300 120.997000
-6.600300 86.900400
-6.580400 2.983400
-6.560400 0.000000
-6.540400 0.000000
-6.520400 177.527100
-6.500500 108.182500
-6.480500 120.290900
-6.460500 88.789300
-6.440600 48.515600
-6.420600 25.357600
-6.400600 6.250600
-6.380600 0.000000
-6.360700 0.000000
-6.340700 0.000000
-6.320700 0.000000
-6.300800 0.000000
-6.280800 0.000000
-6.260800 0.000000
-6.240800 0.000000
-6.220900 0.000000
-6.200900 0.000000
-6.180900 0.000000
-6.160900 0.000000
-6.141000 0.000000
-6.121000 0.000000
-6.101000 0.000000
-6.081100 0.000000
-6.061100 0.000000
-6.041100 0.000000
-6.021100 0.000000
-6.001200 0.000000
-5.981200 0.000000
-5.961200 0.000000
-5.941300 0.000000
-5.921300 0.000000
-5.901300 0.000000
-5.881300 0.000000
-5.861400 0.000000
-5.841400 0.000000
-5.821400 0.000000
-5.801500 0.000000
-5.781500 0.000000
-5.761500 0.000000
-5.741500 0.000000
-5.721600 0.000000
-5.701600 0.000000
-5.681600 0.000000
-5.661600 0.000000
-5.641700 0.000000
-5.621700 0.000000
-5.601700 0.000000
-5.581800 0.000000
-5.561800 0.000000
-5.541800 0.000000
-5.521800 0.000000
-5.501900 0.000000
-5.481900 0.412400
-5.461900 2.393100
-5.442000 6.011000
-5.422000 19.301000
-5.402000 29.136200
-5.382000 52.793000
-5.362100 19.477200
-5.342100 94.871900
-5.322100 13.356500
-5.302200 23.347500
-5.282200 58.814300
-5.262200 31.551000
-5.242200 43.962100
-5.222300 14.523200
-5.202300 0.000000
-5.182300 0.000000
-5.162300 14.948700
-5.142400 29.560100
-5.122400 21.921800
-5.102400 40.886200
-5.082500 43.898300
-5.062500 21.120700
-5.042500 41.975000
-5.022500 34.418400
-5.002600 59.022000
-4.982600 33.111500
-4.962600 4.320700
-4.942700 0.000000
-4.922700 0.000000
-4.902700 0.000000
-4.882700 0.000000
-4.862800 0.000000
-4.842800 0.000000
-4.822800 0.000000
-4.802800 0.000000
-4.782900 0.000000
-4.762900 0.000000
-4.742900 0.000000
-4.723000 0.000000
-4.703000 0.000000
-4.683000 0.000000
-4.663000 0.000000
-4.643100 0.000000
-4.623100 0.000000
-4.603100 0.000000
-4.583200 0.000000
-4.563200 0.000000
-4.543200 0.000000
-4.523200 0.000000
-4.503300 0.000000
-4.483300 0.000000
-4.463300 0.000000
-4.443400 0.000000
-4.423400 0.000000
-4.403400 0.000000
-4.383400 0.000000
-4.363500 0.000000
-4.343500 0.000000
-4.323500 0.000000
-4.303500 0.000000
-4.283600 0.000000
-4.263600 0.000000
-4.243600 0.000000
-4.223700 0.000000
-4.203700 0.000000
-4.183700 0.000000
-4.163700 0.000000
-4.143800 1.747500
-4.123800 40.523900
-4.103800 26.698800
-4.083900 41.802000
-4.063900 29.092800
-4.043900 24.515900
-4.023900 8.608500
-4.004000 1.208700
-3.984000 3.893100
-3.964000 47.086100
-3.944100 0.000000
-3.924100 0.000000
-3.904100 61.823500
-3.884100 22.217300
-3.864200 3.814200
-3.844200 0.000000
-3.824200 0.000000
-3.804200 0.000000
-3.784300 0.000000
-3.764300 23.199400
-3.744300 74.962600
-3.724400 40.671500
-3.704400 31.231800
-3.684400 31.266000
-3.664400 30.725700
-3.644500 53.165100
-3.624500 54.633300
-3.604500 43.990300
-3.584600 26.971400
-3.564600 15.587000
-3.544600 41.111400
-3.524600 50.643000
-3.504700 75.548400
-3.484700 51.382400
-3.464700 29.471300
-3.444800 72.170200
-3.424800 28.344000
-3.404800 0.000000
-3.384800 0.000000
-3.364900 0.000000
-3.344900 0.000000
-3.324900 0.000000
-3.304900 0.000000
-3.285000 0.000000
-3.265000 0.000000
-3.245000 0.000000
-3.225100 0.000000
-3.205100 74.307200
-3.185100 48.080900
-3.165100 12.584300
-3.145200 21.748400
-3.125200 51.939900
-3.105200 18.109300
-3.085300 12.317300
-3.065300 20.828000
-3.045300 68.536200
-3.025300 43.987200
-3.005400 25.172700
-2.985400 9.066800
-2.965400 55.415500
-2.945400 43.116500
-2.925500 68.610700
-2.905500 46.920100
-2.885500 119.559400
-2.865600 42.414700
-2.845600 78.716900
-2.825600 43.151800
-2.805600 21.976800
-2.785700 61.508900
-2.765700 39.378700
-2.745700 67.647200
-2.725800 24.239200
-2.705800 54.086600
-2.685800 12.022200
-2.665800 4.097500
-2.645900 61.914900
-2.625900 55.070900
-2.605900 62.439100
-2.586000 15.261700
-2.566000 54.733500
-2.546000 69.506100
-2.526000 54.034100
-2.506100 28.574300
-2.486100 3.416500
-2.466100 3.587300
-2.446100 66.805700
-2.426200 62.403900
-2.406200 45.111400
-2.386200 6.761000
-2.366300 41.972800
-2.346300 51.594400
-2.326300 46.855500
-2.306300 47.688200
-2.286400 26.610200
-2.266400 35.473500
-2.246400 93.603900
-2.226500 81.012600
-2.206500 39.660700
-2.186500 50.541800
-2.166500 62.174200
-2.146600 61.319300
-2.126600 26.347600
-2.106600 37.590500
-2.086700 58.777100
-2.066700 45.314400
-2.046700 55.838700
-2.026700 81.686900
-2.006800 82.930100
-1.986800 13.266500
-1.966800 25.294600
-1.946800 90.154500
-1.926900 50.504400
-1.906900 1.984500
-1.886900 0.000000
-1.867000 0.000000
-1.847000 28.772600
-1.827000 39.444000
-1.807000 38.090300
-1.787100 26.867400
-1.767100 19.816400
-1.747100 2.333600
-1.727200 0.000000
-1.707200 0.000000
-1.687200 0.000000
-1.667200 0.000000
-1.647300 0.152500
-1.627300 12.189000
-1.607300 40.795100
-1.587400 24.928900
-1.567400 6.727100
-1.547400 37.646300
-1.527400 23.361700
-1.507500 17.826700
-1.487500 22.613700
-1.467500 51.270300
-1.447500 77.581400
-1.427600 56.147400
-1.407600 35.090400
-1.387600 3.922100
-1.367700 0.000000
-1.347700 34.987100
-1.327700 34.455700
-1.307700 50.620700
-1.287800 62.400300
-1.267800 10.781300
-1.247800 145.650200
-1.227900 65.780900
-1.207900 58.127800
-1.187900 0.000000
-1.167900 0.000000
-1.148000 0.000000
-1.128000 0.000000
-1.108000 0.000000
-1.088100 0.000000
-1.068100 0.000000
-1.048100 0.000000
-1.028100 0.000000
-1.008200 0.000000
-0.988200 0.000000
-0.968200 0.000000
-0.948200 0.000000
-0.928300 0.000000
-0.908300 0.000000
-0.888300 87.180100
-0.868400 79.964700
-0.848400 6.743800
-0.828400 127.425700
-0.808400 79.659400
-0.788500 29.851500
-0.768500 0.030800
-0.748500 0.000000
-0.728600 0.000000
-0.708600 0.000000
-0.688600 0.000000
-0.668600 0.000000
-0.648700 0.000000
-0.628700 0.000000
-0.608700 0.000000
-0.588700 0.000000
-0.568800 0.000000
-0.548800 0.000000
-0.528800 0.000000
-0.508900 0.000000
-0.488900 0.000000
-0.468900 0.000000
-0.448900 0.000000
-0.429000 0.000000
-0.409000 0.000000
-0.389000 0.000000
-0.369100 0.000000
-0.349100 0.000000
-0.329100 0.000000
-0.309100 0.000000
-0.289200 0.000000
-0.269200 0.000000
-0.249200 0.000000
-0.229300 0.000000
-0.209300 0.000000
-0.189300 0.000000
-0.169300 0.000000
-0.149400 0.000000
-0.129400 0.000000
-0.109400 0.000000
-0.089400 0.000000
-0.069500 0.000000
-0.049500 0.000000
-0.029500 0.000000
-0.009600 0.000000
0.010400 0.000000
0.030400 0.000000
0.050400 0.000000
0.070300 0.000000
0.090300 0.000000
0.110300 0.000000
0.130200 0.000000
0.150200 0.000000
0.170200 0.000000
0.190200 0.000000
0.210100 0.000000
0.230100 0.000000
0.250100 0.000000
0.270000 0.000000
0.290000 0.000000
0.310000 0.000000
0.330000 0.000000
0.349900 0.000000
0.369900 0.000000
0.389900 0.000000
0.409900 0.000000
0.429800 0.000000
0.449800 0.000000
0.469800 0.000000
0.489700 0.000000
0.509700 0.000000
0.529700 0.000000
0.549700 0.000000
0.569600 0.000000
0.589600 0.000000
0.609600 0.000000
0.629500 0.000000
0.649500 0.000000
0.669500 0.000000
0.689500 0.000000
0.709400 0.000000
0.729400 0.000000
0.749400 0.000000
0.769300 0.000000
0.789300 0.000000
0.809300 0.000000
0.829300 0.000000
0.849200 0.000000
0.869200 0.000000
0.889200 0.000000
0.909200 0.000000
0.929100 0.000000
0.949100 0.000000
0.969100 0.000000
0.989000 0.000000
1.009000 0.000000
1.029000 3.486700
1.049000 27.038100
1.068900 37.773300
1.088900 38.565200
1.108900 24.550100
1.128800 71.897300
1.148800 3.591300
1.168800 71.595900
1.188800 18.623600
1.208700 48.453900
1.228700 22.309400
1.248700 0.000000
1.268700 0.000000
1.288600 0.000000
1.308600 0.000000
1.328600 0.000000
1.348500 0.000000
1.368500 0.000000
1.388500 0.000000
1.408500 0.000000
1.428400 0.000000
1.448400 0.000000
1.468400 0.000000
1.488300 0.000000
1.508300 0.000000
1.528300 0.000000
1.548300 0.000000
1.568200 0.000000
1.588200 0.000000
1.608200 0.000000
1.628100 0.000000
1.648100 0.000000
1.668100 42.696700
1.688100 71.046400
1.708000 71.790900
1.728000 15.281200
1.748000 0.000000
1.768000 72.707900
1.787900 53.917100
1.807900 25.259400
1.827900 7.838200
1.847800 0.007300
1.867800 0.000000
1.887800 0.000000
1.907800 0.000000
1.927700 0.000000
1.947700 0.000000
1.967700 0.000000
1.987600 0.000000
2.007600 0.000000
2.027600 0.000000
2.047600 0.000000
2.067500 0.000000
2.087500 0.000000
2.107500 0.000000
2.127400 0.000000
2.147400 0.000000
2.167400 0.000000
2.187400 0.000000
2.207300 0.000000
2.227300 0.000000
2.247300 0.008100
2.267300 3.586600
2.287200 33.150600
2.307200 120.027700
2.327200 38.327100
2.347100 29.409700
2.367100 8.734100
2.387100 35.486800
2.407100 23.128500
2.427000 8.499800
2.447000 0.000000
2.467000 33.803700
2.486900 27.818000
2.506900 15.632600
2.526900 4.839700
2.546900 1.607100
2.566800 0.112600
2.586800 0.000000
2.606800 0.000000
2.626700 0.000000
2.646700 0.000000
2.666700 0.000000
2.686700 0.000000
2.706600 0.000000
2.726600 0.000000
2.746600 4.985600
2.766600 17.114000
2.786500 35.986100
2.806500 34.418100
2.826500 40.584000
2.846400 36.776600
2.866400 0.284800
2.886400 33.405900
2.906400 37.364700
2.926300 71.666000
2.946300 46.651400
2.966300 3.059700
2.986200 4.848100
3.006200 7.704700
3.026200 9.944500
3.046200 12.276300
3.066100 15.769000
3.086100 21.504000
3.106100 24.296900
3.126100 22.092000
3.146000 31.229700
3.166000 8.826800
3.186000 8.868300
3.205900 16.130500
3.225900 6.732300
3.245900 0.000000
3.265900 0.000000
3.285800 0.000000
3.305800 0.000000
3.325800 0.000000
3.345700 0.000000
3.365700 0.072300
3.385700 1.376400
3.405700 4.315600
3.425600 11.465200
3.445600 21.837200
3.465600 30.640300
3.485500 21.780800
3.505500 21.949800
3.525500 27.084800
3.545500 55.296700
3.565400 18.311400
3.585400 13.464700
3.605400 23.932800
3.625400 13.191300
3.645300 38.707600
3.665300 43.745700
3.685300 22.469500
3.705200 34.350500
3.725200 31.864200
3.745200 33.441100
3.765200 26.470200
3.785100 27.773900
3.805100 41.726200
3.825100 28.547000
3.845000 19.184100
3.865000 24.267700
3.885000 54.330400
3.905000 0.000000
3.924900 26.721200
3.944900 17.741600
3.964900 16.804800
3.984800 14.332900
4.004800 11.581800
4.024800 8.331700
4.044800 40.626600
4.064700 19.549700
4.084700 16.562300
4.104700 41.186900
4.124700 29.495200
4.144600 18.449000
4.164600 34.613200
4.184600 67.393800
4.204500 76.163800
4.224500 29.169000
4.244500 13.808500
4.264500 13.599100
4.284400 9.823400
4.304400 3.066300
4.324400 0.000000
4.344300 16.237400
4.364300 17.195500
4.384300 8.543000
4.404300 30.331000
4.424200 35.116700
4.444200 17.627300
4.464200 17.464100
4.484100 17.315300
4.504100 15.599500
4.524100 8.277500
4.544100 6.044500
4.564000 3.629200
4.584000 1.431700
4.604000 0.512000
4.624000 0.055000
4.643900 0.000000
4.663900 0.000000
4.683900 0.000000
4.703800 0.000000
4.723800 0.000000
4.743800 0.000000
4.763800 0.000000
4.783700 0.000000
4.803700 0.000000
4.823700 0.000000
4.843600 0.000000
4.863600 0.000000
4.883600 0.000000
4.903600 0.000000
4.923500 0.000000
4.943500 0.000000
4.963500 0.000000
4.983400 0.000000
5.003400 0.000000
5.023400 0.000000
5.043400 0.000000
5.063300 0.000000
5.083300 0.000000
5.103300 0.000000
5.123300 0.000000
5.143200 0.000000
5.163200 0.000000
5.183200 0.000000
5.203100 0.000000
5.223100 0.000000
5.243100 0.000000
5.263100 0.000000
5.283000 0.000000
5.303000 0.000000
5.323000 0.000000
5.342900 0.000000
5.362900 0.000000
5.382900 0.000000
5.402900 0.000000
5.422800 0.000000
5.442800 0.000000
5.462800 0.000000
5.482800 0.000000
5.502700 0.000000
5.522700 0.000000
5.542700 0.000000
5.562600 0.000000
5.582600 0.000000
5.602600 0.000000
5.622600 0.000000
5.642500 0.000000
5.662500 0.000000
5.682500 0.000000
5.702400 0.000000
5.722400 0.000000
5.742400 0.000000
5.762400 0.000000
5.782300 0.000000
5.802300 0.000000
5.822300 0.000000
5.842200 0.000000
5.862200 0.003200
5.882200 0.023200
5.902200 0.061400
5.922100 0.117800
5.942100 0.192500
5.962100 0.285400
5.982100 0.396500
6.002000 0.525900
6.022000 0.673500
6.042000 0.839400
6.061900 1.023500
6.081900 1.225800
6.101900 1.447300
6.121900 1.689100
6.141800 1.951000
6.161800 2.233200
6.181800 2.658600
6.201700 3.655100
6.221700 4.502700
6.241700 4.831100
6.261700 4.937700
6.281600 5.019200
6.301600 5.075400
6.321600 5.106400
6.341500 5.112300
6.361500 5.092900
6.381500 5.048400
6.401500 4.930300
6.421400 4.789900
6.441400 4.633000
6.461400 4.459700
6.481400 4.272200
6.501300 8.057600
6.521300 0.073200
6.541300 0.145800
6.561200 0.243100
6.581200 0.365200
6.601200 0.512000
6.621200 0.683500
6.641100 0.948800
6.661100 1.264600
6.681100 1.581600
6.701000 1.899900
6.721000 2.219400
6.741000 2.540200
6.761000 2.862200
6.780900 3.185400
6.800900 4.556400
6.820900 6.434900
6.840800 6.876100
6.860800 7.152600
6.880800 7.264200
6.900800 7.806500
6.920700 8.834500
6.940700 10.231900
6.960700 11.829300
6.980700 17.198000
7.000600 15.222200
7.020600 8.929400
7.040600 28.690800
7.060500 6.518700
7.080500 6.185000
7.100500 5.810100
7.120500 5.393900
7.140400 4.953000
7.160400 4.509000
7.180400 4.062100
7.200300 3.612400
7.220300 3.267300
7.240300 3.515900
7.260300 3.923800
7.280200 3.448900
7.300200 3.897200
7.320200 5.250100
7.340200 10.612500
7.360100 12.926500
7.380100 15.083600
7.400100 8.378300
7.420000 8.122200
7.440000 7.452300
7.460000 7.793300
7.480000 8.550300
7.499900 9.396200
7.519900 9.469600
7.539900 9.758100
7.559800 10.569000
7.579800 11.324000
7.599800 12.702900
7.619800 12.243300
7.639700 11.693400
7.659700 11.154000
7.679700 12.359800
7.699600 13.143700
7.719600 14.052600
7.739600 15.086200
7.759600 16.348400
7.779500 18.153200
7.799500 7.837800
7.819500 3.655500
7.839500 6.304300
7.859400 10.230700
7.879400 13.310200
7.899400 15.289300
7.919300 10.791100
7.939300 11.372900
7.959300 20.778900
7.979300 25.727700
7.999200 12.381100
8.019200 11.526900
8.039200 10.589400
8.059100 14.533400
8.079100 14.569600
8.099100 14.173800
8.119100 14.224800
8.139000 15.330700
8.159000 16.265300
8.179000 16.582100
8.198900 16.601300
8.218900 73.567500
8.238900 33.469900
8.258900 20.842500
8.278800 22.245900
8.298800 20.824700
8.318800 21.350600
8.338800 22.564700
8.358700 16.577700
8.378700 12.273100
8.398700 6.430900
8.418600 7.963400
8.438600 11.771700
8.458600 13.160400
8.478600 20.765500
8.498500 23.188100
8.518500 22.021200
8.538500 24.099100
8.558400 24.987600
8.578400 18.884600
8.598400 19.338100
8.618400 23.704000
8.638300 26.216900
8.658300 26.533300
8.678300 28.356500
8.698200 19.505200
8.718200 19.197600
8.738200 24.113400
8.758200 24.809300
8.778100 22.460500
8.798100 19.122100
8.818100 10.857500
8.838100 13.422900
8.858000 14.375600
8.878000 14.652000
8.898000 14.447500
8.917900 24.538900
8.937900 20.708900
8.957900 29.298100
8.977900 34.401000
8.997800 25.303500
9.017800 17.889600
9.037800 23.411100
9.057700 26.652200
9.077700 27.059000
9.097700 33.425400
9.117700 22.556300
9.137600 14.209300
9.157600 12.260100
9.177600 10.978200
9.197600 10.557000
9.217500 18.814800
9.237500 20.216300
9.257500 14.713600
9.277400 10.957900
9.297400 18.092000
9.317400 25.998100
9.337400 32.497200
9.357300 23.480900
9.377300 15.852900
9.397300 56.841500
9.417200 30.124300
9.437200 0.000000
9.457200 0.000000
9.477200 19.166700
9.497100 39.722400
9.517100 38.589000
9.537100 31.137700
9.557000 31.488100
9.577000 37.049600
9.597000 20.280100
9.617000 37.149700
9.636900 16.704900
9.656900 14.572200
9.676900 40.753200
9.696900 41.489600
9.716800 28.702000
9.736800 0.000000
9.756800 53.988800
9.776700 33.046400
9.796700 22.595800
9.816700 43.320500
9.836700 21.253900
9.856600 35.858000
9.876600 41.484200
9.896600 30.190900
9.916500 40.532700
9.936500 20.778600
9.956500 19.240800
9.976500 15.528600
9.996400 19.133500
10.016400 53.458400
10.036400 24.715700
10.056300 19.088200
10.076300 32.877100
10.096300 29.202300
10.116300 11.951000
10.136200 16.209700
10.156200 25.375700
10.176200 23.757000
10.196200 22.465700
10.216100 19.921100
10.236100 20.265400
10.256100 19.452300
10.276000 12.206200
10.296000 7.831200
10.316000 7.026600
10.336000 9.561600
10.355900 15.618000
10.375900 19.805500
10.395900 25.462400
10.415800 38.138500
10.435800 12.292400
10.455800 33.369800
10.475800 36.156200
10.495700 19.769200
10.515700 20.165400
10.535700 19.537700
10.555600 21.430700
10.575600 22.813600
10.595600 22.338300
10.615600 19.715100
10.635500 17.051200
10.655500 35.270500
10.675500 47.321600
10.695500 33.137900
10.715400 32.084500
10.735400 22.477800
10.755400 39.901700
10.775300 30.239400
10.795300 18.671300
10.815300 4.709200
10.835300 14.063700
10.855200 23.713300
10.875200 28.376800
10.895200 31.672300
10.915100 29.753700
10.935100 20.070500
10.955100 21.046000
10.975100 18.899200
10.995000 13.848200
11.015000 13.921600
11.035000 38.631300
11.054900 26.656700
11.074900 24.514900
11.094900 22.653800
11.114900 21.186300
11.134800 19.278000
11.154800 17.561600
11.174800 18.623900
11.194800 2.336200
11.214700 8.300600
11.234700 28.839000
11.254700 37.011800
11.274600 45.830900
11.294600 45.309300
11.314600 45.678700
11.334600 4.670700
11.354500 9.904300
11.374500 18.495400
11.394500 30.314600
11.414400 31.152700
11.434400 33.277600
11.454400 17.572500
11.474400 20.288500
11.494300 27.314400
11.514300 10.387200
11.534300 14.490500
11.554300 19.803400
11.574200 26.370100
11.594200 108.568500
11.614200 18.573400
11.634100 14.501600
11.654100 29.513700
11.674100 23.097500
11.694100 5.611800
11.714000 7.593900
11.734000 13.642200
11.754000 22.838600
11.773900 46.738800
11.793900 23.996800
11.813900 15.085600
11.833900 25.870000
11.853800 46.359500
11.873800 9.857700
11.893800 5.546900
11.913700 64.886500
11.933700 39.109100
11.953700 19.621500
11.973700 19.973200
11.993600 20.566200
12.013600 22.202900
12.033600 16.368400
12.053600 9.527000
12.073500 7.500500
12.093500 17.452800
12.113500 43.259600
12.133400 51.633900
12.153400 23.650900
12.173400 20.081500
12.193400 19.065900
12.213300 31.602500
12.233300 29.173900
12.253300 23.370900
12.273200 21.619700
12.293200 23.171000
12.313200 26.705800
12.333200 34.804200
12.353100 34.867900
12.373100 32.437200
12.393100 36.396100
12.413000 22.568100
12.433000 33.262100
12.453000 31.672100
12.473000 18.758000
12.492900 15.050400
12.512900 10.772600
12.532900 6.389400
12.552900 4.626800
12.572800 6.345600
12.592800 13.102900
12.612800 28.060400
12.632700 38.448200
12.652700 9.861300
12.672700 13.298300
12.692700 17.231400
12.712600 21.660600
12.732600 26.227900
12.752600 10.978000
12.772500 8.874900
12.792500 20.668700
12.812500 44.614700
12.832500 8.985600
12.852400 5.422700
12.872400 38.620200
12.892400 32.807700
12.912300 19.032500
12.932300 5.345800
12.952300 3.262500
12.972300 1.773900
12.992200 0.809500
13.012200 0.220400
13.032200 0.001500
13.052200 0.000000
13.072100 0.000000
13.092100 0.000000
13.112100 0.000000
13.132000 0.000000
13.152000 0.000000
13.172000 0.000000
13.192000 0.000000
13.211900 0.000000
13.231900 0.000000
13.251900 0.000000
13.271800 0.000000
13.291800 0.000000
13.311800 0.000000
13.331800 0.000000
13.351700 0.000000
13.371700 0.000000
13.391700 0.000000
13.411700 0.000000
13.431600 0.000000
13.451600 0.000000
13.471600 0.000000
13.491500 0.000000
13.511500 0.000000
13.531500 0.000000
13.551500 0.000000
13.571400 0.000000
13.591400 0.000000
13.611400 0.000000
13.631300 0.000000
13.651300 0.000000
13.671300 0.000000
13.691300 0.000000
13.711200 0.000000
13.731200 0.000000
13.751200 0.000000
13.771100 0.000000
13.791100 0.000000
13.811100 0.000000
13.831100 0.000000
13.851000 0.000000
13.871000 0.000000
13.891000 0.000000
13.911000 0.000000
13.930900 0.000000
13.950900 0.000000
13.970900 0.000000
13.990800 0.000000
14.010800 0.000000
14.030800 0.000000
14.050800 0.000000
14.070700 0.000000
14.090700 0.000000
14.110700 0.000000
14.130600 0.000000
14.150600 0.000000
14.170600 0.000000
14.190600 0.000000
14.210500 0.000000
14.230500 0.000000
14.250500 0.000000
14.270400 0.000000
14.290400 0.000000
14.310400 0.000000
14.330400 0.000000
14.350300 0.000000
14.370300 0.000000
14.390300 0.000000
14.410300 0.000000
14.430200 0.000000
14.450200 0.000000
14.470200 0.000000
14.490100 0.000000
14.510100 0.000000
14.530100 0.000000
14.550100 0.000000
14.570000 0.000000
14.590000 0.000000
14.610000 0.000000
14.629900 0.000000
14.649900 0.000000
14.669900 0.000000
14.689900 0.000000
14.709800 0.000000
14.729800 0.000000
14.749800 0.000000
14.769700 0.000000
14.789700 0.000000
14.809700 0.000000
14.829700 0.000000
14.849600 0.000000
e
