set title 'mp-1077398 - Density of States'
set xlabel 'Energy (eV)'
set ylabel 'DOS (states/eV)'
set grid
set xrange [-10:10]
set yrange [0:6.059]
set xzeroaxis lt -1
set terminal png size 800,600
set output 'mp-1077398_dos_gnuplot.png'
plot '-' using 1:2 with lines title 'DOS'
-17.424100 0.000000
-17.407100 0.000000
-17.390100 0.000000
-17.373100 0.000000
-17.356100 0.000000
-17.339100 0.000000
-17.322100 0.000000
-17.305100 0.000000
-17.288200 0.000000
-17.271200 0.000000
-17.254200 0.000000
-17.237200 0.000000
-17.220200 0.000000
-17.203200 0.000000
-17.186200 0.000000
-17.169200 0.000000
-17.152200 0.000000
-17.135300 0.000000
-17.118300 0.000000
-17.101300 0.000000
-17.084300 0.000000
-17.067300 0.000000
-17.050300 0.000000
-17.033300 0.000000
-17.016300 0.000000
-16.999300 0.000000
-16.982400 0.000000
-16.965400 0.000000
-16.948400 0.000000
-16.931400 0.000000
-16.914400 0.000000
-16.897400 0.000000
-16.880400 0.000000
-16.863400 0.000000
-16.846500 0.000000
-16.829500 0.000000
-16.812500 0.000000
-16.795500 0.000000
-16.778500 0.000000
-16.761500 0.000000
-16.744500 0.000000
-16.727500 0.000000
-16.710500 0.000000
-16.693600 0.000000
-16.676600 0.000000
-16.659600 0.000000
-16.642600 0.000000
-16.625600 0.000000
-16.608600 0.000000
-16.591600 0.000000
-16.574600 0.000000
-16.557600 0.000000
-16.540700 0.000000
-16.523700 0.000000
-16.506700 0.000000
-16.489700 0.000000
-16.472700 0.000000
-16.455700 0.000000
-16.438700 0.000000
-16.421700 0.000000
-16.404700 0.000000
-16.387800 0.000000
-16.370800 0.000000
-16.353800 0.000000
-16.336800 0.000000
-16.319800 0.000000
-16.302800 0.000000
-16.285800 0.000000
-16.268800 0.000000
-16.251900 0.000000
-16.234900 0.000000
-16.217900 0.000000
-16.200900 0.000000
-16.183900 0.000000
-16.166900 0.000000
-16.149900 0.000000
-16.132900 0.000000
-16.115900 0.000000
-16.099000 0.000000
-16.082000 0.000000
-16.065000 0.000000
-16.048000 0.000000
-16.031000 0.000000
-16.014000 0.000000
-15.997000 0.000000
-15.980000 0.000000
-15.963000 0.000000
-15.946100 0.000000
-15.929100 0.000000
-15.912100 0.000000
-15.895100 0.000000
-15.878100 1.659600
-15.861100 24.246600
-15.844100 51.165300
-15.827100 74.120200
-15.810100 43.221900
-15.793200 50.574300
-15.776200 61.755200
-15.759200 33.041400
-15.742200 66.302900
-15.725200 83.741900
-15.708200 71.577400
-15.691200 64.648100
-15.674200 61.599300
-15.657300 26.329000
-15.640300 0.000000
-15.623300 0.000000
-15.606300 0.000000
-15.589300 0.000000
-15.572300 0.000000
-15.555300 0.000000
-15.538300 0.000000
-15.521300 0.000000
-15.504400 0.000000
-15.487400 0.000000
-15.470400 0.000000
-15.453400 0.000000
-15.436400 0.000000
-15.419400 0.000000
-15.402400 0.000000
-15.385400 0.000000
-15.368400 0.000000
-15.351500 0.000000
-15.334500 0.000000
-15.317500 0.000000
-15.300500 0.000000
-15.283500 0.000000
-15.266500 0.000000
-15.249500 0.000000
-15.232500 0.000000
-15.215500 0.000000
-15.198600 0.000000
-15.181600 0.000000
-15.164600 0.000000
-15.147600 0.000000
-15.130600 0.000000
-15.113600 0.000000
-15.096600 0.000000
-15.079600 0.000000
-15.062700 0.000000
-15.045700 0.000000
-15.028700 0.000000
-15.011700 0.000000
-14.994700 0.000000
-14.977700 0.000000
-14.960700 0.000000
-14.943700 0.000000
-14.926700 0.000000
-14.909800 0.000000
-14.892800 0.000000
-14.875800 0.000000
-14.858800 0.000000
-14.841800 0.000000
-14.824800 0.000000
-14.807800 0.000000
-14.790800 0.000000
-14.773800 0.000000
-14.756900 0.000000
-14.739900 0.000000
-14.722900 0.000000
-14.705900 0.000000
-14.688900 0.000000
-14.671900 0.000000
-14.654900 0.000000
-14.637900 0.000000
-14.620900 0.000000
-14.604000 0.000000
-14.587000 0.000000
-14.570000 0.000000
-14.553000 0.000000
-14.536000 0.000000
-14.519000 0.000000
-14.502000 0.000000
-14.485000 0.000000
-14.468100 0.000000
-14.451100 0.000000
-14.434100 0.000000
-14.417100 0.000000
-14.400100 0.000000
-14.383100 0.000000
-14.366100 0.000000
-14.349100 0.000000
-14.332100 0.000000
-14.315200 0.000000
-14.298200 0.000000
-14.281200 0.000000
-14.264200 0.000000
-14.247200 0.000000
-14.230200 0.000000
-14.213200 0.000000
-14.196200 0.000000
-14.179200 0.000000
-14.162300 0.000000
-14.145300 0.000000
-14.128300 0.000000
-14.111300 0.000000
-14.094300 0.000000
-14.077300 0.000000
-14.060300 0.000000
-14.043300 0.000000
-14.026300 0.000000
-14.009400 0.000000
-13.992400 0.000000
-13.975400 0.000000
-13.958400 0.000000
-13.941400 0.000000
-13.924400 0.000000
-13.907400 0.000000
-13.890400 0.000000
-13.873500 0.000000
-13.856500 0.000000
-13.839500 0.000000
-13.822500 0.000000
-13.805500 0.000000
-13.788500 0.000000
-13.771500 0.000000
-13.754500 0.000000
-13.737500 0.000000
-13.720600 0.000000
-13.703600 0.000000
-13.686600 0.000000
-13.669600 0.000000
-13.652600 0.000000
-13.635600 0.000000
-13.618600 0.000000
-13.601600 0.000000
-13.584600 0.000000
-13.567700 0.000000
-13.550700 0.000000
-13.533700 0.000000
-13.516700 0.000000
-13.499700 0.000000
-13.482700 0.000000
-13.465700 0.000000
-13.448700 0.000000
-13.431700 0.000000
-13.414800 0.000000
-13.397800 0.000000
-13.380800 0.000000
-13.363800 0.000000
-13.346800 0.000000
-13.329800 0.000000
-13.312800 0.000000
-13.295800 0.000000
-13.278900 0.000000
-13.261900 0.000000
-13.244900 0.000000
-13.227900 0.000000
-13.210900 0.000000
-13.193900 0.000000
-13.176900 0.000000
-13.159900 0.000000
-13.142900 0.000000
-13.126000 0.000000
-13.109000 0.000000
-13.092000 0.000000
-13.075000 0.000000
-13.058000 0.000000
-13.041000 0.000000
-13.024000 0.000000
-13.007000 0.000000
-12.990000 0.000000
-12.973100 0.000000
-12.956100 0.000000
-12.939100 0.000000
-12.922100 0.000000
-12.905100 0.000000
-12.888100 0.000000
-12.871100 0.000000
-12.854100 0.000000
-12.837100 0.000000
-12.820200 0.000000
-12.803200 0.000000
-12.786200 0.000000
-12.769200 0.000000
-12.752200 0.000000
-12.735200 0.000000
-12.718200 0.000000
-12.701200 0.000000
-12.684300 0.000000
-12.667300 0.000000
-12.650300 0.000000
-12.633300 0.000000
-12.616300 0.000000
-12.599300 0.000000
-12.582300 0.000000
-12.565300 0.000000
-12.548300 0.000000
-12.531400 0.000000
-12.514400 0.000000
-12.497400 0.000000
-12.480400 0.000000
-12.463400 0.000000
-12.446400 0.000000
-12.429400 0.000000
-12.412400 0.000000
-12.395400 0.000000
-12.378500 0.000000
-12.361500 0.000000
-12.344500 0.000000
-12.327500 0.000000
-12.310500 0.000000
-12.293500 0.000000
-12.276500 0.000000
-12.259500 0.000000
-12.242500 0.000000
-12.225600 0.000000
-12.208600 0.000000
-12.191600 0.000000
-12.174600 0.000000
-12.157600 0.000000
-12.140600 0.000000
-12.123600 0.000000
-12.106600 0.000000
-12.089700 0.000000
-12.072700 0.000000
-12.055700 0.000000
-12.038700 0.000000
-12.021700 0.000000
-12.004700 0.000000
-11.987700 0.000000
-11.970700 0.000000
-11.953700 0.000000
-11.936800 0.000000
-11.919800 0.000000
-11.902800 0.000000
-11.885800 0.000000
-11.868800 0.000000
-11.851800 0.000000
-11.834800 0.000000
-11.817800 0.000000
-11.800800 0.000000
-11.783900 0.000000
-11.766900 0.000000
-11.749900 0.000000
-11.732900 0.000000
-11.715900 0.000000
-11.698900 0.000000
-11.681900 0.000000
-11.664900 0.000000
-11.647900 0.000000
-11.631000 0.000000
-11.614000 0.000000
-11.597000 0.000000
-11.580000 0.000000
-11.563000 0.000000
-11.546000 0.000000
-11.529000 0.000000
-11.512000 0.000000
-11.495100 0.000000
-11.478100 0.000000
-11.461100 0.000000
-11.444100 0.000000
-11.427100 0.000000
-11.410100 0.000000
-11.393100 0.000000
-11.376100 0.000000
-11.359100 0.000000
-11.342200 0.000000
-11.325200 0.000000
-11.308200 0.000000
-11.291200 0.000000
-11.274200 0.000000
-11.257200 0.000000
-11.240200 0.000000
-11.223200 0.000000
-11.206200 0.000000
-11.189300 0.000000
-11.172300 0.000000
-11.155300 0.000000
-11.138300 0.000000
-11.121300 0.000000
-11.104300 0.000000
-11.087300 0.000000
-11.070300 0.000000
-11.053300 0.000000
-11.036400 0.000000
-11.019400 0.000000
-11.002400 0.000000
-10.985400 0.000000
-10.968400 0.000000
-10.951400 0.000000
-10.934400 0.000000
-10.917400 0.000000
-10.900500 0.000000
-10.883500 0.000000
-10.866500 0.000000
-10.849500 0.000000
-10.832500 0.000000
-10.815500 0.000000
-10.798500 0.000000
-10.781500 0.000000
-10.764500 0.000000
-10.747600 0.000000
-10.730600 0.000000
-10.713600 0.000000
-10.696600 0.000000
-10.679600 0.000000
-10.662600 0.000000
-10.645600 0.000000
-10.628600 0.000000
-10.611600 0.000000
-10.594700 0.000000
-10.577700 0.000000
-10.560700 0.000000
-10.543700 0.000000
-10.526700 0.000000
-10.509700 0.000000
-10.492700 0.000000
-10.475700 0.000000
-10.458700 0.000000
-10.441800 0.000000
-10.424800 0.000000
-10.407800 0.000000
-10.390800 0.000000
-10.373800 0.000000
-10.356800 0.000000
-10.339800 0.000000
-10.322800 0.000000
-10.305900 0.000000
-10.288900 0.000000
-10.271900 0.000000
-10.254900 0.000000
-10.237900 0.000000
-10.220900 0.000000
-10.203900 0.000000
-10.186900 0.000000
-10.169900 0.000000
-10.153000 0.000000
-10.136000 0.000000
-10.119000 0.000000
-10.102000 0.000000
-10.085000 0.000000
-10.068000 0.000000
-10.051000 0.000000
-10.034000 0.000000
-10.017000 0.000000
-10.000100 0.000000
-9.983100 0.000000
-9.966100 0.000000
-9.949100 0.000000
-9.932100 0.000000
-9.915100 0.000000
-9.898100 0.000000
-9.881100 0.000000
-9.864100 0.000000
-9.847200 0.000000
-9.830200 0.000000
-9.813200 0.000000
-9.796200 0.000000
-9.779200 0.000000
-9.762200 0.000000
-9.745200 0.000000
-9.728200 0.000000
-9.711300 0.000000
-9.694300 0.000000
-9.677300 0.000000
-9.660300 0.000000
-9.643300 0.000000
-9.626300 0.000000
-9.609300 0.000000
-9.592300 0.000000
-9.575300 0.000000
-9.558400 0.000000
-9.541400 0.000000
-9.524400 0.000000
-9.507400 0.000000
-9.490400 0.000000
-9.473400 0.000000
-9.456400 0.000000
-9.439400 0.000000
-9.422400 0.000000
-9.405500 0.000000
-9.388500 0.000000
-9.371500 0.000000
-9.354500 0.000000
-9.337500 0.000000
-9.320500 0.000000
-9.303500 0.000000
-9.286500 0.000000
-9.269500 0.000000
-9.252600 0.000000
-9.235600 0.000000
-9.218600 0.000000
-9.201600 0.000000
-9.184600 0.000000
-9.167600 0.000000
-9.150600 0.000000
-9.133600 0.000000
-9.116600 0.000000
-9.099700 0.000000
-9.082700 0.000000
-9.065700 0.000000
-9.048700 0.000000
-9.031700 0.000000
-9.014700 0.000000
-8.997700 0.000000
-8.980700 0.000000
-8.963800 0.000000
-8.946800 0.000000
-8.929800 0.000000
-8.912800 0.000000
-8.895800 0.000000
-8.878800 0.000000
-8.861800 0.000000
-8.844800 0.000000
-8.827800 0.000000
-8.810900 0.000000
-8.793900 0.000000
-8.776900 0.000000
-8.759900 0.000000
-8.742900 0.000000
-8.725900 0.000000
-8.708900 0.000000
-8.691900 0.000000
-8.674900 0.000000
-8.658000 0.000000
-8.641000 0.000000
-8.624000 0.000000
-8.607000 0.000000
-8.590000 0.000000
-8.573000 0.000000
-8.556000 0.000000
-8.539000 0.000000
-8.522000 0.000000
-8.505100 0.000000
-8.488100 0.000000
-8.471100 0.000000
-8.454100 0.000000
-8.437100 0.000000
-8.420100 0.000000
-8.403100 0.000000
-8.386100 0.000000
-8.369200 0.000000
-8.352200 0.000000
-8.335200 0.000000
-8.318200 0.000000
-8.301200 0.000000
-8.284200 0.000000
-8.267200 0.000000
-8.250200 0.000000
-8.233200 0.000000
-8.216300 0.000000
-8.199300 0.000000
-8.182300 0.000000
-8.165300 0.000000
-8.148300 0.000000
-8.131300 0.000000
-8.114300 0.000000
-8.097300 0.000000
-8.080300 0.000000
-8.063400 0.000000
-8.046400 0.000000
-8.029400 0.000000
-8.012400 0.000000
-7.995400 0.000000
-7.978400 0.000000
-7.961400 0.000000
-7.944400 0.000000
-7.927400 0.000000
-7.910500 0.000000
-7.893500 0.000000
-7.876500 0.000000
-7.859500 0.000000
-7.842500 0.000000
-7.825500 0.000000
-7.808500 0.000000
-7.791500 0.000000
-7.774600 0.000000
-7.757600 0.000000
-7.740600 0.000000
-7.723600 0.000000
-7.706600 0.000000
-7.689600 0.000000
-7.672600 0.000000
-7.655600 0.000000
-7.638600 0.000000
-7.621700 0.000000
-7.604700 0.000000
-7.587700 0.000000
-7.570700 0.000000
-7.553700 0.000000
-7.536700 0.000000
-7.519700 0.000000
-7.502700 0.000000
-7.485700 0.000000
-7.468800 0.000000
-7.451800 0.000000
-7.434800 0.000000
-7.417800 0.000000
-7.400800 0.000000
-7.383800 0.000000
-7.366800 0.000000
-7.349800 0.000000
-7.332800 0.000000
-7.315900 0.000000
-7.298900 0.000000
-7.281900 0.000000
-7.264900 0.000000
-7.247900 0.000000
-7.230900 0.000000
-7.213900 0.000000
-7.196900 0.000000
-7.180000 0.000000
-7.163000 0.000000
-7.146000 0.000000
-7.129000 0.000000
-7.112000 0.000000
-7.095000 0.000000
-7.078000 0.000000
-7.061000 0.000000
-7.044000 0.000000
-7.027100 0.000000
-7.010100 0.000000
-6.993100 0.000000
-6.976100 0.000000
-6.959100 0.000000
-6.942100 0.000000
-6.925100 0.000000
-6.908100 0.000000
-6.891100 0.000000
-6.874200 0.000000
-6.857200 0.000000
-6.840200 0.000000
-6.823200 0.000000
-6.806200 0.000000
-6.789200 0.000000
-6.772200 0.000000
-6.755200 0.000000
-6.738200 0.000000
-6.721300 0.000000
-6.704300 0.000000
-6.687300 0.000000
-6.670300 0.000000
-6.653300 0.000000
-6.636300 0.000000
-6.619300 0.000000
-6.602300 0.000000
-6.585400 0.000000
-6.568400 0.000000
-6.551400 0.000000
-6.534400 0.000000
-6.517400 0.000000
-6.500400 0.000000
-6.483400 0.000000
-6.466400 0.000000
-6.449400 0.000000
-6.432500 0.000000
-6.415500 0.000000
-6.398500 0.000000
-6.381500 0.000000
-6.364500 0.000000
-6.347500 0.000000
-6.330500 0.000000
-6.313500 0.000000
-6.296500 0.000000
-6.279600 0.000000
-6.262600 0.000000
-6.245600 0.000000
-6.228600 0.000000
-6.211600 0.000000
-6.194600 0.000000
-6.177600 0.000000
-6.160600 0.000000
-6.143600 0.000000
-6.126700 0.000000
-6.109700 0.000000
-6.092700 0.000000
-6.075700 0.000000
-6.058700 0.000000
-6.041700 0.000000
-6.024700 0.000000
-6.007700 0.000000
-5.990800 0.000000
-5.973800 0.000000
-5.956800 0.000000
-5.939800 0.000000
-5.922800 0.000000
-5.905800 0.000000
-5.888800 0.000000
-5.871800 0.000000
-5.854800 0.000000
-5.837900 0.000000
-5.820900 0.000000
-5.803900 0.000000
-5.786900 0.000000
-5.769900 0.000000
-5.752900 0.000000
-5.735900 0.000000
-5.718900 0.000000
-5.701900 0.000000
-5.685000 0.000000
-5.668000 0.000000
-5.651000 0.000000
-5.634000 0.000000
-5.617000 0.000000
-5.600000 0.000000
-5.583000 0.000000
-5.566000 0.000000
-5.549000 0.000000
-5.532100 0.000000
-5.515100 0.000000
-5.498100 0.000000
-5.481100 0.000000
-5.464100 0.000000
-5.447100 0.000000
-5.430100 0.000000
-5.413100 0.000000
-5.396200 0.000000
-5.379200 0.000000
-5.362200 0.000000
-5.345200 0.000000
-5.328200 0.000000
-5.311200 0.000000
-5.294200 0.000000
-5.277200 0.000000
-5.260200 0.000000
-5.243300 0.000000
-5.226300 0.000000
-5.209300 0.000000
-5.192300 0.000000
-5.175300 0.000000
-5.158300 0.000000
-5.141300 0.000000
-5.124300 0.000000
-5.107300 0.000000
-5.090400 0.105100
-5.073400 0.124400
-5.056400 0.161400
-5.039400 0.201000
-5.022400 0.236100
-5.005400 0.259700
-4.988400 0.272700
-4.971400 0.286200
-4.954400 0.303000
-4.937500 0.324200
-4.920500 0.347200
-4.903500 0.370800
-4.886500 0.394100
-4.869500 0.410200
-4.852500 0.423900
-4.835500 0.435100
-4.818500 0.447600
-4.801600 0.463100
-4.784600 0.479400
-4.767600 0.495900
-4.750600 0.512400
-4.733600 0.529300
-4.716600 0.546900
-4.699600 0.564400
-4.682600 0.580100
-4.665600 0.594200
-4.648700 0.609600
-4.631700 0.624900
-4.614700 0.639300
-4.597700 0.654800
-4.580700 0.671000
-4.563700 0.687800
-4.546700 0.705700
-4.529700 0.733500
-4.512700 0.760200
-4.495800 0.781700
-4.478800 0.796700
-4.461800 0.806200
-4.444800 0.821700
-4.427800 0.835800
-4.410800 0.879100
-4.393800 0.861600
-4.376800 0.875100
-4.359800 0.886900
-4.342900 0.896600
-4.325900 0.917100
-4.308900 0.945400
-4.291900 0.925700
-4.274900 0.949200
-4.257900 0.985800
-4.240900 1.029300
-4.223900 1.077900
-4.207000 1.122500
-4.190000 1.101800
-4.173000 1.111700
-4.156000 1.133200
-4.139000 1.160100
-4.122000 1.189900
-4.105000 1.219700
-4.088000 1.250700
-4.071000 1.291000
-4.054100 1.306300
-4.037100 1.341600
-4.020100 1.382300
-4.003100 1.415900
-3.986100 1.452300
-3.969100 1.488300
-3.952100 1.530800
-3.935100 1.584700
-3.918100 1.647400
-3.901200 1.710000
-3.884200 1.773200
-3.867200 1.842100
-3.850200 1.915600
-3.833200 1.996100
-3.816200 2.081700
-3.799200 2.172200
-3.782200 2.278400
-3.765200 2.646600
-3.748300 3.317400
-3.731300 3.258800
-3.714300 2.782000
-3.697300 2.462800
-3.680300 2.257800
-3.663300 2.200700
-3.646300 2.129800
-3.629300 2.023600
-3.612400 1.928000
-3.595400 1.874800
-3.578400 1.858900
-3.561400 1.839400
-3.544400 1.808400
-3.527400 1.766000
-3.510400 1.720600
-3.493400 1.684400
-3.476400 1.662600
-3.459500 1.652900
-3.442500 1.641900
-3.425500 1.630000
-3.408500 1.618300
-3.391500 1.599300
-3.374500 1.578600
-3.357500 1.561300
-3.340500 1.546900
-3.323500 1.539400
-3.306600 1.534400
-3.289600 1.529800
-3.272600 1.527800
-3.255600 1.523600
-3.238600 1.517400
-3.221600 1.513800
-3.204600 1.507500
-3.187600 1.497900
-3.170600 1.486600
-3.153700 1.474400
-3.136700 1.470600
-3.119700 1.471800
-3.102700 1.472400
-3.085700 1.475900
-3.068700 1.481200
-3.051700 1.482500
-3.034700 1.486400
-3.017800 1.533100
-3.000800 1.459900
-2.983800 1.468600
-2.966800 1.485700
-2.949800 1.551400
-2.932800 1.619700
-2.915800 1.522500
-2.898800 1.505800
-2.881800 1.503700
-2.864900 1.534400
-2.847900 1.555000
-2.830900 1.550500
-2.813900 1.649900
-2.796900 1.637700
-2.779900 1.731700
-2.762900 1.835400
-2.745900 1.840600
-2.728900 1.957700
-2.712000 2.050800
-2.695000 2.046300
-2.678000 2.066700
-2.661000 2.062200
-2.644000 2.064300
-2.627000 2.050500
-2.610000 2.034500
-2.593000 2.030000
-2.576000 2.024600
-2.559100 2.018700
-2.542100 2.011800
-2.525100 2.022600
-2.508100 2.050000
-2.491100 2.085700
-2.474100 2.118300
-2.457100 2.162200
-2.440100 2.194500
-2.423200 2.222400
-2.406200 2.159500
-2.389200 1.976300
-2.372200 1.728900
-2.355200 1.564400
-2.338200 1.451900
-2.321200 1.349100
-2.304200 1.265700
-2.287200 1.176000
-2.270300 1.078500
-2.253300 0.987000
-2.236300 0.909700
-2.219300 0.842700
-2.202300 0.742300
-2.185300 0.615300
-2.168300 0.464700
-2.151300 0.340800
-2.134300 0.255600
-2.117400 0.169900
-2.100400 0.113900
-2.083400 0.069400
-2.066400 0.036500
-2.049400 0.017500
-2.032400 0.007400
-2.015400 0.004700
-1.998400 0.019800
-1.981400 0.061700
-1.964500 0.093200
-1.947500 0.127800
-1.930500 0.165800
-1.913500 0.209900
-1.896500 0.266500
-1.879500 0.338800
-1.862500 0.436500
-1.845500 0.540100
-1.828600 0.648400
-1.811600 0.774500
-1.794600 0.909500
-1.777600 1.039100
-1.760600 1.179900
-1.743600 1.290300
-1.726600 1.336400
-1.709600 1.339900
-1.692600 1.387200
-1.675700 1.379400
-1.658700 1.410900
-1.641700 1.451300
-1.624700 1.460200
-1.607700 1.476900
-1.590700 1.506300
-1.573700 1.547700
-1.556700 1.570800
-1.539700 1.596400
-1.522800 1.643000
-1.505800 1.691900
-1.488800 1.782500
-1.471800 1.838200
-1.454800 1.906200
-1.437800 2.174200
-1.420800 2.230200
-1.403800 2.244500
-1.386800 2.157300
-1.369900 2.049900
-1.352900 1.928000
-1.335900 1.833200
-1.318900 1.775600
-1.301900 1.729200
-1.284900 1.689700
-1.267900 1.654800
-1.250900 1.620600
-1.234000 1.588200
-1.217000 1.555800
-1.200000 1.524300
-1.183000 1.494600
-1.166000 1.465800
-1.149000 1.447500
-1.132000 1.425300
-1.115000 1.395600
-1.098000 1.366500
-1.081100 1.334600
-1.064100 1.302700
-1.047100 1.287100
-1.030100 1.279300
-1.013100 1.275200
-0.996100 1.256400
-0.979100 1.233100
-0.962100 1.183600
-0.945100 1.110100
-0.928200 1.055000
-0.911200 1.014000
-0.894200 0.975000
-0.877200 0.936400
-0.860200 0.904900
-0.843200 0.877000
-0.826200 0.843000
-0.809200 0.793200
-0.792200 0.769000
-0.775300 0.749500
-0.758300 0.731500
-0.741300 0.718100
-0.724300 0.707700
-0.707300 0.701200
-0.690300 0.696000
-0.673300 0.693800
-0.656300 0.695600
-0.639400 0.701300
-0.622400 0.711600
-0.605400 0.750500
-0.588400 0.779700
-0.571400 0.769200
-0.554400 0.747300
-0.537400 0.725400
-0.520400 0.718000
-0.503400 0.719300
-0.486500 0.730900
-0.469500 0.743800
-0.452500 0.738100
-0.435500 0.725100
-0.418500 0.719200
-0.401500 0.716400
-0.384500 0.716300
-0.367500 0.715800
-0.350500 0.714800
-0.333600 0.712600
-0.316600 0.708800
-0.299600 0.704500
-0.282600 0.704500
-0.265600 0.724900
-0.248600 0.730600
-0.231600 0.723600
-0.214600 0.721800
-0.197600 0.720400
-0.180700 0.717800
-0.163700 0.714900
-0.146700 0.711900
-0.129700 0.709700
-0.112700 0.709900
-0.095700 0.710200
-0.078700 0.709900
-0.061700 0.710000
-0.044800 0.710700
-0.027800 0.712000
-0.010800 0.713900
0.006200 0.715600
0.023200 0.717000
0.040200 0.721800
0.057200 0.727200
0.074200 0.732700
0.091200 0.737700
0.108100 0.742600
0.125100 0.748400
0.142100 0.754600
0.159100 0.760800
0.176100 0.768700
0.193100 0.777200
0.210100 0.786600
0.227100 0.797000
0.244100 0.866300
0.261000 0.832500
0.278000 0.834500
0.295000 0.840000
0.312000 0.852000
0.329000 0.862000
0.346000 0.868900
0.363000 0.873400
0.380000 0.875700
0.397000 0.876100
0.413900 0.875900
0.430900 0.874500
0.447900 0.879900
0.464900 0.932300
0.481900 1.004500
0.498900 1.062900
0.515900 1.113700
0.532900 1.162400
0.549800 1.219900
0.566800 1.274800
0.583800 1.386900
0.600800 2.403700
0.617800 3.897200
0.634800 4.057200
0.651800 3.922300
0.668800 3.209900
0.685800 2.678100
0.702700 2.374000
0.719700 2.168200
0.736700 1.957100
0.753700 1.873300
0.770700 1.803400
0.787700 1.747200
0.804700 1.699400
0.821700 1.660500
0.838700 1.635700
0.855600 1.653100
0.872600 1.676400
0.889600 1.666300
0.906600 1.657900
0.923600 1.585400
0.940600 1.544400
0.957600 1.503000
0.974600 1.419000
0.991600 1.278000
1.008500 1.078800
1.025500 0.961000
1.042500 0.853800
1.059500 0.742900
1.076500 0.691700
1.093500 0.662900
1.110500 0.643100
1.127500 0.625300
1.144400 0.607600
1.161400 0.589500
1.178400 0.570300
1.195400 0.547300
1.212400 0.526700
1.229400 0.514800
1.246400 0.504000
1.263400 0.493500
1.280400 0.483000
1.297300 0.472600
1.314300 0.462400
1.331300 0.452400
1.348300 0.442700
1.365300 0.433100
1.382300 0.423500
1.399300 0.413700
1.416300 0.403800
1.433300 0.393900
1.450200 0.382300
1.467200 0.371500
1.484200 0.361300
1.501200 0.351800
1.518200 0.346300
1.535200 0.354900
1.552200 0.391600
1.569200 0.430900
1.586200 0.475500
1.603100 0.487900
1.620100 0.512200
1.637100 0.556400
1.654100 0.605000
1.671100 0.655200
1.688100 0.705800
1.705100 0.765700
1.722100 0.835500
1.739000 0.909900
1.756000 0.988000
1.773000 1.078000
1.790000 1.173400
1.807000 1.284000
1.824000 1.404000
1.841000 1.598100
1.858000 1.726900
1.875000 1.744100
1.891900 1.852000
1.908900 1.985500
1.925900 2.134100
1.942900 2.328700
1.959900 2.546300
1.976900 2.750800
1.993900 2.967000
2.010900 3.147900
2.027900 3.368200
2.044800 3.528400
2.061800 3.655600
2.078800 3.755600
2.095800 3.878100
2.112800 3.846800
2.129800 4.260300
2.146800 4.862500
2.163800 4.457400
2.180800 3.926800
2.197700 3.637800
2.214700 3.760300
2.231700 3.696300
2.248700 3.293700
2.265700 3.007500
2.282700 3.200600
2.299700 4.954900
2.316700 4.504200
2.333600 4.002600
2.350600 3.537600
2.367600 3.398400
2.384600 3.400300
2.401600 3.281600
2.418600 3.106000
2.435600 2.970200
2.452600 2.889200
2.469600 2.817500
2.486500 2.782800
2.503500 2.727000
2.520500 2.639500
2.537500 2.563900
2.554500 2.545300
2.571500 2.504700
2.588500 2.439700
2.605500 2.436200
2.622500 2.444000
2.639400 2.455000
2.656400 2.469900
2.673400 2.494100
2.690400 2.506100
2.707400 2.499600
2.724400 2.459600
2.741400 2.420900
2.758400 2.406000
2.775400 2.413200
2.792300 2.634300
2.809300 2.925400
2.826300 2.984600
2.843300 3.027100
2.860300 3.129200
2.877300 3.259300
2.894300 3.386200
2.911300 3.624000
2.928200 3.715700
2.945200 4.094100
2.962200 4.237100
2.979200 4.417300
2.996200 4.697400
3.013200 5.074700
3.030200 5.369100
3.047200 5.146000
3.064200 4.755800
3.081100 4.688700
3.098100 4.625500
3.115100 4.675300
3.132100 5.047600
3.149100 4.707200
3.166100 4.523500
3.183100 4.373000
3.200100 4.169300
3.217100 4.057000
3.234000 3.904400
3.251000 3.811200
3.268000 3.683300
3.285000 3.524400
3.302000 3.379400
3.319000 3.289800
3.336000 3.297700
3.353000 3.057300
3.370000 3.325800
3.386900 3.349000
3.403900 3.680500
3.420900 2.179300
3.437900 1.970800
3.454900 1.911900
3.471900 1.535600
3.488900 1.249500
3.505900 1.229500
3.522800 1.232300
3.539800 1.264600
3.556800 1.282700
3.573800 1.317300
3.590800 1.383600
3.607800 1.428800
3.624800 1.441200
3.641800 1.449600
3.658800 1.516300
3.675700 1.501100
3.692700 1.385200
3.709700 1.353300
3.726700 1.229300
3.743700 1.246600
3.760700 1.239800
3.777700 1.251200
3.794700 1.260700
3.811700 1.263600
3.828600 1.267900
3.845600 1.283200
3.862600 1.323400
3.879600 1.393800
3.896600 1.493200
3.913600 1.649000
3.930600 2.001200
3.947600 2.082600
3.964600 1.966900
3.981500 1.894300
3.998500 1.791700
4.015500 1.782200
4.032500 1.876200
4.049500 1.965400
4.066500 2.109200
4.083500 2.128800
4.100500 2.376900
4.117400 2.606200
4.134400 2.610200
4.151400 2.681900
4.168400 2.558800
4.185400 2.723400
4.202400 2.901400
4.219400 3.349200
4.236400 3.068500
4.253400 3.121600
4.270300 3.073400
4.287300 3.124600
4.304300 3.282900
4.321300 3.416400
4.338300 3.549000
4.355300 3.655800
4.372300 3.752800
4.389300 3.900100
4.406300 3.985000
4.423200 4.017000
4.440200 3.974500
4.457200 3.939500
4.474200 3.975300
4.491200 4.562400
4.508200 4.575700
4.525200 4.774900
4.542200 4.981100
4.559200 4.914000
4.576100 5.151200
4.593100 5.508600
4.610100 4.690400
4.627100 4.497000
4.644100 4.386700
4.661100 4.317200
4.678100 4.226200
4.695100 4.162700
4.712000 4.063100
4.729000 3.952600
4.746000 3.792800
4.763000 3.593400
4.780000 3.428100
4.797000 3.291400
4.814000 3.240200
4.831000 3.243600
4.848000 3.301200
4.864900 3.307200
4.881900 3.187800
4.898900 3.225800
4.915900 3.271500
4.932900 3.512000
4.949900 3.452000
4.966900 3.539500
4.983900 3.634400
5.000900 3.827300
5.017800 4.075400
5.034800 3.731400
5.051800 3.426600
5.068800 3.101800
5.085800 2.791800
5.102800 2.568100
5.119800 2.430600
5.136800 2.339300
5.153800 2.269100
5.170700 2.212000
5.187700 2.167100
5.204700 2.129900
5.221700 2.071700
5.238700 2.017300
5.255700 1.974700
5.272700 1.949300
5.289700 1.944500
5.306600 1.952300
5.323600 1.946000
5.340600 1.927300
5.357600 1.902800
5.374600 1.880200
5.391600 1.854800
5.408600 1.824600
5.425600 1.792900
5.442600 1.769800
5.459500 1.701200
5.476500 1.628400
5.493500 1.598800
5.510500 1.583200
5.527500 1.575400
5.544500 1.603100
5.561500 1.648200
5.578500 1.657500
5.595500 1.665100
5.612400 1.667800
5.629400 1.677700
5.646400 1.693600
5.663400 1.707000
5.680400 1.705800
5.697400 1.691400
5.714400 1.660900
5.731400 1.618100
5.748400 1.583700
5.765300 1.562400
5.782300 1.539800
5.799300 1.534800
5.816300 1.528700
5.833300 1.512900
5.850300 1.502700
5.867300 1.502300
5.884300 1.542200
5.901200 1.578100
5.918200 1.579100
5.935200 1.517200
5.952200 1.511600
5.969200 1.512500
5.986200 1.506900
6.003200 1.513300
6.020200 1.520500
6.037200 1.520500
6.054100 1.496500
6.071100 1.452200
6.088100 1.442100
6.105100 1.412600
6.122100 1.492800
6.139100 1.506300
6.156100 1.430500
6.173100 1.499500
6.190100 1.621300
6.207000 1.811600
6.224000 2.125600
6.241000 2.310600
6.258000 2.523600
6.275000 2.756800
6.292000 3.253900
6.309000 3.180100
6.326000 2.973400
6.343000 2.915500
6.359900 2.886700
6.376900 2.880800
6.393900 2.899600
6.410900 2.974000
6.427900 3.085500
6.444900 3.152200
6.461900 3.233200
6.478900 3.237100
6.495800 3.222200
6.512800 2.825400
6.529800 2.618400
6.546800 2.499000
6.563800 2.419800
6.580800 2.329600
6.597800 2.232900
6.614800 2.111500
6.631800 1.991100
6.648700 1.882600
6.665700 1.806800
6.682700 1.775900
6.699700 1.807300
6.716700 1.838900
6.733700 1.919100
6.750700 2.062000
6.767700 2.595000
6.784700 3.156500
6.801600 2.628900
6.818600 2.581400
6.835600 2.624800
6.852600 2.685300
6.869600 2.730600
6.886600 2.770800
6.903600 2.825900
6.920600 2.830600
6.937600 2.781500
6.954500 2.714500
6.971500 2.652300
6.988500 2.578700
7.005500 2.512300
7.022500 2.457200
7.039500 2.417100
7.056500 2.391600
7.073500 2.375100
7.090400 2.461700
7.107400 2.592400
7.124400 2.672800
7.141400 2.788800
7.158400 2.887500
7.175400 2.926400
7.192400 2.975300
7.209400 3.037700
7.226400 3.074300
7.243300 3.096200
7.260300 3.097100
7.277300 3.083500
7.294300 3.047500
7.311300 3.028000
7.328300 3.035600
7.345300 3.066800
7.362300 3.057800
7.379300 3.064600
7.396200 3.082400
7.413200 3.127200
7.430200 3.124100
7.447200 3.140100
7.464200 3.177600
7.481200 3.223900
7.498200 3.263800
7.515200 3.285800
7.532200 3.274300
7.549100 3.257200
7.566100 3.283000
7.583100 3.272500
7.600100 3.228000
7.617100 3.173700
7.634100 3.129400
7.651100 3.107000
7.668100 3.100700
7.685000 3.114000
7.702000 3.176500
7.719000 3.179800
7.736000 3.283500
7.753000 3.324600
7.770000 3.287600
7.787000 3.245000
7.804000 3.360600
7.821000 3.321200
7.837900 3.480100
7.854900 3.520800
7.871900 3.552400
7.888900 3.679700
7.905900 3.776400
7.922900 3.837700
7.939900 3.919100
7.956900 3.917000
7.973900 3.937400
7.990800 3.925000
8.007800 3.770300
8.024800 3.721500
8.041800 3.669700
8.058800 3.609200
8.075800 3.543300
8.092800 3.372500
8.109800 3.218300
8.126800 3.123700
8.143700 3.092900
8.160700 3.013500
8.177700 2.919900
8.194700 2.863400
8.211700 2.803300
8.228700 2.752500
8.245700 2.728700
8.262700 2.702900
8.279700 2.683500
8.296600 2.679400
8.313600 2.715700
8.330600 2.699500
8.347600 2.778500
8.364600 2.894300
8.381600 3.123100
8.398600 3.274300
8.415600 3.218500
8.432500 3.221800
8.449500 3.202800
8.466500 3.225400
8.483500 3.298300
8.500500 3.331600
8.517500 3.398000
8.534500 3.465300
8.551500 3.533300
8.568500 3.580200
8.585400 3.617300
8.602400 3.599700
8.619400 3.631400
8.636400 3.618600
8.653400 3.382300
8.670400 3.322900
8.687400 3.379300
8.704400 3.397700
8.721400 3.477900
8.738300 3.598100
8.755300 3.726400
8.772300 3.721400
8.789300 3.908000
8.806300 4.182700
8.823300 4.449300
8.840300 4.656900
8.857300 4.769700
8.874300 5.009000
8.891200 5.039400
8.908200 5.092600
8.925200 5.106400
8.942200 4.963400
8.959200 4.810000
8.976200 4.696600
8.993200 4.616400
9.010200 4.636800
9.027100 4.566800
9.044100 4.564900
9.061100 4.459400
9.078100 4.642100
9.095100 4.814800
9.112100 4.826300
9.129100 4.762700
9.146100 4.639300
9.163100 4.647000
9.180000 4.644600
9.197000 4.583800
9.214000 4.664700
9.231000 4.702600
9.248000 4.798200
9.265000 4.986500
9.282000 4.973200
9.299000 5.034600
9.316000 4.699000
9.332900 4.598400
9.349900 4.580100
9.366900 4.454000
9.383900 4.377000
9.400900 4.237300
9.417900 4.129800
9.434900 4.045500
9.451900 3.982300
9.468900 3.958700
9.485800 3.979500
9.502800 4.029100
9.519800 4.109000
9.536800 4.333000
9.553800 4.528700
9.570800 4.503400
9.587800 4.708200
9.604800 4.794900
9.621700 4.791500
9.638700 4.802400
9.655700 4.759900
9.672700 4.737600
9.689700 4.581500
9.706700 4.380900
9.723700 4.182800
9.740700 4.147600
9.757700 4.181600
9.774600 4.277100
9.791600 4.288300
9.808600 4.339400
9.825600 4.317200
9.842600 4.315300
9.859600 4.370800
9.876600 4.546800
9.893600 4.665900
9.910600 4.439600
9.927500 4.456300
9.944500 4.628400
9.961500 4.910300
9.978500 5.238200
9.995500 5.312200
10.012500 5.211500
10.029500 5.245200
10.046500 5.085600
10.063500 4.923300
10.080400 4.885300
10.097400 4.991600
10.114400 5.170300
10.131400 5.257200
10.148400 5.356400
10.165400 5.614800
10.182400 5.869400
10.199400 5.803900
10.216300 5.848100
10.233300 5.715000
10.250300 5.552600
10.267300 5.622800
10.284300 5.718800
10.301300 5.654000
10.318300 5.617000
10.335300 5.651800
10.352300 5.739400
10.369200 5.674700
10.386200 5.586300
10.403200 5.524600
10.420200 5.617600
10.437200 5.825900
10.454200 5.854700
10.471200 5.887300
10.488200 5.865200
10.505200 5.902300
10.522100 5.951000
10.539100 6.367000
10.556100 6.642400
10.573100 6.492000
10.590100 6.297500
10.607100 6.094900
10.624100 5.926700
10.641100 5.980100
10.658100 6.138200
10.675000 6.214000
10.692000 6.312300
10.709000 6.378000
10.726000 6.495000
10.743000 6.493200
10.760000 6.704000
10.777000 6.844100
10.794000 7.317500
10.810900 7.991900
10.827900 8.686000
10.844900 8.985300
10.861900 7.845300
10.878900 6.572000
10.895900 6.199800
10.912900 6.064500
10.929900 5.993900
10.946900 6.092200
10.963800 6.557700
10.980800 7.065100
10.997800 7.502400
11.014800 7.662400
11.031800 7.399900
11.048800 6.547500
11.065800 6.873200
11.082800 7.698200
11.099800 7.991800
11.116700 7.208100
11.133700 6.149500
11.150700 5.405600
11.167700 4.958400
11.184700 4.755800
11.201700 4.699700
11.218700 4.772400
11.235700 4.990400
11.252700 5.200300
11.269600 5.421500
11.286600 5.232900
11.303600 5.212300
11.320600 5.153200
11.337600 4.995200
11.354600 4.969600
11.371600 4.984800
11.388600 4.872200
11.405500 4.936500
11.422500 4.950900
11.439500 4.965800
11.456500 4.952800
11.473500 4.847500
11.490500 5.081900
11.507500 4.732500
11.524500 4.539500
11.541500 4.468200
11.558400 4.480200
11.575400 4.574000
11.592400 4.706700
11.609400 4.872600
11.626400 4.813900
11.643400 4.182400
11.660400 3.736900
11.677400 3.596800
11.694400 3.546500
11.711300 3.519700
11.728300 3.450100
11.745300 3.434800
11.762300 3.552800
11.779300 3.827000
11.796300 3.954500
11.813300 4.169700
11.830300 4.492500
11.847300 4.250700
11.864200 4.298500
11.881200 4.321900
11.898200 4.415200
11.915200 4.655400
11.932200 4.900300
11.949200 4.983900
11.966200 5.028400
11.983200 4.997600
12.000100 4.935600
12.017100 4.968400
12.034100 4.973600
12.051100 5.263100
12.068100 5.322900
12.085100 5.338000
12.102100 5.445300
12.119100 5.442400
12.136100 5.187100
12.153000 5.036300
12.170000 4.887500
12.187000 4.739900
12.204000 4.626800
12.221000 4.616300
12.238000 4.647100
12.255000 4.700100
12.272000 4.751000
12.289000 4.855900
12.305900 4.892100
12.322900 4.772800
12.339900 4.671000
12.356900 4.598800
12.373900 4.651000
12.390900 4.434100
12.407900 4.324800
12.424900 4.390300
12.441900 4.494900
12.458800 4.559000
12.475800 4.649500
12.492800 5.102400
12.509800 5.245200
12.526800 5.239400
12.543800 5.050400
12.560800 4.831300
12.577800 4.665600
12.594700 4.455000
12.611700 4.328000
12.628700 4.238700
12.645700 4.184700
12.662700 4.136600
12.679700 4.037600
12.696700 3.934100
12.713700 3.771200
12.730700 3.593500
12.747600 3.521400
12.764600 3.419600
12.781600 3.364000
12.798600 3.311200
12.815600 3.283900
12.832600 3.338800
12.849600 3.389200
12.866600 3.493000
12.883600 3.646200
12.900500 3.773700
12.917500 3.869800
12.934500 4.004600
12.951500 4.111700
12.968500 4.227500
12.985500 4.193800
13.002500 4.053600
13.019500 4.010600
13.036500 3.951900
13.053400 3.920900
13.070400 3.896300
13.087400 3.905400
13.104400 3.868200
13.121400 3.800400
13.138400 3.718300
13.155400 3.665100
13.172400 3.611800
13.189300 3.563700
13.206300 3.673500
13.223300 3.731900
13.240300 3.765900
13.257300 3.800300
13.274300 3.834300
13.291300 3.923000
13.308300 4.032400
13.325300 4.066800
13.342200 4.136100
13.359200 4.202800
13.376200 4.217100
13.393200 4.218400
13.410200 4.070700
13.427200 3.997700
13.444200 3.878800
13.461200 3.733500
13.478200 3.591800
13.495100 3.734300
13.512100 3.571100
13.529100 3.565200
13.546100 3.529800
13.563100 3.411300
13.580100 3.151700
13.597100 2.873700
13.614100 2.579000
13.631100 2.401400
13.648000 2.093800
13.665000 1.996700
13.682000 1.919700
13.699000 1.872800
13.716000 1.853500
13.733000 1.884600
13.750000 2.039500
13.767000 2.242500
13.783900 2.359000
13.800900 2.510400
13.817900 2.345000
13.834900 1.793900
13.851900 1.536700
13.868900 1.409100
13.885900 1.354800
13.902900 1.159400
13.919900 1.151000
13.936800 1.007700
13.953800 0.964800
13.970800 0.917600
13.987800 0.864500
14.004800 0.809400
14.021800 0.762500
14.038800 0.727100
14.055800 0.656700
14.072800 0.595300
14.089700 0.538200
14.106700 0.488000
14.123700 0.490000
14.140700 0.453700
14.157700 0.391500
14.174700 0.345900
14.191700 0.306500
14.208700 0.274100
14.225700 0.250200
14.242600 0.228300
14.259600 0.208800
14.276600 0.191800
14.293600 0.177600
14.310600 0.165900
14.327600 0.156400
14.344600 0.147500
14.361600 0.139400
14.378500 0.131500
14.395500 0.124200
14.412500 0.117400
14.429500 0.111100
14.446500 0.105200
14.463500 0.099800
14.480500 0.094700
14.497500 0.090100
14.514500 0.086000
14.531400 0.082000
14.548400 0.078200
14.565400 0.074500
14.582400 0.070900
14.599400 0.067400
14.616400 0.064000
14.633400 0.060700
14.650400 0.057600
14.667400 0.054500
14.684300 0.051600
14.701300 0.048700
14.718300 0.045900
14.735300 0.043100
14.752300 0.040200
14.769300 0.037400
14.786300 0.034600
14.803300 0.031900
14.820300 0.029100
14.837200 0.026300
14.854200 0.023600
14.871200 0.020800
14.888200 0.017800
14.905200 0.014500
14.922200 0.010500
14.939200 0.006800
14.956200 0.003900
14.973100 0.001800
14.990100 0.000500
15.007100 0.000000
15.024100 0.000000
15.041100 0.000000
15.058100 0.000000
15.075100 0.000000
15.092100 0.000000
15.109100 0.000000
15.126000 0.000000
15.143000 0.000000
15.160000 0.000000
15.177000 0.000000
15.194000 0.000000
15.211000 0.000000
15.228000 0.000000
15.245000 0.000000
15.262000 0.000000
15.278900 0.000000
15.295900 0.000000
15.312900 0.000000
15.329900 0.000000
15.346900 0.000000
15.363900 0.000000
15.380900 0.000000
15.397900 0.000000
15.414900 0.000000
15.431800 0.000000
15.448800 0.000000
15.465800 0.000000
15.482800 0.000000
15.499800 0.000000
15.516800 0.000000
15.533800 0.000000
15.550800 0.000000
15.567700 0.000000
15.584700 0.000000
15.601700 0.000000
15.618700 0.000000
15.635700 0.000000
15.652700 0.000000
15.669700 0.000000
15.686700 0.000000
15.703700 0.000000
15.720600 0.000000
15.737600 0.000000
15.754600 0.000000
15.771600 0.000000
15.788600 0.000000
15.805600 0.000000
15.822600 0.000000
15.839600 0.000000
15.856600 0.000000
15.873500 0.000000
15.890500 0.000000
15.907500 0.000000
15.924500 0.000000
15.941500 0.000000
15.958500 0.000000
15.975500 0.000000
15.992500 0.000000
16.009500 0.000000
16.026400 0.000000
16.043400 0.000000
16.060400 0.000000
16.077400 0.000000
16.094400 0.000000
16.111400 0.000000
16.128400 0.000000
16.145400 0.000000
16.162300 0.000000
16.179300 0.000000
16.196300 0.000000
16.213300 0.000000
16.230300 0.000000
16.247300 0.000000
16.264300 0.000000
16.281300 0.000000
16.298300 0.000000
16.315200 0.000000
16.332200 0.000000
16.349200 0.000000
16.366200 0.000000
16.383200 0.000000
16.400200 0.000000
16.417200 0.000000
16.434200 0.000000
16.451200 0.000000
16.468100 0.000000
16.485100 0.000000
16.502100 0.000000
16.519100 0.000000
16.536100 0.000000
16.553100 0.000000
e
