set title 'mp-568927 - Density of States'
set xlabel 'Energy (eV)'
set ylabel 'DOS (states/eV)'
set grid
set xrange [-10:10]
set yrange [0:43.813]
set xzeroaxis lt -1
set terminal png size 800,600
set output 'mp-568927_dos_gnuplot.png'
plot '-' using 1:2 with lines title 'DOS'
-10.949800 0.000000
-10.935300 0.000000
-10.920900 0.000000
-10.906400 0.000000
-10.892000 0.000000
-10.877500 0.000000
-10.863100 0.000000
-10.848600 0.000000
-10.834200 0.000000
-10.819700 0.000000
-10.805300 0.000000
-10.790800 0.000000
-10.776400 0.000000
-10.761900 0.000000
-10.747500 0.000000
-10.733000 0.000000
-10.718600 0.000000
-10.704100 0.000000
-10.689600 0.000000
-10.675200 0.000000
-10.660700 0.000000
-10.646300 0.000000
-10.631800 0.000000
-10.617400 0.000000
-10.602900 0.000000
-10.588500 0.000000
-10.574000 0.000000
-10.559600 0.000000
-10.545100 0.000000
-10.530700 0.000000
-10.516200 0.000000
-10.501800 0.000000
-10.487300 0.000000
-10.472900 0.000000
-10.458400 0.000000
-10.444000 0.000000
-10.429500 0.000000
-10.415100 0.000000
-10.400600 0.000000
-10.386200 0.000000
-10.371700 0.000000
-10.357300 0.000000
-10.342800 0.000000
-10.328400 0.000000
-10.313900 0.000000
-10.299500 0.000000
-10.285000 0.000000
-10.270600 0.000000
-10.256100 0.000000
-10.241700 0.000000
-10.227200 0.000000
-10.212800 0.000000
-10.198300 0.000000
-10.183900 0.000000
-10.169400 0.000000
-10.155000 0.000000
-10.140500 0.000000
-10.126100 0.000000
-10.111600 0.000000
-10.097200 0.000000
-10.082700 0.000000
-10.068300 0.000000
-10.053800 0.000000
-10.039400 0.000000
-10.024900 0.000000
-10.010500 0.000000
-9.996000 0.000000
-9.981500 0.000000
-9.967100 0.000000
-9.952600 0.000000
-9.938200 0.000000
-9.923700 0.000000
-9.909300 0.000000
-9.894800 0.000000
-9.880400 0.000000
-9.865900 0.000000
-9.851500 0.000000
-9.837000 0.000000
-9.822600 0.000000
-9.808100 0.000000
-9.793700 0.000000
-9.779200 0.000000
-9.764800 0.000000
-9.750300 0.000000
-9.735900 0.000000
-9.721400 0.000000
-9.707000 0.000000
-9.692500 0.000000
-9.678100 0.000000
-9.663600 0.000000
-9.649200 0.000000
-9.634700 0.210900
-9.620300 0.424800
-9.605800 0.694000
-9.591400 0.749200
-9.576900 0.849900
-9.562500 0.976900
-9.548000 1.131800
-9.533600 1.220500
-9.519100 1.303300
-9.504700 1.413200
-9.490200 1.533500
-9.475800 1.658800
-9.461300 1.777300
-9.446900 1.894000
-9.432400 2.019800
-9.418000 2.150300
-9.403500 2.282300
-9.389100 2.425800
-9.374600 2.593200
-9.360200 2.942000
-9.345700 3.138700
-9.331300 3.176800
-9.316800 3.300500
-9.302400 3.441100
-9.287900 3.565100
-9.273500 3.715800
-9.259000 3.913700
-9.244500 4.630800
-9.230100 5.004400
-9.215600 5.444300
-9.201200 6.203100
-9.186700 6.777800
-9.172300 7.647800
-9.157800 8.035600
-9.143400 8.474000
-9.128900 9.051900
-9.114500 9.821300
-9.100000 11.467500
-9.085600 14.353400
-9.071100 15.230200
-9.056700 16.965200
-9.042200 20.617400
-9.027800 24.649800
-9.013300 29.542500
-8.998900 14.064100
-8.984400 0.889900
-8.970000 0.000000
-8.955500 0.000000
-8.941100 0.000000
-8.926600 0.000000
-8.912200 0.000000
-8.897700 0.000000
-8.883300 0.000000
-8.868800 0.000000
-8.854400 0.000000
-8.839900 0.000000
-8.825500 0.000000
-8.811000 0.000000
-8.796600 0.000000
-8.782100 0.000000
-8.767700 0.000000
-8.753200 0.000000
-8.738800 0.000000
-8.724300 0.000000
-8.709900 0.000000
-8.695400 0.000000
-8.681000 0.000000
-8.666500 0.000000
-8.652100 0.000000
-8.637600 0.000000
-8.623200 0.000000
-8.608700 0.000000
-8.594300 0.000000
-8.579800 0.000000
-8.565400 0.000000
-8.550900 0.000000
-8.536500 0.000000
-8.522000 0.000000
-8.507500 0.000000
-8.493100 0.000000
-8.478600 0.000000
-8.464200 0.000000
-8.449700 0.000000
-8.435300 0.000000
-8.420800 0.000000
-8.406400 0.000000
-8.391900 0.000000
-8.377500 0.000000
-8.363000 0.000000
-8.348600 0.000000
-8.334100 0.000000
-8.319700 0.000000
-8.305200 0.000000
-8.290800 0.000000
-8.276300 0.000000
-8.261900 0.000000
-8.247400 0.000000
-8.233000 0.000000
-8.218500 0.000000
-8.204100 0.000000
-8.189600 0.000000
-8.175200 0.000000
-8.160700 0.000000
-8.146300 0.000000
-8.131800 0.000000
-8.117400 0.000000
-8.102900 0.000000
-8.088500 0.000000
-8.074000 0.000000
-8.059600 0.000000
-8.045100 0.000000
-8.030700 0.000000
-8.016200 0.000000
-8.001800 0.000000
-7.987300 0.000000
-7.972900 0.000000
-7.958400 0.000000
-7.944000 0.000000
-7.929500 0.000000
-7.915100 0.000000
-7.900600 0.000000
-7.886200 0.000000
-7.871700 0.000000
-7.857300 0.000000
-7.842800 0.000000
-7.828400 0.000000
-7.813900 0.000000
-7.799400 0.000000
-7.785000 0.000000
-7.770500 0.000000
-7.756100 0.000000
-7.741600 0.000000
-7.727200 0.000000
-7.712700 0.000000
-7.698300 0.000000
-7.683800 0.000000
-7.669400 0.000000
-7.654900 0.000000
-7.640500 0.000000
-7.626000 0.000000
-7.611600 0.000000
-7.597100 0.000000
-7.582700 0.000000
-7.568200 0.000000
-7.553800 0.000000
-7.539300 0.000000
-7.524900 0.000000
-7.510400 0.000000
-7.496000 0.000000
-7.481500 0.000000
-7.467100 0.000000
-7.452600 0.000000
-7.438200 0.000000
-7.423700 0.000000
-7.409300 0.000000
-7.394800 0.000000
-7.380400 0.000000
-7.365900 0.000000
-7.351500 0.000000
-7.337000 0.000000
-7.322600 0.000000
-7.308100 0.000000
-7.293700 0.000000
-7.279200 0.000000
-7.264800 0.000000
-7.250300 0.000000
-7.235900 0.000000
-7.221400 0.000000
-7.207000 0.000000
-7.192500 0.000000
-7.178100 0.000000
-7.163600 0.000000
-7.149200 0.000000
-7.134700 0.000000
-7.120300 0.000000
-7.105800 0.000000
-7.091400 0.000000
-7.076900 0.000000
-7.062400 0.000000
-7.048000 0.000000
-7.033500 0.000000
-7.019100 0.000000
-7.004600 0.000000
-6.990200 0.000000
-6.975700 0.000000
-6.961300 0.000000
-6.946800 0.000000
-6.932400 0.000000
-6.917900 0.000000
-6.903500 0.000000
-6.889000 0.000000
-6.874600 0.000000
-6.860100 0.000000
-6.845700 0.000000
-6.831200 0.000000
-6.816800 0.000000
-6.802300 0.000000
-6.787900 0.000000
-6.773400 0.000000
-6.759000 0.000000
-6.744500 0.000000
-6.730100 0.000000
-6.715600 0.000000
-6.701200 0.000000
-6.686700 0.000000
-6.672300 0.000000
-6.657800 0.000000
-6.643400 0.000000
-6.628900 0.000000
-6.614500 0.000000
-6.600000 0.000000
-6.585600 0.000000
-6.571100 0.000000
-6.556700 0.000000
-6.542200 0.000000
-6.527800 0.000000
-6.513300 0.000000
-6.498900 0.000000
-6.484400 0.000000
-6.470000 0.000000
-6.455500 0.000000
-6.441100 0.000000
-6.426600 0.000000
-6.412200 0.000000
-6.397700 0.000000
-6.383300 0.000000
-6.368800 0.000000
-6.354400 0.000000
-6.339900 0.000000
-6.325400 0.000000
-6.311000 0.000000
-6.296500 0.000000
-6.282100 0.000000
-6.267600 0.000000
-6.253200 0.000000
-6.238700 0.000000
-6.224300 0.000000
-6.209800 0.000000
-6.195400 0.000000
-6.180900 0.000000
-6.166500 0.000000
-6.152000 0.000000
-6.137600 0.000000
-6.123100 0.000000
-6.108700 0.000000
-6.094200 0.000000
-6.079800 0.000000
-6.065300 0.000000
-6.050900 0.000000
-6.036400 0.000000
-6.022000 0.000000
-6.007500 0.000000
-5.993100 0.000000
-5.978600 0.000000
-5.964200 0.000000
-5.949700 0.000000
-5.935300 0.000000
-5.920800 0.000000
-5.906400 0.000000
-5.891900 0.000000
-5.877500 0.000000
-5.863000 0.000000
-5.848600 0.000000
-5.834100 0.000000
-5.819700 0.000000
-5.805200 0.000000
-5.790800 0.000000
-5.776300 0.000000
-5.761900 0.000000
-5.747400 0.000000
-5.733000 0.000000
-5.718500 0.000000
-5.704100 0.000000
-5.689600 0.000000
-5.675200 0.000000
-5.660700 0.000000
-5.646300 0.000000
-5.631800 0.000000
-5.617300 0.000000
-5.602900 0.000000
-5.588400 0.000000
-5.574000 0.000000
-5.559500 0.000000
-5.545100 0.000000
-5.530600 0.000000
-5.516200 0.000000
-5.501700 0.000000
-5.487300 0.000000
-5.472800 0.000000
-5.458400 0.000000
-5.443900 0.000000
-5.429500 0.000000
-5.415000 0.000000
-5.400600 0.000000
-5.386100 0.000000
-5.371700 0.000000
-5.357200 0.000000
-5.342800 0.000000
-5.328300 0.000000
-5.313900 0.000000
-5.299400 0.000000
-5.285000 0.000000
-5.270500 0.000000
-5.256100 0.000000
-5.241600 0.000000
-5.227200 0.000000
-5.212700 0.000000
-5.198300 0.000000
-5.183800 0.000000
-5.169400 0.000000
-5.154900 0.000000
-5.140500 0.000000
-5.126000 0.000000
-5.111600 0.000000
-5.097100 0.000000
-5.082700 0.000000
-5.068200 0.000000
-5.053800 0.000000
-5.039300 0.000000
-5.024900 0.000000
-5.010400 0.000000
-4.996000 0.000000
-4.981500 0.000000
-4.967100 0.000000
-4.952600 0.000000
-4.938200 0.000000
-4.923700 0.000000
-4.909300 0.000000
-4.894800 0.000000
-4.880300 0.000000
-4.865900 0.000000
-4.851400 0.000000
-4.837000 0.000000
-4.822500 0.000000
-4.808100 0.000000
-4.793600 0.000000
-4.779200 0.000000
-4.764700 0.000000
-4.750300 0.000000
-4.735800 0.000000
-4.721400 0.000000
-4.706900 0.000000
-4.692500 0.000000
-4.678000 0.000000
-4.663600 0.000000
-4.649100 0.000000
-4.634700 0.000000
-4.620200 0.000000
-4.605800 0.000000
-4.591300 0.000000
-4.576900 0.000000
-4.562400 0.000000
-4.548000 0.000000
-4.533500 0.000000
-4.519100 0.000000
-4.504600 0.000000
-4.490200 0.000000
-4.475700 0.000000
-4.461300 0.000000
-4.446800 0.000000
-4.432400 0.000000
-4.417900 0.000000
-4.403500 0.000000
-4.389000 0.000000
-4.374600 0.000000
-4.360100 0.000000
-4.345700 0.000000
-4.331200 0.000000
-4.316800 0.000000
-4.302300 0.000000
-4.287900 0.000000
-4.273400 0.000000
-4.259000 0.000000
-4.244500 0.000000
-4.230100 0.000000
-4.215600 0.000000
-4.201200 0.000000
-4.186700 0.000000
-4.172300 0.000000
-4.157800 0.000000
-4.143300 0.000000
-4.128900 0.000000
-4.114400 0.000000
-4.100000 0.000000
-4.085500 0.000000
-4.071100 0.000000
-4.056600 0.000000
-4.042200 0.000000
-4.027700 0.000000
-4.013300 0.000000
-3.998800 0.000000
-3.984400 0.000000
-3.969900 0.000000
-3.955500 0.000000
-3.941000 0.000000
-3.926600 0.000000
-3.912100 0.000000
-3.897700 0.000000
-3.883200 0.000000
-3.868800 0.000000
-3.854300 0.000000
-3.839900 0.000000
-3.825400 0.000000
-3.811000 0.000000
-3.796500 0.000000
-3.782100 0.000000
-3.767600 0.000000
-3.753200 0.000000
-3.738700 0.000000
-3.724300 0.000000
-3.709800 0.000000
-3.695400 0.000000
-3.680900 0.000000
-3.666500 0.000000
-3.652000 0.000000
-3.637600 0.000000
-3.623100 0.000000
-3.608700 0.000000
-3.594200 0.000000
-3.579800 0.000000
-3.565300 0.000000
-3.550900 0.000000
-3.536400 0.000000
-3.522000 0.000000
-3.507500 0.000000
-3.493100 0.000000
-3.478600 0.000000
-3.464200 0.000000
-3.449700 0.000000
-3.435200 0.000000
-3.420800 0.000000
-3.406300 0.000000
-3.391900 0.000000
-3.377400 0.000000
-3.363000 0.000000
-3.348500 0.000000
-3.334100 0.000000
-3.319600 0.000000
-3.305200 0.000000
-3.290700 0.000000
-3.276300 0.000000
-3.261800 0.000000
-3.247400 0.000000
-3.232900 0.000000
-3.218500 0.000000
-3.204000 0.000000
-3.189600 0.000000
-3.175100 0.000000
-3.160700 0.000000
-3.146200 0.000000
-3.131800 0.000000
-3.117300 0.000000
-3.102900 0.000000
-3.088400 0.000000
-3.074000 0.000000
-3.059500 0.000000
-3.045100 0.000000
-3.030600 0.000000
-3.016200 0.000000
-3.001700 0.000000
-2.987300 0.000000
-2.972800 0.000000
-2.958400 0.000000
-2.943900 0.000000
-2.929500 0.000000
-2.915000 0.000000
-2.900600 0.000000
-2.886100 0.000000
-2.871700 0.000000
-2.857200 0.000000
-2.842800 0.000000
-2.828300 0.000000
-2.813900 0.000000
-2.799400 0.000000
-2.785000 0.000000
-2.770500 0.000000
-2.756100 0.000000
-2.741600 0.000000
-2.727200 0.000000
-2.712700 0.000000
-2.698200 0.000000
-2.683800 0.000000
-2.669300 0.000000
-2.654900 0.000000
-2.640400 0.000000
-2.626000 0.000000
-2.611500 0.000000
-2.597100 0.000000
-2.582600 0.000000
-2.568200 0.000000
-2.553700 0.000000
-2.539300 0.000000
-2.524800 0.000000
-2.510400 0.000000
-2.495900 0.000000
-2.481500 0.000000
-2.467000 0.000000
-2.452600 0.000000
-2.438100 0.000000
-2.423700 0.000000
-2.409200 0.000000
-2.394800 0.000000
-2.380300 0.000000
-2.365900 0.000000
-2.351400 0.000000
-2.337000 0.000000
-2.322500 0.000000
-2.308100 0.000000
-2.293600 0.000000
-2.279200 0.000000
-2.264700 0.000000
-2.250300 0.000000
-2.235800 0.000000
-2.221400 0.000000
-2.206900 0.000000
-2.192500 0.000000
-2.178000 0.000000
-2.163600 0.000000
-2.149100 0.000000
-2.134700 0.000000
-2.120200 0.000000
-2.105800 0.000000
-2.091300 0.000000
-2.076900 0.000000
-2.062400 0.000000
-2.048000 0.000000
-2.033500 0.000000
-2.019100 0.000000
-2.004600 0.000000
-1.990200 0.000000
-1.975700 0.000000
-1.961200 0.000000
-1.946800 0.000000
-1.932300 0.000000
-1.917900 0.000000
-1.903400 0.000000
-1.889000 0.000000
-1.874500 0.000000
-1.860100 0.000000
-1.845600 0.000000
-1.831200 0.000000
-1.816700 0.000000
-1.802300 0.000000
-1.787800 0.000000
-1.773400 0.000000
-1.758900 0.000000
-1.744500 0.000000
-1.730000 0.000000
-1.715600 0.040800
-1.701100 0.299100
-1.686700 0.324600
-1.672200 0.489700
-1.657800 0.598700
-1.643300 0.722200
-1.628900 0.808500
-1.614400 0.859000
-1.600000 1.024200
-1.585500 1.113000
-1.571100 1.195400
-1.556600 1.288700
-1.542200 1.391200
-1.527700 1.489700
-1.513300 1.603300
-1.498800 1.715800
-1.484400 1.823800
-1.469900 1.933100
-1.455500 2.051900
-1.441000 2.187400
-1.426600 2.338800
-1.412100 2.499500
-1.397700 2.660800
-1.383200 2.854200
-1.368800 3.108900
-1.354300 3.412700
-1.339900 3.786900
-1.325400 4.162200
-1.311000 4.436700
-1.296500 4.710000
-1.282100 4.926800
-1.267600 5.239500
-1.253100 5.570900
-1.238700 5.845100
-1.224200 6.192100
-1.209800 6.231900
-1.195300 6.309200
-1.180900 6.598100
-1.166400 6.934100
-1.152000 7.278300
-1.137500 7.670300
-1.123100 7.983200
-1.108600 7.337600
-1.094200 7.557300
-1.079700 6.677600
-1.065300 6.015500
-1.050800 5.605700
-1.036400 5.307300
-1.021900 5.090000
-1.007500 4.940700
-0.993000 4.790900
-0.978600 4.652600
-0.964100 4.548600
-0.949700 4.487600
-0.935200 4.369900
-0.920800 4.240700
-0.906300 4.148700
-0.891900 4.119700
-0.877400 4.930500
-0.863000 5.955700
-0.848500 6.657800
-0.834100 9.646300
-0.819600 10.366200
-0.805200 12.639400
-0.790700 12.413700
-0.776300 12.435000
-0.761800 12.871800
-0.747400 12.991000
-0.732900 13.079600
-0.718500 14.141000
-0.704000 12.732500
-0.689600 13.148700
-0.675100 14.041900
-0.660700 14.582800
-0.646200 15.995700
-0.631800 16.814900
-0.617300 16.935400
-0.602900 15.971400
-0.588400 14.864500
-0.574000 13.998800
-0.559500 13.669800
-0.545100 13.662800
-0.530600 13.224500
-0.516100 12.748800
-0.501700 12.211800
-0.487200 11.540400
-0.472800 11.016200
-0.458300 10.618000
-0.443900 10.319600
-0.429400 10.009900
-0.415000 9.786700
-0.400500 9.824400
-0.386100 9.944000
-0.371600 9.896500
-0.357200 9.791800
-0.342700 9.361200
-0.328300 9.194300
-0.313800 8.965000
-0.299400 8.752700
-0.284900 8.528400
-0.270500 8.372400
-0.256000 8.381900
-0.241600 7.999700
-0.227100 7.801200
-0.212700 7.591700
-0.198200 7.366500
-0.183800 7.344800
-0.169300 7.247000
-0.154900 7.102000
-0.140400 6.873600
-0.126000 6.909400
-0.111500 6.273900
-0.097100 6.038300
-0.082600 5.009500
-0.068200 4.887100
-0.053700 4.803700
-0.039300 4.206000
-0.024800 3.199000
-0.010400 3.087800
0.004100 3.238900
0.018500 7.867800
0.033000 10.607200
0.047400 13.636100
0.061900 15.354100
0.076300 18.026400
0.090800 18.703000
0.105200 22.194300
0.119700 24.464000
0.134100 27.926600
0.148600 27.041800
0.163000 27.532500
0.177500 28.365600
0.191900 29.714200
0.206400 25.535900
0.220900 28.470400
0.235300 32.467600
0.249800 39.829600
0.264200 33.540200
0.278700 25.807000
0.293100 16.954900
0.307600 20.988800
0.322000 23.084700
0.336500 16.957600
0.350900 6.815600
0.365400 3.591600
0.379800 2.256200
0.394300 1.699900
0.408700 2.333500
0.423200 2.782200
0.437600 3.659600
0.452100 5.292500
0.466500 7.228100
0.481000 9.204000
0.495400 9.582900
0.509900 7.304200
0.524300 6.575700
0.538800 6.553300
0.553200 7.033600
0.567700 8.881300
0.582100 17.216500
0.596600 25.119600
0.611000 18.560500
0.625500 13.664700
0.639900 11.671800
0.654400 10.107100
0.668800 9.075600
0.683300 8.376700
0.697700 7.505300
0.712200 6.920400
0.726600 6.445900
0.741100 6.252800
0.755500 6.442300
0.770000 5.809000
0.784400 5.173100
0.798900 4.914400
0.813300 4.232800
0.827800 3.702900
0.842200 3.396600
0.856700 3.048600
0.871100 2.362700
0.885600 2.143800
0.900000 2.476800
0.914500 2.553300
0.928900 2.614200
0.943400 2.554200
0.957900 2.685300
0.972300 3.009900
0.986800 3.842400
1.001200 4.398800
1.015700 4.726900
1.030100 4.050900
1.044600 3.778300
1.059000 3.664900
1.073500 3.728000
1.087900 3.728900
1.102400 3.753300
1.116800 3.965600
1.131300 3.687300
1.145700 3.474200
1.160200 3.391300
1.174600 3.319800
1.189100 3.303000
1.203500 3.311800
1.218000 3.324900
1.232400 3.436400
1.246900 3.747100
1.261300 4.287200
1.275800 4.056000
1.290200 3.964900
1.304700 3.868900
1.319100 3.861400
1.333600 3.775100
1.348000 3.529600
1.362500 3.641500
1.376900 3.494400
1.391400 3.492600
1.405800 3.667400
1.420300 3.619400
1.434700 3.618400
1.449200 3.750900
1.463600 3.581300
1.478100 3.594600
1.492500 3.676600
1.507000 3.750200
1.521400 3.826400
1.535900 3.948600
1.550300 4.083400
1.564800 4.233900
1.579200 4.322800
1.593700 4.472900
1.608100 4.654000
1.622600 4.749500
1.637000 4.808700
1.651500 4.845700
1.666000 4.905500
1.680400 4.852000
1.694900 4.876900
1.709300 4.863300
1.723800 4.816300
1.738200 4.766700
1.752700 4.916600
1.767100 4.593700
1.781600 4.501500
1.796000 4.421900
1.810500 4.344100
1.824900 4.275500
1.839400 4.338100
1.853800 4.343500
1.868300 4.235900
1.882700 4.134900
1.897200 4.118600
1.911600 4.141500
1.926100 4.205400
1.940500 4.228700
1.955000 4.292100
1.969400 4.390400
1.983900 4.390900
1.998300 4.510400
2.012800 4.492100
2.027200 4.732700
2.041700 4.430200
2.056100 4.365200
2.070600 4.304300
2.085000 4.350700
2.099500 4.272200
2.113900 4.286300
2.128400 4.000600
2.142800 3.869800
2.157300 3.898500
2.171700 4.158100
2.186200 4.208000
2.200600 4.126600
2.215100 3.965600
2.229500 3.875100
2.244000 3.826600
2.258400 3.801800
2.272900 3.786800
2.287300 3.761900
2.301800 3.723900
2.316200 3.688800
2.330700 3.655500
2.345100 3.628500
2.359600 3.607300
2.374000 3.597800
2.388500 3.585400
2.403000 3.576400
2.417400 3.575700
2.431900 3.577500
2.446300 3.583700
2.460800 3.575900
2.475200 3.560000
2.489700 3.533100
2.504100 3.519900
2.518600 3.514300
2.533000 3.511100
2.547500 3.510800
2.561900 3.517100
2.576400 3.523900
2.590800 3.519500
2.605300 3.513100
2.619700 3.493700
2.634200 3.474500
2.648600 3.467900
2.663100 3.461300
2.677500 3.450600
2.692000 3.444400
2.706400 3.439200
2.720900 3.445600
2.735300 3.450400
2.749800 3.448500
2.764200 3.442500
2.778700 3.442500
2.793100 3.443900
2.807600 3.446200
2.822000 3.515900
2.836500 3.706200
2.850900 3.587800
2.865400 3.487400
2.879800 3.385300
2.894300 3.245500
2.908700 3.063300
2.923200 3.066900
2.937600 3.022400
2.952100 2.948600
2.966500 3.217600
2.981000 3.229800
2.995400 2.978100
3.009900 2.505900
3.024300 2.163000
3.038800 2.069800
3.053200 1.879500
3.067700 1.475700
3.082100 0.991000
3.096600 0.537500
3.111000 0.158300
3.125500 0.019400
3.140000 0.000000
3.154400 0.000000
3.168900 0.000000
3.183300 0.000000
3.197800 0.000000
3.212200 0.000000
3.226700 0.000000
3.241100 0.000000
3.255600 0.000000
3.270000 0.000000
3.284500 0.000000
3.298900 0.000000
3.313400 0.000000
3.327800 0.000000
3.342300 0.000000
3.356700 0.000000
3.371200 0.000000
3.385600 0.000000
3.400100 0.000000
3.414500 0.000000
3.429000 0.000000
3.443400 0.000000
3.457900 0.000000
3.472300 0.000000
3.486800 0.000000
3.501200 0.000000
3.515700 0.000000
3.530100 0.000000
3.544600 0.000000
3.559000 0.000000
3.573500 0.000000
3.587900 0.000000
3.602400 0.000000
3.616800 0.000000
3.631300 0.000000
3.645700 0.000000
3.660200 0.000000
3.674600 0.000000
3.689100 0.000000
3.703500 0.000000
3.718000 0.000000
3.732400 0.000000
3.746900 0.000000
3.761300 0.000000
3.775800 0.000000
3.790200 0.000000
3.804700 0.000000
3.819100 0.000000
3.833600 0.000000
3.848100 0.000000
3.862500 0.000000
3.877000 0.000000
3.891400 0.000000
3.905900 0.000000
3.920300 0.000000
3.934800 0.000000
3.949200 0.000000
3.963700 0.000000
3.978100 0.000000
3.992600 0.000000
4.007000 0.000000
4.021500 0.000000
4.035900 0.000000
4.050400 0.000000
4.064800 0.029000
4.079300 0.032500
4.093700 0.036300
4.108200 0.169800
4.122600 0.073800
4.137100 0.104100
4.151500 0.113900
4.166000 0.124000
4.180400 0.134500
4.194900 0.145300
4.209300 0.156400
4.223800 0.167800
4.238200 0.173000
4.252700 0.184400
4.267100 0.196100
4.281600 0.205700
4.296000 0.208600
4.310500 0.218200
4.324900 0.227900
4.339400 0.312300
4.353800 0.285600
4.368300 0.274700
4.382700 0.282700
4.397200 0.286700
4.411600 0.292900
4.426100 0.300300
4.440500 0.306700
4.455000 0.314400
4.469400 0.322000
4.483900 0.329500
4.498300 0.337000
4.512800 0.344400
4.527200 0.351600
4.541700 0.359100
4.556100 0.366900
4.570600 0.375000
4.585100 0.383500
4.599500 0.392400
4.614000 0.401500
4.628400 0.410800
4.642900 0.418700
4.657300 0.427800
4.671800 0.437200
4.686200 0.445500
4.700700 0.454900
4.715100 0.464400
4.729600 0.471600
4.744000 0.480400
4.758500 0.488800
4.772900 0.497100
4.787400 0.506200
4.801800 0.515100
4.816300 0.524100
4.830700 0.533100
4.845200 0.541800
4.859600 0.550700
4.874100 0.558600
4.888500 0.566900
4.903000 0.574700
4.917400 0.583200
4.931900 0.591800
4.946300 0.600700
4.960800 0.609300
4.975200 0.618100
4.989700 0.626400
5.004100 0.635000
5.018600 0.643700
5.033000 0.652500
5.047500 0.661700
5.061900 0.671200
5.076400 0.681100
5.090800 0.691400
5.105300 0.701600
5.119700 0.712000
5.134200 0.722100
5.148600 0.732400
5.163100 0.742900
5.177500 0.753500
5.192000 0.764300
5.206400 0.775500
5.220900 0.786300
5.235300 0.796900
5.249800 0.807900
5.264200 0.819000
5.278700 0.830300
5.293100 0.841500
5.307600 0.852400
5.322100 0.863500
5.336500 0.873900
5.351000 0.884900
5.365400 0.896400
5.379900 0.908000
5.394300 0.919800
5.408800 0.931800
5.423200 0.944100
5.437700 0.956600
5.452100 0.969300
5.466600 0.982000
5.481000 0.994400
5.495500 1.007400
5.509900 1.020400
5.524400 1.033900
5.538800 1.048100
5.553300 1.062400
5.567700 1.076500
5.582200 1.090500
5.596600 1.104200
5.611100 1.118800
5.625500 1.136400
5.640000 1.154200
5.654400 1.172700
5.668900 1.191300
5.683300 1.210100
5.697800 1.229200
5.712200 1.248600
5.726700 1.268500
5.741100 1.288800
5.755600 1.309500
5.770000 1.330400
5.784500 1.351800
5.798900 1.373700
5.813400 1.395900
5.827800 1.418700
5.842300 1.488500
5.856700 1.485500
5.871200 1.510900
5.885600 1.536600
5.900100 1.562600
5.914500 1.588800
5.929000 1.615700
5.943400 1.642900
5.957900 1.670900
5.972300 1.703600
5.986800 1.739700
6.001200 1.778100
6.015700 1.824500
6.030200 1.850100
6.044600 1.871800
6.059100 1.902000
6.073500 1.941600
6.088000 1.998900
6.102400 2.045100
6.116900 2.066600
6.131300 2.109000
6.145800 2.151900
6.160200 2.285900
6.174700 2.325500
6.189100 2.388000
6.203600 2.436200
6.218000 2.458800
6.232500 2.496500
6.246900 2.467200
6.261400 2.456600
6.275800 2.441900
6.290300 2.429500
6.304700 2.418500
6.319200 2.412000
6.333600 2.400600
6.348100 2.388200
6.362500 2.371900
6.377000 2.351500
6.391400 2.344000
6.405900 2.352800
6.420300 2.365500
6.434800 2.393500
6.449200 2.443600
6.463700 2.443200
6.478100 2.435100
6.492600 2.424600
6.507000 2.416500
6.521500 2.415900
6.535900 2.416500
6.550400 2.412300
6.564800 2.408700
6.579300 2.410700
6.593700 2.410900
6.608200 2.425800
6.622600 2.441900
6.637100 2.430800
6.651500 2.603000
6.666000 2.594500
6.680400 2.623300
6.694900 2.601300
6.709300 2.580100
6.723800 2.564600
6.738200 2.568700
6.752700 2.514400
6.767200 2.409500
6.781600 2.330100
6.796100 2.253600
6.810500 2.205400
6.825000 2.167400
6.839400 2.136100
6.853900 2.142400
6.868300 2.274500
6.882800 2.093300
6.897200 2.093500
6.911700 1.997600
6.926100 1.950300
6.940600 2.079400
6.955000 1.930400
6.969500 1.846800
6.983900 1.747200
6.998400 1.677700
7.012800 1.615200
7.027300 1.522200
7.041700 1.511100
7.056200 1.446000
7.070600 1.337500
7.085100 1.260700
7.099500 1.164000
7.114000 1.020100
7.128400 0.911000
7.142900 0.843400
7.157300 0.786400
7.171800 0.730600
7.186200 0.678900
7.200700 0.624900
7.215100 0.568700
7.229600 0.516400
7.244000 0.475000
7.258500 0.442700
7.272900 0.418400
7.287400 0.396900
7.301800 0.388500
7.316300 0.385200
7.330700 0.379500
7.345200 0.411600
7.359600 0.384500
7.374100 0.350000
7.388500 0.521400
7.403000 0.270700
7.417400 0.260200
7.431900 0.253100
7.446300 0.264000
7.460800 0.294000
7.475200 0.337000
7.489700 0.397600
7.504200 0.498700
7.518600 0.548200
7.533100 0.584900
7.547500 0.627500
7.562000 0.680000
7.576400 0.749200
7.590900 0.821200
7.605300 0.883900
7.619800 0.946100
7.634200 0.983500
7.648700 1.041700
7.663100 1.072900
7.677600 1.105100
7.692000 1.141700
7.706500 1.181500
7.720900 1.261500
7.735400 1.233200
7.749800 1.240400
7.764300 1.265600
7.778700 1.296600
7.793200 1.316600
7.807600 1.334300
7.822100 1.352000
7.836500 1.379900
7.851000 1.444500
7.865400 1.501100
7.879900 1.543000
7.894300 1.568300
7.908800 1.636800
7.923200 1.649600
7.937700 1.683500
7.952100 1.739500
7.966600 1.760000
7.981000 1.814100
7.995500 1.843800
8.009900 1.874400
8.024400 1.905200
8.038800 1.941900
8.053300 1.965400
8.067700 1.995900
8.082200 2.011200
8.096600 1.999200
8.111100 2.001400
8.125500 2.020200
8.140000 2.045600
8.154400 2.070700
8.168900 2.096400
8.183300 2.122200
8.197800 2.123800
8.212300 2.136600
8.226700 2.162000
8.241200 2.179300
8.255600 2.190000
8.270100 2.197600
8.284500 2.209700
8.299000 2.231500
8.313400 2.249500
8.327900 2.264700
8.342300 2.264000
8.356800 2.267600
8.371200 2.277400
8.385700 2.288100
8.400100 2.298200
8.414600 2.311900
8.429000 2.329400
8.443500 2.352600
8.457900 2.422300
8.472400 2.496800
8.486800 2.666400
8.501300 2.930600
8.515700 2.912600
8.530200 2.957200
8.544600 3.023600
8.559100 3.054700
8.573500 3.022400
8.588000 2.924800
8.602400 2.885100
8.616900 2.861200
8.631300 2.833600
8.645800 2.861600
8.660200 2.855000
8.674700 2.861800
8.689100 2.969000
8.703600 3.012600
8.718000 3.087600
8.732500 3.146800
8.746900 3.180500
8.761400 3.239200
8.775800 3.276400
8.790300 3.298900
8.804700 3.337100
8.819200 3.364900
8.833600 3.484900
8.848100 3.569700
8.862500 3.758800
8.877000 3.636200
8.891400 3.658800
8.905900 3.728900
8.920300 3.712000
8.934800 3.444200
8.949300 3.344300
8.963700 3.245000
8.978200 3.114000
8.992600 2.994100
9.007100 2.972600
9.021500 2.914000
9.036000 2.892300
9.050400 2.835000
9.064900 2.896800
9.079300 2.842200
9.093800 2.857700
9.108200 2.976500
9.122700 3.017400
9.137100 3.017900
9.151600 3.014700
9.166000 3.064200
9.180500 3.068400
9.194900 3.059800
9.209400 3.063100
9.223800 3.049800
9.238300 3.105200
9.252700 2.921100
9.267200 2.994600
9.281600 3.056000
9.296100 3.031800
9.310500 3.109200
9.325000 3.344900
9.339400 3.471600
9.353900 3.636100
9.368300 3.834500
9.382800 3.942900
9.397200 4.007100
9.411700 4.084600
9.426100 4.119400
9.440600 4.099400
9.455000 4.076000
9.469500 4.049800
9.483900 4.001500
9.498400 3.945000
9.512800 3.948600
9.527300 4.004000
9.541700 3.945300
9.556200 3.980700
9.570600 4.005700
9.585100 4.053800
9.599500 4.012100
9.614000 3.980300
9.628400 3.900600
9.642900 3.807800
9.657300 3.702700
9.671800 3.626900
9.686300 3.586800
9.700700 3.565700
9.715200 3.551000
9.729600 3.496600
9.744100 3.361900
9.758500 3.321200
9.773000 3.273000
9.787400 3.263200
9.801900 3.286000
9.816300 3.323000
9.830800 3.361400
9.845200 3.410400
9.859700 3.478600
9.874100 3.571800
9.888600 3.770100
9.903000 3.955000
9.917500 3.996700
9.931900 3.997600
9.946400 4.019400
9.960800 4.018200
9.975300 4.054600
9.989700 4.062200
10.004200 4.131900
10.018600 4.146000
10.033100 4.180300
10.047500 4.044500
10.062000 4.121700
10.076400 4.171600
10.090900 4.216300
10.105300 4.178000
10.119800 4.159000
10.134200 4.160000
10.148700 4.105100
10.163100 4.136600
10.177600 3.979100
10.192000 3.927000
10.206500 3.900500
10.220900 3.854600
10.235400 3.843200
10.249800 3.819500
10.264300 3.864200
10.278700 3.862000
10.293200 3.850500
10.307600 3.792100
10.322100 3.771300
10.336500 3.763800
10.351000 3.752100
10.365400 3.759000
10.379900 3.724300
10.394400 3.806100
10.408800 3.644500
10.423300 3.614800
10.437700 3.610100
10.452200 3.651600
10.466600 3.694200
10.481100 3.738300
10.495500 3.797300
10.510000 3.858200
10.524400 3.902500
10.538900 3.919400
10.553300 4.013000
10.567800 3.973800
10.582200 3.919200
10.596700 3.979800
10.611100 3.755800
10.625600 3.725700
10.640000 3.644200
10.654500 3.582600
10.668900 3.598700
10.683400 3.633900
10.697800 3.606000
10.712300 3.562200
10.726700 3.542700
10.741200 3.573800
10.755600 3.623100
10.770100 3.613300
10.784500 3.547400
10.799000 3.482300
10.813400 3.446200
10.827900 3.402900
10.842300 3.338200
10.856800 3.286700
10.871200 3.267100
10.885700 3.149200
10.900100 3.072500
10.914600 3.000300
10.929000 2.901800
10.943500 2.856600
10.957900 2.790400
10.972400 2.735900
10.986800 2.687500
11.001300 2.563000
11.015700 2.530200
11.030200 2.448200
11.044600 2.388900
11.059100 2.308000
11.073500 2.266800
11.088000 2.216900
11.102400 2.197700
11.116900 2.167200
11.131400 2.218800
11.145800 2.175400
11.160300 2.140100
11.174700 2.111900
11.189200 2.144900
11.203600 2.032600
11.218100 2.016800
11.232500 1.985200
11.247000 1.954300
11.261400 1.921800
11.275900 1.880900
11.290300 1.833500
11.304800 1.833900
11.319200 1.827600
11.333700 1.820500
11.348100 1.756700
11.362600 1.651800
11.377000 1.596300
11.391500 1.529400
11.405900 1.460800
11.420400 1.424800
11.434800 1.437600
11.449300 1.474100
11.463700 1.481200
11.478200 1.472100
11.492600 1.498100
11.507100 1.546600
11.521500 1.602800
11.536000 1.659600
11.550400 1.722000
11.564900 1.814800
11.579300 1.937200
11.593800 1.984300
11.608200 1.896000
11.622700 1.909300
11.637100 1.932800
11.651600 1.960800
11.666000 1.985500
11.680500 2.018300
11.694900 2.062900
11.709400 2.142500
11.723800 2.214000
11.738300 2.242100
11.752700 2.280700
11.767200 2.329300
11.781600 2.296700
11.796100 2.302600
11.810500 2.312300
11.825000 2.317700
11.839400 2.325800
11.853900 2.333600
11.868400 2.353200
11.882800 2.359200
11.897300 2.310800
11.911700 2.293700
11.926200 2.266500
11.940600 2.253600
11.955100 2.228600
11.969500 2.209900
11.984000 2.197800
11.998400 2.190700
12.012900 2.187500
12.027300 2.195800
12.041800 2.156200
12.056200 2.149200
12.070700 2.166600
12.085100 2.194400
12.099600 2.132300
12.114000 2.157200
12.128500 2.151700
12.142900 2.140300
12.157400 2.151300
12.171800 2.147200
12.186300 2.141700
12.200700 2.166300
12.215200 2.219900
12.229600 2.347400
12.244100 2.428100
12.258500 2.444300
12.273000 2.432800
12.287400 2.393800
12.301900 2.377400
12.316300 2.397100
12.330800 2.398100
12.345200 2.427800
12.359700 2.443100
12.374100 2.487600
12.388600 2.481300
12.403000 2.455100
12.417500 2.457900
12.431900 2.499300
12.446400 2.651200
12.460800 2.672800
12.475300 2.720400
12.489700 2.801000
12.504200 2.896100
12.518600 2.933000
12.533100 2.962200
12.547500 2.924100
12.562000 2.923800
12.576400 2.944800
12.590900 3.035400
12.605400 3.125500
12.619800 3.127100
12.634300 3.145400
12.648700 3.193200
12.663200 3.225800
12.677600 3.324900
12.692100 3.316800
12.706500 3.264000
12.721000 3.291500
12.735400 3.310200
12.749900 3.342200
12.764300 3.487200
12.778800 3.398500
12.793200 3.497200
12.807700 3.621400
12.822100 3.696400
12.836600 3.645400
12.851000 3.742300
12.865500 3.747200
12.879900 3.777800
12.894400 3.775900
12.908800 3.805600
12.923300 3.676600
12.937700 3.624200
12.952200 3.611200
12.966600 3.610100
12.981100 3.602900
12.995500 3.636100
13.010000 3.689800
13.024400 3.715300
13.038900 3.749100
13.053300 3.917100
13.067800 3.873300
13.082200 3.839300
13.096700 3.821400
13.111100 3.833200
13.125600 3.858100
13.140000 3.864300
13.154500 3.823000
13.168900 3.702300
13.183400 3.572600
13.197800 3.442900
13.212300 3.339300
13.226700 3.253600
13.241200 3.012000
13.255600 2.913600
13.270100 2.848700
13.284500 2.803000
13.299000 2.645900
13.313500 2.481000
13.327900 2.368900
13.342400 2.351000
13.356800 2.233800
13.371300 2.195500
13.385700 2.166700
13.400200 2.144000
13.414600 2.127100
13.429100 2.114000
13.443500 2.113900
13.458000 2.118800
13.472400 2.131100
13.486900 2.176600
13.501300 2.165900
13.515800 2.166400
13.530200 2.194800
13.544700 2.238000
13.559100 2.343700
13.573600 2.328000
13.588000 2.322700
13.602500 2.321300
13.616900 2.300600
13.631400 2.265100
13.645800 2.240000
13.660300 2.213200
13.674700 2.199200
13.689200 2.189700
13.703600 2.181700
13.718100 2.173800
13.732500 2.149400
13.747000 2.109000
13.761400 2.089500
13.775900 2.087900
13.790300 2.090300
13.804800 2.034900
13.819200 2.043600
13.833700 2.068400
13.848100 2.104800
13.862600 2.142900
13.877000 2.200400
13.891500 2.287200
13.905900 2.358000
13.920400 2.366900
13.934800 2.379100
13.949300 2.388100
13.963700 2.393800
13.978200 2.406000
13.992600 2.450200
14.007100 2.489800
14.021500 2.457700
14.036000 2.463200
14.050500 2.469300
14.064900 2.468800
14.079400 2.463700
14.093800 2.445600
14.108300 2.425500
14.122700 2.429000
14.137200 2.430500
14.151600 2.423700
14.166100 2.466400
14.180500 2.464600
14.195000 2.401100
14.209400 2.378100
14.223900 2.376600
14.238300 2.427200
14.252800 2.413600
14.267200 2.387200
14.281700 2.371700
14.296100 2.368800
14.310600 2.369100
14.325000 2.385100
14.339500 2.475000
14.353900 2.544800
14.368400 2.584300
14.382800 2.627800
14.397300 2.721400
14.411700 2.736800
14.426200 2.821000
14.440600 2.934900
14.455100 3.066300
14.469500 3.180700
14.484000 3.215800
14.498400 3.286800
14.512900 3.340000
14.527300 3.387100
14.541800 3.496400
14.556200 3.522000
14.570700 3.552400
14.585100 3.511200
14.599600 3.458900
14.614000 3.417500
14.628500 3.382000
14.642900 3.353900
14.657400 3.339000
14.671800 3.353900
14.686300 3.374000
14.700700 3.421800
14.715200 3.331100
14.729600 3.333100
14.744100 3.354500
14.758500 3.377200
14.773000 3.399100
14.787500 3.359600
14.801900 3.301400
14.816400 3.431100
14.830800 3.406900
14.845300 3.441000
14.859700 3.485500
14.874200 3.536000
14.888600 3.531900
14.903100 3.496800
14.917500 3.410400
14.932000 3.306400
14.946400 3.299100
14.960900 3.296600
14.975300 3.183700
14.989800 3.155900
15.004200 3.155600
15.018700 3.161100
15.033100 3.127300
15.047600 3.102300
15.062000 3.076200
15.076500 3.059000
15.090900 3.079800
15.105400 3.054600
15.119800 3.025000
15.134300 3.017600
15.148700 3.024600
15.163200 3.047800
15.177600 3.070400
15.192100 3.073800
15.206500 3.064200
15.221000 3.055300
15.235400 3.048800
15.249900 3.049100
15.264300 3.120400
15.278800 3.060200
15.293200 3.052100
15.307700 2.977600
15.322100 2.943400
15.336600 2.932300
15.351000 2.898500
15.365500 2.866000
15.379900 2.822900
15.394400 2.797700
15.408800 2.782600
15.423300 2.774600
15.437700 2.780600
15.452200 2.797800
15.466600 2.799100
15.481100 2.732400
15.495600 2.647300
15.510000 2.616600
15.524500 2.573600
15.538900 2.514200
15.553400 2.443700
15.567800 2.371100
15.582300 2.324000
15.596700 2.257500
15.611200 2.185500
15.625600 2.135800
15.640100 2.089500
15.654500 2.049500
15.669000 2.022500
15.683400 2.032500
15.697900 2.041900
15.712300 1.957400
15.726800 1.944300
15.741200 1.878900
15.755700 1.829900
15.770100 1.796200
15.784600 1.775000
15.799000 1.774000
15.813500 1.750200
15.827900 1.729100
15.842400 1.734200
15.856800 1.712700
15.871300 1.706600
15.885700 1.795800
15.900200 1.748500
15.914600 1.749800
15.929100 1.750300
15.943500 1.678900
15.958000 1.670600
15.972400 1.848900
15.986900 2.075200
16.001300 2.000400
16.015800 1.581400
16.030200 1.359900
16.044700 1.304700
16.059100 1.248100
16.073600 1.210600
16.088000 1.250100
16.102500 1.364500
16.116900 1.330000
16.131400 1.415000
16.145800 1.240700
16.160300 1.207900
16.174700 1.191900
16.189200 1.063800
16.203600 1.016300
16.218100 0.997000
16.232600 0.983400
16.247000 0.931200
16.261500 0.867500
16.275900 0.851900
16.290400 0.866100
16.304800 0.900200
16.319300 0.954600
16.333700 1.008800
16.348200 1.013700
16.362600 0.984100
16.377100 0.915600
16.391500 0.816800
16.406000 0.720200
16.420400 0.501500
16.434900 0.373800
16.449300 0.264400
16.463800 0.178900
16.478200 0.121600
16.492700 0.058500
16.507100 0.042000
16.521600 0.032500
16.536000 0.024500
16.550500 0.018000
16.564900 0.012600
16.579400 0.008100
16.593800 0.004600
16.608300 0.002100
16.622700 0.000600
16.637200 0.000000
16.651600 0.000000
16.666100 0.000000
16.680500 0.000000
16.695000 0.000000
16.709400 0.000000
16.723900 0.000000
16.738300 0.000000
16.752800 0.000000
16.767200 0.000000
16.781700 0.000000
16.796100 0.000000
16.810600 0.000000
16.825000 0.000000
16.839500 0.000000
16.853900 0.000000
16.868400 0.000000
16.882800 0.000000
16.897300 0.000000
16.911700 0.000000
16.926200 0.000000
16.940600 0.000000
16.955100 0.000000
16.969600 0.000000
16.984000 0.000000
16.998500 0.000000
17.012900 0.000000
17.027400 0.000000
17.041800 0.000000
17.056300 0.000000
17.070700 0.000000
17.085200 0.000000
17.099600 0.000000
17.114100 0.000000
17.128500 0.000000
17.143000 0.000000
17.157400 0.000000
17.171900 0.000000
17.186300 0.000000
17.200800 0.000000
17.215200 0.000000
17.229700 0.000000
17.244100 0.000000
17.258600 0.000000
17.273000 0.000000
17.287500 0.000000
17.301900 0.000000
17.316400 0.000000
17.330800 0.000000
17.345300 0.000000
17.359700 0.000000
17.374200 0.000000
17.388600 0.000000
17.403100 0.000000
17.417500 0.000000
17.432000 0.000000
17.446400 0.000000
17.460900 0.000000
17.475300 0.000000
17.489800 0.000000
17.504200 0.000000
17.518700 0.000000
17.533100 0.000000
17.547600 0.000000
17.562000 0.000000
17.576500 0.000000
17.590900 0.000000
17.605400 0.000000
17.619800 0.000000
17.634300 0.000000
17.648700 0.000000
17.663200 0.000000
17.677700 0.000000
17.692100 0.000000
17.706600 0.000000
17.721000 0.000000
17.735500 0.000000
17.749900 0.000000
17.764400 0.000000
17.778800 0.000000
17.793300 0.000000
17.807700 0.000000
17.822200 0.000000
17.836600 0.000000
17.851100 0.000000
17.865500 0.000000
17.880000 0.000000
17.894400 0.000000
17.908900 0.000000
17.923300 0.000000
17.937800 0.000000
17.952200 0.000000
e
