set title 'mp-117 - Density of States'
set xlabel 'Energy (eV)'
set ylabel 'DOS (states/eV)'
set grid
set xrange [-10:10]
set yrange [0:3.568]
set xzeroaxis lt -1
set terminal png size 800,600
set output 'mp-117_dos_gnuplot.png'
plot '-' using 1:2 with lines title 'DOS'
-18.484500 0.000000
-18.465300 0.000000
-18.446200 0.000000
-18.427000 0.000000
-18.407900 0.000000
-18.388700 0.000000
-18.369600 0.000000
-18.350400 0.000000
-18.331300 0.000000
-18.312100 0.000000
-18.293000 0.000000
-18.273800 0.000000
-18.254700 0.000000
-18.235500 0.000000
-18.216300 0.000000
-18.197200 0.000000
-18.178000 0.000000
-18.158900 0.000000
-18.139700 0.000000
-18.120600 0.000000
-18.101400 0.000000
-18.082300 0.000000
-18.063100 0.000000
-18.044000 0.000000
-18.024800 0.000000
-18.005700 0.000000
-17.986500 0.000000
-17.967400 0.000000
-17.948200 0.000000
-17.929100 0.000000
-17.909900 0.000000
-17.890800 0.000000
-17.871600 0.000000
-17.852500 0.000000
-17.833300 0.000000
-17.814200 0.000000
-17.795000 0.000000
-17.775900 0.000000
-17.756700 0.000000
-17.737600 0.000000
-17.718400 0.000000
-17.699300 0.000000
-17.680100 0.000000
-17.661000 0.000000
-17.641800 0.000000
-17.622700 0.000000
-17.603500 0.000000
-17.584400 0.000000
-17.565200 0.000000
-17.546100 0.000000
-17.526900 0.000000
-17.507800 0.000000
-17.488600 0.000000
-17.469500 0.000000
-17.450300 0.000000
-17.431200 0.000000
-17.412000 0.000000
-17.392900 0.000000
-17.373700 0.000000
-17.354600 0.000000
-17.335400 0.000000
-17.316300 0.000000
-17.297100 0.000000
-17.278000 0.000000
-17.258800 0.000000
-17.239700 0.000000
-17.220500 0.000000
-17.201400 0.000000
-17.182200 0.000000
-17.163000 0.000000
-17.143900 0.000000
-17.124700 0.000000
-17.105600 0.000000
-17.086400 0.000000
-17.067300 0.000000
-17.048100 0.000000
-17.029000 0.000000
-17.009800 0.000000
-16.990700 0.000000
-16.971500 0.000000
-16.952400 0.000000
-16.933200 0.000000
-16.914100 0.000000
-16.894900 0.000000
-16.875800 0.000000
-16.856600 0.000000
-16.837500 0.000000
-16.818300 0.000000
-16.799200 0.000000
-16.780000 0.000000
-16.760900 0.000000
-16.741700 66.037200
-16.722600 139.084200
-16.703400 33.135900
-16.684300 6.843900
-16.665100 20.084700
-16.646000 25.371000
-16.626800 29.615500
-16.607700 36.538100
-16.588500 38.524400
-16.569400 50.773300
-16.550200 48.550700
-16.531100 45.820800
-16.511900 16.355100
-16.492800 34.184500
-16.473600 39.964300
-16.454500 43.898400
-16.435300 79.910700
-16.416200 52.683500
-16.397000 27.315000
-16.377900 18.828000
-16.358700 10.040100
-16.339600 38.765700
-16.320400 117.544600
-16.301300 89.034800
-16.282100 0.000000
-16.263000 0.000000
-16.243800 0.000000
-16.224700 0.000000
-16.205500 0.000000
-16.186400 0.000000
-16.167200 0.000000
-16.148100 0.000000
-16.128900 0.000000
-16.109700 0.000000
-16.090600 0.000000
-16.071400 0.000000
-16.052300 0.000000
-16.033100 0.000000
-16.014000 0.000000
-15.994800 0.000000
-15.975700 0.000000
-15.956500 0.000000
-15.937400 0.000000
-15.918200 0.000000
-15.899100 0.000000
-15.879900 0.000000
-15.860800 0.000000
-15.841600 0.000000
-15.822500 0.000000
-15.803300 0.000000
-15.784200 0.000000
-15.765000 0.000000
-15.745900 0.000000
-15.726700 0.000000
-15.707600 0.000000
-15.688400 0.000000
-15.669300 0.000000
-15.650100 0.000000
-15.631000 0.000000
-15.611800 0.000000
-15.592700 0.000000
-15.573500 0.000000
-15.554400 0.000000
-15.535200 0.000000
-15.516100 0.000000
-15.496900 0.000000
-15.477800 0.000000
-15.458600 0.000000
-15.439500 0.000000
-15.420300 0.000000
-15.401200 0.000000
-15.382000 0.000000
-15.362900 0.000000
-15.343700 0.000000
-15.324600 0.000000
-15.305400 0.000000
-15.286300 0.000000
-15.267100 0.000000
-15.248000 0.000000
-15.228800 0.000000
-15.209700 0.000000
-15.190500 0.000000
-15.171400 0.000000
-15.152200 0.000000
-15.133100 0.000000
-15.113900 0.000000
-15.094800 0.000000
-15.075600 0.000000
-15.056400 0.000000
-15.037300 0.000000
-15.018100 0.000000
-14.999000 0.000000
-14.979800 0.000000
-14.960700 0.000000
-14.941500 0.000000
-14.922400 0.000000
-14.903200 0.000000
-14.884100 0.000000
-14.864900 0.000000
-14.845800 0.000000
-14.826600 0.000000
-14.807500 0.000000
-14.788300 0.000000
-14.769200 0.000000
-14.750000 0.000000
-14.730900 0.000000
-14.711700 0.000000
-14.692600 0.000000
-14.673400 0.000000
-14.654300 0.000000
-14.635100 0.000000
-14.616000 0.000000
-14.596800 0.000000
-14.577700 0.000000
-14.558500 0.000000
-14.539400 0.000000
-14.520200 0.000000
-14.501100 0.000000
-14.481900 0.000000
-14.462800 0.000000
-14.443600 0.000000
-14.424500 0.000000
-14.405300 0.000000
-14.386200 0.000000
-14.367000 0.000000
-14.347900 0.000000
-14.328700 0.000000
-14.309600 0.000000
-14.290400 0.000000
-14.271300 0.000000
-14.252100 0.000000
-14.233000 0.000000
-14.213800 0.000000
-14.194700 0.000000
-14.175500 0.000000
-14.156400 0.000000
-14.137200 0.000000
-14.118100 0.000000
-14.098900 0.000000
-14.079800 0.000000
-14.060600 0.000000
-14.041500 0.000000
-14.022300 0.000000
-14.003100 0.000000
-13.984000 0.000000
-13.964800 0.000000
-13.945700 0.000000
-13.926500 0.000000
-13.907400 0.000000
-13.888200 0.000000
-13.869100 0.000000
-13.849900 0.000000
-13.830800 0.000000
-13.811600 0.000000
-13.792500 0.000000
-13.773300 0.000000
-13.754200 0.000000
-13.735000 0.000000
-13.715900 0.000000
-13.696700 0.000000
-13.677600 0.000000
-13.658400 0.000000
-13.639300 0.000000
-13.620100 0.000000
-13.601000 0.000000
-13.581800 0.000000
-13.562700 0.000000
-13.543500 0.000000
-13.524400 0.000000
-13.505200 0.000000
-13.486100 0.000000
-13.466900 0.000000
-13.447800 0.000000
-13.428600 0.000000
-13.409500 0.000000
-13.390300 0.000000
-13.371200 0.000000
-13.352000 0.000000
-13.332900 0.000000
-13.313700 0.000000
-13.294600 0.000000
-13.275400 0.000000
-13.256300 0.000000
-13.237100 0.000000
-13.218000 0.000000
-13.198800 0.000000
-13.179700 0.000000
-13.160500 0.000000
-13.141400 0.000000
-13.122200 0.000000
-13.103100 0.000000
-13.083900 0.000000
-13.064800 0.000000
-13.045600 0.000000
-13.026500 0.000000
-13.007300 0.000000
-12.988200 0.000000
-12.969000 0.000000
-12.949800 0.000000
-12.930700 0.000000
-12.911500 0.000000
-12.892400 0.000000
-12.873200 0.000000
-12.854100 0.000000
-12.834900 0.000000
-12.815800 0.000000
-12.796600 0.000000
-12.777500 0.000000
-12.758300 0.000000
-12.739200 0.000000
-12.720000 0.000000
-12.700900 0.000000
-12.681700 0.000000
-12.662600 0.000000
-12.643400 0.000000
-12.624300 0.000000
-12.605100 0.000000
-12.586000 0.000000
-12.566800 0.000000
-12.547700 0.000000
-12.528500 0.000000
-12.509400 0.000000
-12.490200 0.000000
-12.471100 0.000000
-12.451900 0.000000
-12.432800 0.000000
-12.413600 0.000000
-12.394500 0.000000
-12.375300 0.000000
-12.356200 0.000000
-12.337000 0.000000
-12.317900 0.000000
-12.298700 0.000000
-12.279600 0.000000
-12.260400 0.000000
-12.241300 0.000000
-12.222100 0.000000
-12.203000 0.000000
-12.183800 0.000000
-12.164700 0.000000
-12.145500 0.000000
-12.126400 0.000000
-12.107200 0.000000
-12.088100 0.000000
-12.068900 0.000000
-12.049800 0.000000
-12.030600 0.000000
-12.011500 0.000000
-11.992300 0.000000
-11.973200 0.000000
-11.954000 0.000000
-11.934900 0.000000
-11.915700 0.000000
-11.896500 0.000000
-11.877400 0.000000
-11.858200 0.000000
-11.839100 0.000000
-11.819900 0.000000
-11.800800 0.000000
-11.781600 0.000000
-11.762500 0.000000
-11.743300 0.000000
-11.724200 0.000000
-11.705000 0.000000
-11.685900 0.000000
-11.666700 0.000000
-11.647600 0.000000
-11.628400 0.000000
-11.609300 0.000000
-11.590100 0.000000
-11.571000 0.000000
-11.551800 0.000000
-11.532700 0.000000
-11.513500 0.000000
-11.494400 0.000000
-11.475200 0.000000
-11.456100 0.000000
-11.436900 0.000000
-11.417800 0.000000
-11.398600 0.000000
-11.379500 0.000000
-11.360300 0.000000
-11.341200 0.000000
-11.322000 0.000000
-11.302900 0.000000
-11.283700 0.000000
-11.264600 0.000000
-11.245400 0.000000
-11.226300 0.000000
-11.207100 0.000000
-11.188000 0.000000
-11.168800 0.000000
-11.149700 0.000000
-11.130500 0.000000
-11.111400 0.000000
-11.092200 0.000000
-11.073100 0.000000
-11.053900 0.000000
-11.034800 0.000000
-11.015600 0.000000
-10.996500 0.000000
-10.977300 0.000000
-10.958200 0.000000
-10.939000 0.000000
-10.919900 0.000000
-10.900700 0.000000
-10.881600 0.000000
-10.862400 0.000000
-10.843300 0.000000
-10.824100 0.000000
-10.804900 0.000000
-10.785800 0.000000
-10.766600 0.000000
-10.747500 0.000000
-10.728300 0.000000
-10.709200 0.000000
-10.690000 0.000000
-10.670900 0.000000
-10.651700 0.000000
-10.632600 0.000000
-10.613400 0.000000
-10.594300 0.000000
-10.575100 0.000000
-10.556000 0.000000
-10.536800 0.000000
-10.517700 0.000000
-10.498500 0.000000
-10.479400 0.000000
-10.460200 0.000000
-10.441100 0.000000
-10.421900 0.000000
-10.402800 0.000000
-10.383600 0.000000
-10.364500 0.000000
-10.345300 0.000000
-10.326200 0.000000
-10.307000 0.000000
-10.287900 0.000000
-10.268700 0.000000
-10.249600 0.000000
-10.230400 0.000000
-10.211300 0.000000
-10.192100 0.000000
-10.173000 0.000000
-10.153800 0.000000
-10.134700 0.000000
-10.115500 0.000000
-10.096400 0.000000
-10.077200 0.000000
-10.058100 0.000000
-10.038900 0.000000
-10.019800 0.000000
-10.000600 0.000000
-9.981500 0.000000
-9.962300 0.000000
-9.943200 0.000000
-9.924000 0.000000
-9.904900 0.000000
-9.885700 0.000000
-9.866600 0.000000
-9.847400 0.000000
-9.828300 0.000000
-9.809100 0.000000
-9.790000 0.000000
-9.770800 0.000000
-9.751600 0.000000
-9.732500 0.000000
-9.713300 0.000000
-9.694200 0.000000
-9.675000 0.000000
-9.655900 0.000000
-9.636700 0.000000
-9.617600 0.000000
-9.598400 0.000000
-9.579300 0.000000
-9.560100 0.000000
-9.541000 0.000000
-9.521800 0.000000
-9.502700 0.000000
-9.483500 0.000000
-9.464400 0.000000
-9.445200 0.000000
-9.426100 0.000000
-9.406900 0.000000
-9.387800 0.000000
-9.368600 0.000000
-9.349500 0.000000
-9.330300 0.000000
-9.311200 0.000000
-9.292000 0.000000
-9.272900 0.000000
-9.253700 0.000000
-9.234600 0.000000
-9.215400 0.000000
-9.196300 0.000000
-9.177100 0.000000
-9.158000 0.000000
-9.138800 0.000000
-9.119700 0.000000
-9.100500 0.000000
-9.081400 0.000000
-9.062200 0.000000
-9.043100 0.000000
-9.023900 0.000000
-9.004800 0.000000
-8.985600 0.000000
-8.966500 0.000000
-8.947300 0.000000
-8.928200 0.000000
-8.909000 0.000000
-8.889900 0.000000
-8.870700 0.000000
-8.851600 0.000000
-8.832400 0.000000
-8.813300 0.000000
-8.794100 0.000000
-8.775000 0.000000
-8.755800 0.000000
-8.736700 0.000000
-8.717500 0.000000
-8.698300 0.000000
-8.679200 0.000000
-8.660000 0.000000
-8.640900 0.000000
-8.621700 0.000000
-8.602600 0.000000
-8.583400 0.000000
-8.564300 0.000000
-8.545100 0.000000
-8.526000 0.000000
-8.506800 0.000000
-8.487700 0.000000
-8.468500 0.000000
-8.449400 0.000000
-8.430200 0.000000
-8.411100 0.000000
-8.391900 0.000000
-8.372800 0.000000
-8.353600 0.000000
-8.334500 0.000000
-8.315300 0.000000
-8.296200 0.000000
-8.277000 0.000000
-8.257900 0.000000
-8.238700 0.000000
-8.219600 0.000000
-8.200400 0.000000
-8.181300 0.000000
-8.162100 0.000000
-8.143000 0.000000
-8.123800 0.000000
-8.104700 0.000000
-8.085500 0.000000
-8.066400 0.000000
-8.047200 0.000000
-8.028100 0.000000
-8.008900 0.000000
-7.989800 0.000000
-7.970600 0.000000
-7.951500 0.000000
-7.932300 0.000000
-7.913200 0.000000
-7.894000 0.000000
-7.874900 0.000000
-7.855700 0.000000
-7.836600 0.000000
-7.817400 0.000000
-7.798300 0.000000
-7.779100 0.000000
-7.760000 0.000000
-7.740800 0.000000
-7.721700 0.000000
-7.702500 0.000000
-7.683400 0.000000
-7.664200 0.000000
-7.645000 0.000000
-7.625900 0.000000
-7.606700 0.000000
-7.587600 0.000000
-7.568400 0.000000
-7.549300 0.000000
-7.530100 0.000000
-7.511000 0.000000
-7.491800 0.000000
-7.472700 0.000000
-7.453500 0.000000
-7.434400 0.000000
-7.415200 0.000000
-7.396100 0.000000
-7.376900 0.000000
-7.357800 0.000000
-7.338600 0.000000
-7.319500 0.000000
-7.300300 0.000000
-7.281200 0.000000
-7.262000 0.000000
-7.242900 0.000000
-7.223700 0.000000
-7.204600 0.000000
-7.185400 0.000000
-7.166300 0.000000
-7.147100 0.000000
-7.128000 0.000000
-7.108800 0.000000
-7.089700 0.000000
-7.070500 0.000000
-7.051400 0.000000
-7.032200 0.000000
-7.013100 0.000000
-6.993900 0.000000
-6.974800 0.000000
-6.955600 0.000000
-6.936500 0.000000
-6.917300 0.000000
-6.898200 0.000000
-6.879000 0.000000
-6.859900 0.000000
-6.840700 0.000000
-6.821600 0.000000
-6.802400 0.000000
-6.783300 0.000000
-6.764100 0.000000
-6.745000 0.000000
-6.725800 0.000000
-6.706700 0.000000
-6.687500 0.000000
-6.668400 0.000000
-6.649200 0.000000
-6.630100 0.000000
-6.610900 0.000000
-6.591700 0.000000
-6.572600 0.000000
-6.553400 0.000000
-6.534300 0.000000
-6.515100 0.000000
-6.496000 0.000000
-6.476800 0.000000
-6.457700 0.000000
-6.438500 0.000000
-6.419400 0.000000
-6.400200 0.000000
-6.381100 0.000000
-6.361900 0.000000
-6.342800 0.000000
-6.323600 0.000000
-6.304500 0.000000
-6.285300 0.000000
-6.266200 0.000000
-6.247000 0.000000
-6.227900 0.000000
-6.208700 0.000000
-6.189600 0.000000
-6.170400 0.000000
-6.151300 0.000000
-6.132100 0.000000
-6.113000 0.000000
-6.093800 0.000000
-6.074700 0.000000
-6.055500 0.000000
-6.036400 0.000000
-6.017200 0.000000
-5.998100 0.000000
-5.978900 0.000000
-5.959800 0.000000
-5.940600 0.000000
-5.921500 0.000000
-5.902300 0.000000
-5.883200 0.000000
-5.864000 0.000000
-5.844900 0.000000
-5.825700 0.000000
-5.806600 0.000000
-5.787400 0.000000
-5.768300 0.000000
-5.749100 0.000000
-5.730000 0.000000
-5.710800 0.000000
-5.691700 0.000000
-5.672500 0.000000
-5.653400 0.000000
-5.634200 0.000000
-5.615100 0.000000
-5.595900 0.000000
-5.576800 0.000000
-5.557600 0.000000
-5.538400 0.000000
-5.519300 0.000000
-5.500100 0.000000
-5.481000 0.000000
-5.461800 0.000000
-5.442700 0.000000
-5.423500 0.000000
-5.404400 0.000000
-5.385200 0.000000
-5.366100 0.000000
-5.346900 0.000000
-5.327800 0.000000
-5.308600 0.000000
-5.289500 0.000000
-5.270300 0.000000
-5.251200 0.000000
-5.232000 0.000000
-5.212900 0.000000
-5.193700 0.002300
-5.174600 0.049200
-5.155400 0.121800
-5.136300 0.127100
-5.117100 0.153200
-5.098000 0.181400
-5.078800 0.207500
-5.059700 0.219900
-5.040500 0.227500
-5.021400 0.243600
-5.002200 0.260000
-4.983100 0.276900
-4.963900 0.294200
-4.944800 0.309300
-4.925600 0.317400
-4.906500 0.327900
-4.887300 0.338100
-4.868200 0.348400
-4.849000 0.359600
-4.829900 0.372100
-4.810700 0.385100
-4.791600 0.398200
-4.772400 0.411200
-4.753300 0.420900
-4.734100 0.427400
-4.715000 0.436700
-4.695800 0.446300
-4.676700 0.455900
-4.657500 0.465600
-4.638400 0.475400
-4.619200 0.485900
-4.600100 0.496700
-4.580900 0.507800
-4.561800 0.519000
-4.542600 0.530300
-4.523500 0.538300
-4.504300 0.547100
-4.485100 0.555700
-4.466000 0.564400
-4.446800 0.573800
-4.427700 0.583500
-4.408500 0.593600
-4.389400 0.603800
-4.370200 0.614000
-4.351100 0.624300
-4.331900 0.635000
-4.312800 0.646000
-4.293600 0.657100
-4.274500 0.668300
-4.255300 0.678300
-4.236200 0.688100
-4.217000 0.698600
-4.197900 0.709300
-4.178700 0.720200
-4.159600 0.731300
-4.140400 0.743000
-4.121300 0.755400
-4.102100 0.768100
-4.083000 0.781200
-4.063800 0.794500
-4.044700 0.808100
-4.025500 0.822100
-4.006400 0.836900
-3.987200 0.852200
-3.968100 0.867600
-3.948900 0.883400
-3.929800 0.900000
-3.910600 0.918300
-3.891500 0.937800
-3.872300 0.958400
-3.853200 0.980300
-3.834000 1.006200
-3.814900 1.036500
-3.795700 1.070500
-3.776600 1.108200
-3.757400 1.151100
-3.738300 1.242000
-3.719100 1.324600
-3.700000 1.339700
-3.680800 1.286700
-3.661700 1.335000
-3.642500 1.365900
-3.623400 1.329000
-3.604200 1.291400
-3.585100 1.269600
-3.565900 1.263400
-3.546800 1.257200
-3.527600 1.242700
-3.508500 1.226300
-3.489300 1.208100
-3.470200 1.188100
-3.451000 1.172400
-3.431900 1.157100
-3.412700 1.140600
-3.393500 1.135200
-3.374400 1.128200
-3.355200 1.120000
-3.336100 1.108300
-3.316900 1.092300
-3.297800 1.069000
-3.278600 1.047300
-3.259500 1.030400
-3.240300 1.018200
-3.221200 1.006500
-3.202000 0.992600
-3.182900 0.979000
-3.163700 0.966400
-3.144600 0.954900
-3.125400 0.942900
-3.106300 0.929800
-3.087100 0.915300
-3.068000 0.899400
-3.048800 0.882200
-3.029700 0.860900
-3.010500 0.842300
-2.991400 0.827600
-2.972200 0.815800
-2.953100 0.802800
-2.933900 0.789500
-2.914800 0.776000
-2.895600 0.762200
-2.876500 0.748200
-2.857300 0.734200
-2.838200 0.718700
-2.819000 0.700800
-2.799900 0.683500
-2.780700 0.667500
-2.761600 0.652600
-2.742400 0.637800
-2.723300 0.616600
-2.704100 0.614900
-2.685000 0.611800
-2.665800 0.579000
-2.646700 0.561300
-2.627500 0.540200
-2.608400 0.525400
-2.589200 0.507800
-2.570100 0.483300
-2.550900 0.495300
-2.531800 0.506000
-2.512600 0.474300
-2.493500 0.286400
-2.474300 0.206100
-2.455200 0.131600
-2.436000 0.079500
-2.416900 0.045900
-2.397700 0.021400
-2.378600 0.008900
-2.359400 0.000800
-2.340200 0.000000
-2.321100 0.000000
-2.301900 0.000000
-2.282800 0.005100
-2.263600 0.012900
-2.244500 0.023000
-2.225300 0.036200
-2.206200 0.059200
-2.187000 0.084600
-2.167900 0.112500
-2.148700 0.142700
-2.129600 0.196500
-2.110400 0.253600
-2.091300 0.311300
-2.072100 0.369400
-2.053000 0.527800
-2.033800 0.522800
-2.014700 0.475200
-1.995500 0.473500
-1.976400 0.475900
-1.957200 0.488100
-1.938100 0.513300
-1.918900 0.544300
-1.899800 0.558300
-1.880600 0.560300
-1.861500 0.566600
-1.842300 0.577200
-1.823200 0.600700
-1.804000 0.613600
-1.784900 0.627400
-1.765700 0.642300
-1.746600 0.658000
-1.727400 0.671300
-1.708300 0.684000
-1.689100 0.696700
-1.670000 0.709300
-1.650800 0.721600
-1.631700 0.733700
-1.612500 0.745200
-1.593400 0.755200
-1.574200 0.766300
-1.555100 0.781800
-1.535900 0.801800
-1.516800 0.822300
-1.497600 0.839200
-1.478500 0.854800
-1.459300 0.868900
-1.440200 0.881400
-1.421000 0.893300
-1.401900 0.907600
-1.382700 0.924300
-1.363600 0.943700
-1.344400 0.959600
-1.325300 0.981400
-1.306100 1.013800
-1.286900 1.057100
-1.267800 1.095100
-1.248600 1.117900
-1.229500 1.129800
-1.210300 1.131300
-1.191200 1.223900
-1.172000 1.209500
-1.152900 1.238700
-1.133700 1.302200
-1.114600 1.413000
-1.095400 1.774200
-1.076300 1.403000
-1.057100 1.300100
-1.038000 1.188400
-1.018800 1.117500
-0.999700 1.059600
-0.980500 1.011300
-0.961400 0.971400
-0.942200 0.936500
-0.923100 0.906100
-0.903900 0.877800
-0.884800 0.851700
-0.865600 0.828000
-0.846500 0.805800
-0.827300 0.784900
-0.808200 0.764300
-0.789000 0.744100
-0.769900 0.726400
-0.750700 0.711300
-0.731600 0.698100
-0.712400 0.685300
-0.693300 0.673000
-0.674100 0.661100
-0.655000 0.649600
-0.635800 0.638500
-0.616700 0.627700
-0.597500 0.617000
-0.578400 0.606600
-0.559200 0.596400
-0.540100 0.586300
-0.520900 0.576400
-0.501800 0.566700
-0.482600 0.557200
-0.463500 0.547700
-0.444300 0.538400
-0.425200 0.528700
-0.406000 0.519000
-0.386900 0.509600
-0.367700 0.500500
-0.348600 0.491800
-0.329400 0.483400
-0.310300 0.475300
-0.291100 0.465200
-0.272000 0.459500
-0.252800 0.453900
-0.233600 0.448200
-0.214500 0.442600
-0.195300 0.437100
-0.176200 0.431600
-0.157000 0.426100
-0.137900 0.420600
-0.118700 0.415200
-0.099600 0.409800
-0.080400 0.404300
-0.061300 0.398700
-0.042100 0.393100
-0.023000 0.387500
-0.003800 0.381900
0.015300 0.376400
0.034500 0.370900
0.053600 0.365600
0.072800 0.360200
0.091900 0.355000
0.111100 0.349700
0.130200 0.344300
0.149400 0.338600
0.168500 0.332600
0.187700 0.326400
0.206800 0.320600
0.226000 0.315500
0.245100 0.311000
0.264300 0.307200
0.283400 0.303900
0.302600 0.300500
0.321700 0.297100
0.340900 0.293700
0.360000 0.290300
0.379200 0.286800
0.398300 0.283400
0.417500 0.280100
0.436600 0.276700
0.455800 0.273300
0.474900 0.270000
0.494100 0.266600
0.513200 0.263200
0.532400 0.259800
0.551500 0.256400
0.570700 0.253000
0.589800 0.249600
0.609000 0.246100
0.628100 0.242500
0.647300 0.238500
0.666400 0.234500
0.685600 0.230600
0.704700 0.226800
0.723900 0.223200
0.743000 0.219600
0.762200 0.216100
0.781300 0.212700
0.800500 0.209400
0.819700 0.203600
0.838800 0.201400
0.858000 0.199300
0.877100 0.197200
0.896300 0.195100
0.915400 0.193000
0.934600 0.190900
0.953700 0.188700
0.972900 0.186600
0.992000 0.184400
1.011200 0.182200
1.030300 0.179900
1.049500 0.177600
1.068600 0.175300
1.087800 0.172900
1.106900 0.170500
1.126100 0.168200
1.145200 0.165800
1.164400 0.163500
1.183500 0.161200
1.202700 0.158900
1.221800 0.156600
1.241000 0.154400
1.260100 0.152100
1.279300 0.149900
1.298400 0.147500
1.317600 0.145000
1.336700 0.142300
1.355900 0.139500
1.375000 0.136500
1.394200 0.133500
1.413300 0.130700
1.432500 0.128200
1.451600 0.125900
1.470800 0.123900
1.489900 0.122200
1.509100 0.120600
1.528200 0.119200
1.547400 0.117800
1.566500 0.116400
1.585700 0.114900
1.604800 0.113500
1.624000 0.112100
1.643100 0.110700
1.662300 0.109300
1.681400 0.107800
1.700600 0.106400
1.719700 0.104900
1.738900 0.103500
1.758000 0.102000
1.777200 0.100500
1.796300 0.122500
1.815500 0.258600
1.834600 0.517600
1.853800 0.932600
1.873000 0.986300
1.892100 1.114100
1.911300 1.259100
1.930400 1.428000
1.949600 1.769000
1.968700 2.067900
1.987900 2.046200
2.007000 2.011600
2.026200 1.973800
2.045300 1.981200
2.064500 1.901900
2.083600 1.840000
2.102800 1.795500
2.121900 1.671600
2.141100 1.606300
2.160200 1.572700
2.179400 1.542900
2.198500 1.523200
2.217700 1.502700
2.236800 1.468400
2.256000 1.426900
2.275100 1.400100
2.294300 1.386200
2.313400 1.450200
2.332600 1.369000
2.351700 1.623200
2.370900 1.465700
2.390000 1.473800
2.409200 1.488300
2.428300 1.505900
2.447500 1.528200
2.466600 1.615300
2.485800 1.572700
2.504900 1.546400
2.524100 1.549000
2.543200 1.557400
2.562400 1.612000
2.581500 1.644800
2.600700 1.709500
2.619800 1.794600
2.639000 1.888100
2.658100 1.852500
2.677300 1.933900
2.696400 2.045100
2.715600 2.050900
2.734700 2.168700
2.753900 2.127800
2.773000 2.128200
2.792200 2.102900
2.811300 2.053000
2.830500 2.020700
2.849600 2.007200
2.868800 1.998700
2.887900 1.992100
2.907100 1.985300
2.926300 1.980700
2.945400 1.972800
2.964600 1.965500
2.983700 1.956900
3.002900 1.945500
3.022000 1.933100
3.041200 1.919300
3.060300 1.904300
3.079500 1.889300
3.098600 1.873500
3.117800 1.856800
3.136900 1.843800
3.156100 1.833100
3.175200 1.824300
3.194400 1.817800
3.213500 1.817100
3.232700 1.817800
3.251800 1.811300
3.271000 1.802000
3.290100 1.791300
3.309300 1.779200
3.328400 1.765700
3.347600 1.750700
3.366700 1.735400
3.385900 1.724100
3.405000 1.714100
3.424200 1.705700
3.443300 1.698100
3.462500 1.691900
3.481600 1.687500
3.500800 1.683900
3.519900 1.679100
3.539100 1.668400
3.558200 1.656100
3.577400 1.641400
3.596500 1.624600
3.615700 1.607300
3.634800 1.594900
3.654000 1.586000
3.673100 1.581200
3.692300 1.578100
3.711400 1.574200
3.730600 1.571300
3.749700 1.561800
3.768900 1.551200
3.788000 1.539500
3.807200 1.526000
3.826300 1.518700
3.845500 1.522100
3.864600 1.525000
3.883800 1.475000
3.902900 1.390100
3.922100 1.276800
3.941200 1.211400
3.960400 1.129000
3.979500 1.060700
3.998700 1.020400
4.017900 0.980600
4.037000 0.941100
4.056200 0.906400
4.075300 0.869600
4.094500 0.831700
4.113600 0.797500
4.132800 0.774600
4.151900 0.751400
4.171100 0.728400
4.190200 0.704100
4.209400 0.678600
4.228500 0.653100
4.247700 0.627800
4.266800 0.602700
4.286000 0.578000
4.305100 0.555600
4.324300 0.535900
4.343400 0.517100
4.362600 0.498300
4.381700 0.479400
4.400900 0.460800
4.420000 0.442600
4.439200 0.424700
4.458300 0.407200
4.477500 0.390100
4.496600 0.373400
4.515800 0.357200
4.534900 0.340900
4.554100 0.340100
4.573200 0.322500
4.592400 0.305700
4.611500 0.290100
4.630700 0.275000
4.649800 0.260500
4.669000 0.246500
4.688100 0.232500
4.707300 0.218400
4.726400 0.204400
4.745600 0.189300
4.764700 0.171500
4.783900 0.153100
4.803000 0.137700
4.822200 0.125700
4.841300 0.118100
4.860500 0.114200
4.879600 0.114100
4.898800 0.117300
4.917900 0.123900
4.937100 0.071900
4.956200 0.056100
4.975400 0.047100
4.994500 0.045100
5.013700 0.049700
5.032800 0.057100
5.052000 0.065100
5.071200 0.073600
5.090300 0.082700
5.109500 0.092200
5.128600 0.102300
5.147800 0.112900
5.166900 0.124000
5.186100 0.135600
5.205200 0.147800
5.224400 0.160400
5.243500 0.173300
5.262700 0.186300
5.281800 0.198900
5.301000 0.211200
5.320100 0.225100
5.339300 0.239900
5.358400 0.255400
5.377600 0.271400
5.396700 0.287200
5.415900 0.302500
5.435000 0.317400
5.454200 0.331900
5.473300 0.345900
5.492500 0.359500
5.511600 0.372800
5.530800 0.385600
5.549900 0.398200
5.569100 0.410600
5.588200 0.422600
5.607400 0.434400
5.626500 0.446000
5.645700 0.457500
5.664800 0.468400
5.684000 0.478100
5.703100 0.497900
5.722300 0.529800
5.741400 0.573200
5.760600 0.630600
5.779700 0.684300
5.798900 0.734600
5.818000 0.785500
5.837200 0.835100
5.856300 0.885100
5.875500 0.936000
5.894600 0.987000
5.913800 1.035900
5.932900 1.082800
5.952100 1.136300
5.971200 1.194400
5.990400 1.259400
6.009500 1.330300
6.028700 1.408100
6.047800 1.483400
6.067000 1.556600
6.086100 1.626800
6.105300 1.693100
6.124500 1.753000
6.143600 1.805400
6.162800 1.862300
6.181900 1.934500
6.201100 2.036900
6.220200 2.185200
6.239400 2.367300
6.258500 2.483200
6.277700 2.597600
6.296800 2.697100
6.316000 2.776100
6.335100 2.800600
6.354300 2.768200
6.373400 2.679900
6.392600 2.551300
6.411700 2.371100
6.430900 2.162200
6.450000 1.936800
6.469200 1.783600
6.488300 1.657100
6.507500 1.557600
6.526600 1.479800
6.545800 1.391500
6.564900 1.303700
6.584100 1.252600
6.603200 1.255300
6.622400 1.261000
6.641500 1.259300
6.660700 1.257300
6.679800 1.254900
6.699000 1.250700
6.718100 1.254500
6.737300 1.255400
6.756400 1.253800
6.775600 1.256900
6.794700 1.267700
6.813900 1.282100
6.833000 1.319100
6.852200 1.382800
6.871300 1.376400
6.890500 1.398300
6.909600 1.491200
6.928800 1.611100
6.947900 1.419000
6.967100 1.576900
6.986200 1.470100
7.005400 1.373300
7.024500 1.304800
7.043700 1.247500
7.062800 1.195600
7.082000 1.147500
7.101100 1.063500
7.120300 1.031000
7.139400 1.033000
7.158600 1.035100
7.177800 1.037200
7.196900 1.025200
7.216100 1.035900
7.235200 1.037600
7.254400 1.030700
7.273500 1.024300
7.292700 1.019000
7.311800 1.014700
7.331000 1.011300
7.350100 1.009000
7.369300 1.007900
7.388400 1.010300
7.407600 1.016500
7.426700 1.026700
7.445900 1.039900
7.465000 1.055300
7.484200 1.072600
7.503300 1.090200
7.522500 1.106100
7.541600 1.125500
7.560800 1.167300
7.579900 1.224500
7.599100 1.274800
7.618200 1.316400
7.637400 1.323100
7.656500 1.310300
7.675700 1.305200
7.694800 1.286900
7.714000 1.184300
7.733100 1.215100
7.752300 1.260600
7.771400 1.311800
7.790600 1.362600
7.809700 1.428200
7.828900 1.505700
7.848000 1.592200
7.867200 1.688700
7.886300 1.892100
7.905500 2.318700
7.924600 2.590300
7.943800 3.244000
7.962900 2.413300
7.982100 2.303400
8.001200 2.268400
8.020400 2.221800
8.039500 2.173900
8.058700 2.124600
8.077800 2.065600
8.097000 1.906900
8.116100 1.731600
8.135300 1.719500
8.154400 1.851000
8.173600 1.917300
8.192700 1.833500
8.211900 1.741500
8.231100 1.728300
8.250200 1.691700
8.269400 1.641000
8.288500 1.589700
8.307700 1.536600
8.326800 1.480300
8.346000 1.413000
8.365100 1.355900
8.384300 1.305700
8.403400 1.288400
8.422600 1.299500
8.441700 1.294300
8.460900 1.277200
8.480000 1.261000
8.499200 1.245600
8.518300 1.230900
8.537500 1.215600
8.556600 1.198200
8.575800 1.185200
8.594900 1.176000
8.614100 1.168800
8.633200 1.163700
8.652400 1.160800
8.671500 1.179300
8.690700 1.216700
8.709800 1.267400
8.729000 1.331300
8.748100 1.408700
8.767300 1.525500
8.786400 1.760300
8.805600 1.992800
8.824700 2.027200
8.843900 2.016100
8.863000 1.995800
8.882200 2.004800
8.901300 2.046400
8.920500 2.091700
8.939600 2.129200
8.958800 2.167400
8.977900 2.201600
8.997100 2.231600
9.016200 2.264200
9.035400 2.369500
9.054500 2.340300
9.073700 2.194000
9.092800 2.065400
9.112000 1.971400
9.131100 1.899900
9.150300 1.837400
9.169400 1.790600
9.188600 1.740600
9.207700 1.694400
9.226900 1.658100
9.246000 1.633600
9.265200 1.617600
9.284400 1.609400
9.303500 1.608300
9.322700 1.602400
9.341800 1.532300
9.361000 1.521200
9.380100 1.509500
9.399300 1.497000
9.418400 1.487200
9.437600 1.484500
9.456700 1.490600
9.475900 1.513300
9.495000 1.560400
9.514200 1.657000
9.533300 1.735800
9.552500 1.677700
9.571600 1.536700
9.590800 1.398100
9.609900 1.240700
9.629100 1.176600
9.648200 1.142500
9.667400 1.116500
9.686500 1.098700
9.705700 1.091500
9.724800 1.105300
9.744000 1.141100
9.763100 1.195200
9.782300 1.344900
9.801400 1.341100
9.820600 1.360300
9.839700 1.406200
9.858900 1.479200
9.878000 1.565200
9.897200 1.641900
9.916300 1.720000
9.935500 1.790500
9.954600 1.882800
9.973800 1.976600
9.992900 1.785400
10.012100 1.772400
10.031200 1.779200
10.050400 1.774600
10.069500 1.748700
10.088700 1.700200
10.107800 1.650700
10.127000 1.629600
10.146100 1.577600
10.165300 1.515900
10.184400 1.459300
10.203600 1.407900
10.222700 1.361100
10.241900 1.319400
10.261000 1.282500
10.280200 1.248700
10.299300 1.220000
10.318500 1.194000
10.337700 1.173900
10.356800 1.157300
10.376000 1.139800
10.395100 1.120600
10.414300 1.099700
10.433400 1.078100
10.452600 1.060300
10.471700 1.044800
10.490900 1.031100
10.510000 1.019300
10.529200 1.009300
10.548300 1.001800
10.567500 0.997400
10.586600 0.996100
10.605800 0.997900
10.624900 1.011900
10.644100 1.065000
10.663200 1.147700
10.682400 1.214800
10.701500 1.236500
10.720700 1.237100
10.739800 1.349300
10.759000 1.542300
10.778100 1.522000
10.797300 1.017200
10.816400 0.771600
10.835600 0.769900
10.854700 0.768300
10.873900 0.767200
10.893000 0.766500
10.912200 0.767900
10.931300 0.775400
10.950500 0.788700
10.969600 0.807500
10.988800 0.845200
11.007900 0.955700
11.027100 1.135800
11.046200 1.158700
11.065400 1.214000
11.084500 1.262900
11.103700 1.214100
11.122800 1.224100
11.142000 1.283100
11.161100 1.372300
11.180300 1.448100
11.199400 1.525000
11.218600 1.587300
11.237700 1.562100
11.256900 1.488000
11.276000 1.375100
11.295200 1.337600
11.314300 1.330900
11.333500 1.375100
11.352600 1.442900
11.371800 1.502000
11.390900 1.548400
11.410100 1.586900
11.429300 1.725600
11.448400 1.861000
11.467600 1.792700
11.486700 1.782400
11.505900 1.770400
11.525000 1.760800
11.544200 1.752500
11.563300 1.742100
11.582500 1.728300
11.601600 1.713700
11.620800 1.702300
11.639900 1.694200
11.659100 1.691500
11.678200 1.699700
11.697400 1.719700
11.716500 1.775400
11.735700 1.768600
11.754800 1.758100
11.774000 1.771600
11.793100 1.782300
11.812300 1.794000
11.831400 1.805600
11.850600 1.829800
11.869700 2.003500
11.888900 2.038600
11.908000 1.976900
11.927200 2.032300
11.946300 2.093100
11.965500 2.108100
11.984600 2.108100
12.003800 2.095400
12.022900 2.053800
12.042100 2.036400
12.061200 2.027300
12.080400 2.000300
12.099500 1.957900
12.118700 1.928200
12.137800 1.917400
12.157000 1.914600
12.176100 1.922600
12.195300 1.918500
12.214400 1.886900
12.233600 1.875900
12.252700 1.873400
12.271900 1.874500
12.291000 1.879700
12.310200 1.886500
12.329300 1.894100
12.348500 1.904800
12.367600 1.915600
12.386800 1.925900
12.405900 1.935100
12.425100 1.948200
12.444200 1.960800
12.463400 1.974600
12.482600 1.975200
12.501700 1.953900
12.520900 1.918100
12.540000 1.877900
12.559200 1.843000
12.578300 1.813500
12.597500 1.788300
12.616600 1.767200
12.635800 1.771100
12.654900 1.772300
12.674100 1.757000
12.693200 1.727400
12.712400 1.689100
12.731500 1.681300
12.750700 1.674900
12.769800 1.670700
12.789000 1.673600
12.808100 1.720300
12.827300 2.148700
12.846400 1.936400
12.865600 1.780700
12.884700 1.763000
12.903900 1.747700
12.923000 1.735900
12.942200 1.733400
12.961300 1.734100
12.980500 1.739200
12.999600 1.772400
13.018800 1.814100
13.037900 1.923000
13.057100 1.885000
13.076200 1.814900
13.095400 1.765000
13.114500 1.751200
13.133700 1.743000
13.152800 1.747000
13.172000 1.759000
13.191100 1.768900
13.210300 1.797700
13.229400 1.955100
13.248600 2.146300
13.267700 2.514500
13.286900 2.069700
13.306000 2.111900
13.325200 2.113300
13.344300 2.086900
13.363500 2.074200
13.382600 2.072100
13.401800 2.071000
13.420900 2.073300
13.440100 2.079000
13.459200 2.087500
13.478400 2.099600
13.497500 2.167900
13.516700 2.178000
13.535900 2.134200
13.555000 2.117200
13.574200 2.123000
13.593300 2.164000
13.612500 2.204100
13.631600 2.232800
13.650800 2.250700
13.669900 2.282500
13.689100 2.330000
13.708200 2.383700
13.727400 2.401800
13.746500 2.476200
13.765700 2.616900
13.784800 2.728100
13.804000 2.779500
13.823100 2.137500
13.842300 1.846500
13.861400 1.693100
13.880600 1.653300
13.899700 1.615500
13.918900 1.592400
13.938000 1.613200
13.957200 1.615700
13.976300 1.606600
13.995500 1.601400
14.014600 1.604000
14.033800 1.617400
14.052900 1.631900
14.072100 1.651500
14.091200 1.676200
14.110400 1.707400
14.129500 1.754500
14.148700 1.820600
14.167800 1.903200
14.187000 1.985500
14.206100 2.082100
14.225300 2.126400
14.244400 2.169800
14.263600 2.200700
14.282700 2.202900
14.301900 2.199800
14.321000 2.183600
14.340200 2.159100
14.359300 2.108700
14.378500 2.069300
14.397600 2.055900
14.416800 2.099000
14.435900 2.210600
14.455100 2.279000
14.474200 2.333100
14.493400 2.481500
14.512500 2.611300
14.531700 2.723400
14.550800 2.878700
14.570000 3.045800
14.589200 3.205500
14.608300 4.579300
14.627500 3.153700
14.646600 2.783400
14.665800 2.474500
14.684900 2.230800
14.704100 2.039900
14.723200 1.914700
14.742400 1.831000
14.761500 1.765400
14.780700 1.685200
14.799800 1.638500
14.819000 1.609200
14.838100 1.582600
14.857300 1.555300
14.876400 1.527800
14.895600 1.500300
14.914700 1.475500
14.933900 1.390200
14.953000 1.359100
14.972200 1.336500
14.991300 1.321000
15.010500 1.311900
15.029600 1.316800
15.048800 1.335700
15.067900 1.379600
15.087100 1.415300
15.106200 1.443400
15.125400 1.458400
15.144500 1.481600
15.163700 1.511900
15.182800 1.556500
15.202000 1.661500
15.221100 1.822200
15.240300 2.038400
15.259400 2.225000
15.278600 2.869200
15.297700 2.356400
15.316900 2.347400
15.336000 2.139600
15.355200 2.106600
15.374300 2.056800
15.393500 1.965600
15.412600 1.916500
15.431800 1.851200
15.450900 1.765400
15.470100 1.686900
15.489200 1.649300
15.508400 1.638200
15.527500 1.630800
15.546700 1.624600
15.565800 1.615600
15.585000 1.615700
15.604100 1.626400
15.623300 1.645100
15.642500 1.671900
15.661600 1.707100
15.680800 1.753000
15.699900 1.818300
15.719100 1.848500
15.738200 1.938400
15.757400 2.017800
15.776500 2.069000
15.795700 2.084400
15.814800 2.073700
15.834000 2.042100
15.853100 1.945600
15.872300 1.814400
15.891400 1.758200
15.910600 1.705800
15.929700 1.640700
15.948900 1.562300
15.968000 1.450100
15.987200 1.367400
16.006300 1.331300
16.025500 1.301600
16.044600 1.272100
16.063800 1.247000
16.082900 1.219800
16.102100 1.190900
16.121200 1.157200
16.140400 1.118900
16.159500 1.079000
16.178700 1.038300
16.197800 1.016600
16.217000 1.001600
16.236100 0.982100
16.255300 0.967600
16.274400 0.957800
16.293600 0.952100
16.312700 0.953100
16.331900 0.958900
16.351000 0.972100
16.370200 0.993000
16.389300 1.043100
16.408500 1.095300
16.427600 1.174700
16.446800 1.260300
16.465900 1.360600
16.485100 1.511500
16.504200 1.738700
16.523400 2.054000
16.542500 2.003100
16.561700 1.989600
16.580800 1.995300
16.600000 2.015900
16.619100 2.078400
16.638300 2.252500
16.657400 2.646300
16.676600 2.245300
16.695800 2.271800
16.714900 2.307200
16.734100 2.354700
16.753200 2.407800
16.772400 2.461900
16.791500 2.518000
16.810700 2.618100
16.829800 2.711200
16.849000 2.778100
16.868100 2.851200
16.887300 2.994600
16.906400 3.053400
16.925600 2.780500
16.944700 2.617000
16.963900 2.449400
16.983000 2.315500
17.002200 2.166200
17.021300 2.022300
17.040500 1.972900
17.059600 1.631700
17.078800 1.612900
17.097900 1.631600
17.117100 1.680600
17.136200 1.741000
17.155400 1.803800
17.174500 2.161100
17.193700 2.293300
17.212800 1.970500
17.232000 1.911900
17.251100 1.859300
17.270300 1.193100
17.289400 1.157400
17.308600 1.132200
17.327700 1.106700
17.346900 1.081000
17.366000 1.055500
17.385200 1.007400
17.404300 0.982400
17.423500 0.956100
17.442600 0.930500
17.461800 0.905900
17.480900 0.880400
17.500100 0.850800
17.519200 0.817200
17.538400 0.779400
17.557500 0.994700
17.576700 0.694700
17.595800 0.659000
17.615000 0.624100
17.634100 0.590000
17.653300 0.556600
17.672400 0.523900
17.691600 0.492000
17.710700 0.460900
17.729900 0.430600
17.749100 0.401800
17.768200 0.374900
17.787400 0.348400
17.806500 0.322800
17.825700 0.299300
17.844800 0.277800
17.864000 0.249300
17.883100 0.219100
17.902300 0.187300
17.921400 0.153800
17.940600 0.118600
17.959700 0.084900
17.978900 0.057500
17.998000 0.036300
18.017200 0.021000
18.036300 0.009600
18.055500 0.002600
18.074600 0.000000
18.093800 0.000000
18.112900 0.000000
18.132100 0.000000
18.151200 0.000000
18.170400 0.000000
18.189500 0.000000
18.208700 0.000000
18.227800 0.000000
18.247000 0.000000
18.266100 0.000000
18.285300 0.000000
18.304400 0.000000
18.323600 0.000000
18.342700 0.000000
18.361900 0.000000
18.381000 0.000000
18.400200 0.000000
18.419300 0.000000
18.438500 0.000000
18.457600 0.000000
18.476800 0.000000
18.495900 0.000000
18.515100 0.000000
18.534200 0.000000
18.553400 0.000000
18.572500 0.000000
18.591700 0.000000
18.610800 0.000000
18.630000 0.000000
18.649100 0.000000
18.668300 0.000000
18.687400 0.000000
18.706600 0.000000
18.725700 0.000000
18.744900 0.000000
18.764000 0.000000
18.783200 0.000000
18.802300 0.000000
18.821500 0.000000
18.840700 0.000000
18.859800 0.000000
18.879000 0.000000
18.898100 0.000000
18.917300 0.000000
18.936400 0.000000
18.955600 0.000000
18.974700 0.000000
18.993900 0.000000
19.013000 0.000000
19.032200 0.000000
19.051300 0.000000
19.070500 0.000000
19.089600 0.000000
19.108800 0.000000
19.127900 0.000000
19.147100 0.000000
19.166200 0.000000
19.185400 0.000000
19.204500 0.000000
19.223700 0.000000
19.242800 0.000000
19.262000 0.000000
19.281100 0.000000
19.300300 0.000000
19.319400 0.000000
19.338600 0.000000
19.357700 0.000000
19.376900 0.000000
19.396000 0.000000
19.415200 0.000000
19.434300 0.000000
19.453500 0.000000
19.472600 0.000000
19.491800 0.000000
19.510900 0.000000
19.530100 0.000000
19.549200 0.000000
19.568400 0.000000
19.587500 0.000000
19.606700 0.000000
19.625800 0.000000
19.645000 0.000000
19.664100 0.000000
19.683300 0.000000
19.702400 0.000000
19.721600 0.000000
19.740700 0.000000
19.759900 0.000000
19.779000 0.000000
19.798200 0.000000
19.817300 0.000000
e
