set title 'mp-75 - Density of States'
set xlabel 'Energy (eV)'
set ylabel 'DOS (states/eV)'
set grid
set xrange [-10:10]
set yrange [0:4.966]
set xzeroaxis lt -1
set terminal png size 800,600
set output 'mp-75_dos_gnuplot.png'
plot '-' using 1:2 with lines title 'DOS'
-29.521600 0.000000
-29.484800 0.000000
-29.448100 0.000000
-29.411400 0.000000
-29.374600 0.000000
-29.337900 0.000000
-29.301200 0.000000
-29.264400 0.000000
-29.227700 0.000000
-29.191000 0.000000
-29.154200 0.000000
-29.117500 0.000000
-29.080800 0.000000
-29.044000 0.000000
-29.007300 0.000000
-28.970500 0.000000
-28.933800 0.000000
-28.897100 0.000000
-28.860300 0.000000
-28.823600 0.000000
-28.786900 0.000000
-28.750100 0.000000
-28.713400 0.000000
-28.676700 0.000000
-28.639900 0.000000
-28.603200 0.000000
-28.566500 0.000000
-28.529700 0.000000
-28.493000 0.000000
-28.456300 0.000000
-28.419500 0.000000
-28.382800 0.000000
-28.346000 0.000000
-28.309300 0.000000
-28.272600 0.000000
-28.235800 0.000000
-28.199100 0.000000
-28.162400 0.000000
-28.125600 0.000000
-28.088900 0.000000
-28.052200 0.000000
-28.015400 0.000000
-27.978700 0.000000
-27.942000 0.000000
-27.905200 0.000000
-27.868500 0.000000
-27.831800 0.000000
-27.795000 0.000000
-27.758300 0.000000
-27.721600 0.000000
-27.684800 0.000000
-27.648100 0.000000
-27.611300 0.000000
-27.574600 0.000000
-27.537900 0.000000
-27.501100 0.000000
-27.464400 0.000000
-27.427700 0.000000
-27.390900 0.000000
-27.354200 0.000000
-27.317500 0.000000
-27.280700 0.000000
-27.244000 0.000000
-27.207300 0.000000
-27.170500 0.000000
-27.133800 0.000000
-27.097100 0.000000
-27.060300 0.000000
-27.023600 0.000000
-26.986900 0.000000
-26.950100 0.000000
-26.913400 0.000000
-26.876600 0.000000
-26.839900 0.000000
-26.803200 0.000000
-26.766400 0.000000
-26.729700 0.000000
-26.693000 0.000000
-26.656200 0.000000
-26.619500 0.000000
-26.582800 0.000000
-26.546000 0.000000
-26.509300 0.000000
-26.472600 0.000000
-26.435800 0.000000
-26.399100 0.000000
-26.362400 0.000000
-26.325600 0.000000
-26.288900 0.000000
-26.252200 0.000000
-26.215400 0.000000
-26.178700 0.415500
-26.141900 1.363400
-26.105200 2.056800
-26.068500 2.722600
-26.031700 3.511700
-25.995000 4.619200
-25.958300 7.544400
-25.921500 6.834200
-25.884800 5.187200
-25.848100 4.051900
-25.811300 3.226700
-25.774600 2.820400
-25.737900 2.904400
-25.701100 3.110400
-25.664400 3.111100
-25.627700 3.370800
-25.590900 3.545000
-25.554200 3.867700
-25.517400 4.199100
-25.480700 4.461600
-25.444000 4.773900
-25.407200 5.174500
-25.370500 5.561300
-25.333800 6.096200
-25.297000 5.493200
-25.260300 4.883200
-25.223600 4.776100
-25.186800 4.795800
-25.150100 5.052200
-25.113400 5.663600
-25.076600 7.423600
-25.039900 8.693900
-25.003200 7.861900
-24.966400 7.306500
-24.929700 6.748400
-24.893000 0.000000
-24.856200 0.000000
-24.819500 0.000000
-24.782700 0.000000
-24.746000 0.000000
-24.709300 0.000000
-24.672500 0.000000
-24.635800 0.000000
-24.599100 0.000000
-24.562300 0.000000
-24.525600 0.000000
-24.488900 0.000000
-24.452100 0.000000
-24.415400 0.000000
-24.378700 0.000000
-24.341900 0.000000
-24.305200 0.000000
-24.268500 0.000000
-24.231700 0.000000
-24.195000 0.000000
-24.158300 0.000000
-24.121500 0.000000
-24.084800 0.000000
-24.048000 0.000000
-24.011300 0.000000
-23.974600 0.000000
-23.937800 0.000000
-23.901100 0.000000
-23.864400 0.000000
-23.827600 0.000000
-23.790900 0.000000
-23.754200 0.000000
-23.717400 0.000000
-23.680700 0.000000
-23.644000 0.000000
-23.607200 0.000000
-23.570500 0.000000
-23.533800 0.000000
-23.497000 0.000000
-23.460300 0.000000
-23.423500 0.000000
-23.386800 0.000000
-23.350100 0.000000
-23.313300 0.000000
-23.276600 0.000000
-23.239900 0.000000
-23.203100 0.000000
-23.166400 0.000000
-23.129700 0.000000
-23.092900 0.000000
-23.056200 0.000000
-23.019500 0.000000
-22.982700 0.000000
-22.946000 0.000000
-22.909300 0.000000
-22.872500 0.000000
-22.835800 0.000000
-22.799100 0.000000
-22.762300 0.000000
-22.725600 0.000000
-22.688800 0.000000
-22.652100 0.000000
-22.615400 0.000000
-22.578600 0.000000
-22.541900 0.000000
-22.505200 0.000000
-22.468400 0.000000
-22.431700 0.000000
-22.395000 0.000000
-22.358200 0.000000
-22.321500 0.000000
-22.284800 0.000000
-22.248000 0.000000
-22.211300 0.000000
-22.174600 0.000000
-22.137800 0.000000
-22.101100 0.000000
-22.064400 0.000000
-22.027600 0.000000
-21.990900 0.000000
-21.954100 0.000000
-21.917400 0.000000
-21.880700 0.000000
-21.843900 0.000000
-21.807200 0.000000
-21.770500 0.000000
-21.733700 0.000000
-21.697000 0.000000
-21.660300 0.000000
-21.623500 0.000000
-21.586800 0.000000
-21.550100 0.000000
-21.513300 0.000000
-21.476600 0.000000
-21.439900 0.000000
-21.403100 0.000000
-21.366400 0.000000
-21.329700 0.000000
-21.292900 0.000000
-21.256200 0.000000
-21.219400 0.000000
-21.182700 0.000000
-21.146000 0.000000
-21.109200 0.000000
-21.072500 0.000000
-21.035800 0.000000
-20.999000 0.000000
-20.962300 0.000000
-20.925600 0.000000
-20.888800 0.000000
-20.852100 0.000000
-20.815400 0.000000
-20.778600 0.000000
-20.741900 0.000000
-20.705200 0.000000
-20.668400 0.000000
-20.631700 0.000000
-20.594900 0.000000
-20.558200 0.000000
-20.521500 0.000000
-20.484700 0.000000
-20.448000 0.000000
-20.411300 0.000000
-20.374500 0.000000
-20.337800 0.000000
-20.301100 0.000000
-20.264300 0.000000
-20.227600 0.000000
-20.190900 0.000000
-20.154100 0.000000
-20.117400 0.000000
-20.080700 0.000000
-20.043900 0.000000
-20.007200 0.000000
-19.970500 0.000000
-19.933700 0.000000
-19.897000 0.000000
-19.860200 0.000000
-19.823500 0.000000
-19.786800 0.000000
-19.750000 0.000000
-19.713300 0.000000
-19.676600 0.000000
-19.639800 0.000000
-19.603100 0.000000
-19.566400 0.000000
-19.529600 0.000000
-19.492900 0.000000
-19.456200 0.000000
-19.419400 0.000000
-19.382700 0.000000
-19.346000 0.000000
-19.309200 0.000000
-19.272500 0.000000
-19.235800 0.000000
-19.199000 0.000000
-19.162300 0.000000
-19.125500 0.000000
-19.088800 0.000000
-19.052100 0.000000
-19.015300 0.000000
-18.978600 0.000000
-18.941900 0.000000
-18.905100 0.000000
-18.868400 0.000000
-18.831700 0.000000
-18.794900 0.000000
-18.758200 0.000000
-18.721500 0.000000
-18.684700 0.000000
-18.648000 0.000000
-18.611300 0.000000
-18.574500 0.000000
-18.537800 0.000000
-18.501100 0.000000
-18.464300 0.000000
-18.427600 0.000000
-18.390800 0.000000
-18.354100 0.000000
-18.317400 0.000000
-18.280600 0.000000
-18.243900 0.000000
-18.207200 0.000000
-18.170400 0.000000
-18.133700 0.000000
-18.097000 0.000000
-18.060200 0.000000
-18.023500 0.000000
-17.986800 0.000000
-17.950000 0.000000
-17.913300 0.000000
-17.876600 0.000000
-17.839800 0.000000
-17.803100 0.000000
-17.766300 0.000000
-17.729600 0.000000
-17.692900 0.000000
-17.656100 0.000000
-17.619400 0.000000
-17.582700 0.000000
-17.545900 0.000000
-17.509200 0.000000
-17.472500 0.000000
-17.435700 0.000000
-17.399000 0.000000
-17.362300 0.000000
-17.325500 0.000000
-17.288800 0.000000
-17.252100 0.000000
-17.215300 0.000000
-17.178600 0.000000
-17.141900 0.000000
-17.105100 0.000000
-17.068400 0.000000
-17.031600 0.000000
-16.994900 0.000000
-16.958200 0.000000
-16.921400 0.000000
-16.884700 0.000000
-16.848000 0.000000
-16.811200 0.000000
-16.774500 0.000000
-16.737800 0.000000
-16.701000 0.000000
-16.664300 0.000000
-16.627600 0.000000
-16.590800 0.000000
-16.554100 0.000000
-16.517400 0.000000
-16.480600 0.000000
-16.443900 0.000000
-16.407200 0.000000
-16.370400 0.000000
-16.333700 0.000000
-16.296900 0.000000
-16.260200 0.000000
-16.223500 0.000000
-16.186700 0.000000
-16.150000 0.000000
-16.113300 0.000000
-16.076500 0.000000
-16.039800 0.000000
-16.003100 0.000000
-15.966300 0.000000
-15.929600 0.000000
-15.892900 0.000000
-15.856100 0.000000
-15.819400 0.000000
-15.782700 0.000000
-15.745900 0.000000
-15.709200 0.000000
-15.672400 0.000000
-15.635700 0.000000
-15.599000 0.000000
-15.562200 0.000000
-15.525500 0.000000
-15.488800 0.000000
-15.452000 0.000000
-15.415300 0.000000
-15.378600 0.000000
-15.341800 0.000000
-15.305100 0.000000
-15.268400 0.000000
-15.231600 0.000000
-15.194900 0.000000
-15.158200 0.000000
-15.121400 0.000000
-15.084700 0.000000
-15.048000 0.000000
-15.011200 0.000000
-14.974500 0.000000
-14.937700 0.000000
-14.901000 0.000000
-14.864300 0.000000
-14.827500 0.000000
-14.790800 0.000000
-14.754100 0.000000
-14.717300 0.000000
-14.680600 0.000000
-14.643900 0.000000
-14.607100 0.000000
-14.570400 0.000000
-14.533700 0.000000
-14.496900 0.000000
-14.460200 0.000000
-14.423500 0.000000
-14.386700 0.000000
-14.350000 0.000000
-14.313300 0.000000
-14.276500 0.000000
-14.239800 0.000000
-14.203000 0.000000
-14.166300 0.000000
-14.129600 0.000000
-14.092800 0.000000
-14.056100 0.000000
-14.019400 0.000000
-13.982600 0.000000
-13.945900 0.000000
-13.909200 0.000000
-13.872400 0.000000
-13.835700 0.000000
-13.799000 0.000000
-13.762200 0.000000
-13.725500 0.000000
-13.688800 0.000000
-13.652000 0.000000
-13.615300 0.000000
-13.578600 0.000000
-13.541800 0.000000
-13.505100 0.000000
-13.468300 0.000000
-13.431600 0.000000
-13.394900 0.000000
-13.358100 0.000000
-13.321400 0.000000
-13.284700 0.000000
-13.247900 0.000000
-13.211200 0.000000
-13.174500 0.000000
-13.137700 0.000000
-13.101000 0.000000
-13.064300 0.000000
-13.027500 0.000000
-12.990800 0.000000
-12.954100 0.000000
-12.917300 0.000000
-12.880600 0.000000
-12.843800 0.000000
-12.807100 0.000000
-12.770400 0.000000
-12.733600 0.000000
-12.696900 0.000000
-12.660200 0.000000
-12.623400 0.000000
-12.586700 0.000000
-12.550000 0.000000
-12.513200 0.000000
-12.476500 0.000000
-12.439800 0.000000
-12.403000 0.000000
-12.366300 0.000000
-12.329600 0.000000
-12.292800 0.000000
-12.256100 0.000000
-12.219400 0.000000
-12.182600 0.000000
-12.145900 0.000000
-12.109100 0.000000
-12.072400 0.000000
-12.035700 0.000000
-11.998900 0.000000
-11.962200 0.000000
-11.925500 0.000000
-11.888700 0.000000
-11.852000 0.000000
-11.815300 0.000000
-11.778500 0.000000
-11.741800 0.000000
-11.705100 0.000000
-11.668300 0.000000
-11.631600 0.000000
-11.594900 0.000000
-11.558100 0.000000
-11.521400 0.000000
-11.484700 0.000000
-11.447900 0.000000
-11.411200 0.000000
-11.374400 0.000000
-11.337700 0.000000
-11.301000 0.000000
-11.264200 0.000000
-11.227500 0.000000
-11.190800 0.000000
-11.154000 0.000000
-11.117300 0.000000
-11.080600 0.000000
-11.043800 0.000000
-11.007100 0.000000
-10.970400 0.000000
-10.933600 0.000000
-10.896900 0.000000
-10.860200 0.000000
-10.823400 0.000000
-10.786700 0.000000
-10.750000 0.000000
-10.713200 0.000000
-10.676500 0.000000
-10.639700 0.000000
-10.603000 0.000000
-10.566300 0.000000
-10.529500 0.000000
-10.492800 0.000000
-10.456100 0.000000
-10.419300 0.000000
-10.382600 0.000000
-10.345900 0.000000
-10.309100 0.000000
-10.272400 0.000000
-10.235700 0.000000
-10.198900 0.000000
-10.162200 0.000000
-10.125500 0.000000
-10.088700 0.000000
-10.052000 0.000000
-10.015200 0.000000
-9.978500 0.000000
-9.941800 0.000000
-9.905000 0.000000
-9.868300 0.000000
-9.831600 0.000000
-9.794800 0.000000
-9.758100 0.000000
-9.721400 0.000000
-9.684600 0.000000
-9.647900 0.000000
-9.611200 0.000000
-9.574400 0.000000
-9.537700 0.000000
-9.501000 0.000000
-9.464200 0.000000
-9.427500 0.000000
-9.390800 0.000000
-9.354000 0.000000
-9.317300 0.000000
-9.280500 0.000000
-9.243800 0.000000
-9.207100 0.000000
-9.170300 0.000000
-9.133600 0.000000
-9.096900 0.000000
-9.060100 0.000000
-9.023400 0.000000
-8.986700 0.000000
-8.949900 0.000000
-8.913200 0.000000
-8.876500 0.000000
-8.839700 0.000000
-8.803000 0.000000
-8.766300 0.000000
-8.729500 0.000000
-8.692800 0.000000
-8.656100 0.000000
-8.619300 0.000000
-8.582600 0.000000
-8.545800 0.000000
-8.509100 0.000000
-8.472400 0.000000
-8.435600 0.000000
-8.398900 0.000000
-8.362200 0.000000
-8.325400 0.000000
-8.288700 0.000000
-8.252000 0.000000
-8.215200 0.000000
-8.178500 0.000000
-8.141800 0.000000
-8.105000 0.000000
-8.068300 0.000000
-8.031600 0.000000
-7.994800 0.000000
-7.958100 0.000000
-7.921300 0.000000
-7.884600 0.000000
-7.847900 0.000000
-7.811100 0.000000
-7.774400 0.000000
-7.737700 0.000000
-7.700900 0.000000
-7.664200 0.000000
-7.627500 0.000000
-7.590700 0.000000
-7.554000 0.000000
-7.517300 0.000000
-7.480500 0.000000
-7.443800 0.000000
-7.407100 0.000000
-7.370300 0.000000
-7.333600 0.000000
-7.296900 0.000000
-7.260100 0.000000
-7.223400 0.000000
-7.186600 0.000000
-7.149900 0.000000
-7.113200 0.000000
-7.076400 0.000000
-7.039700 0.000000
-7.003000 0.000000
-6.966200 0.000000
-6.929500 0.000000
-6.892800 0.000000
-6.856000 0.000000
-6.819300 0.000000
-6.782600 0.000000
-6.745800 0.000000
-6.709100 0.000000
-6.672400 0.000000
-6.635600 0.000000
-6.598900 0.000000
-6.562200 0.000000
-6.525400 0.000000
-6.488700 0.000000
-6.451900 0.000000
-6.415200 0.000000
-6.378500 0.000000
-6.341700 0.000000
-6.305000 0.000000
-6.268300 0.000000
-6.231500 0.000000
-6.194800 0.000000
-6.158100 0.000000
-6.121300 0.000000
-6.084600 0.000000
-6.047900 0.000000
-6.011100 0.000000
-5.974400 0.000000
-5.937700 0.000000
-5.900900 0.000000
-5.864200 0.000000
-5.827500 0.000000
-5.790700 0.000000
-5.754000 0.000000
-5.717200 0.000000
-5.680500 0.000000
-5.643800 0.000000
-5.607000 0.000000
-5.570300 0.000000
-5.533600 0.000000
-5.496800 0.000000
-5.460100 0.000000
-5.423400 0.000000
-5.386600 0.000000
-5.349900 0.000000
-5.313200 0.000000
-5.276400 0.000000
-5.239700 0.000000
-5.203000 0.000000
-5.166200 0.000000
-5.129500 0.000000
-5.092700 0.000000
-5.056000 0.000000
-5.019300 0.000000
-4.982500 0.000000
-4.945800 0.000000
-4.909100 0.000000
-4.872300 0.000000
-4.835600 0.000000
-4.798900 0.000000
-4.762100 0.000000
-4.725400 0.000000
-4.688700 0.000000
-4.651900 0.000000
-4.615200 0.000000
-4.578500 0.000000
-4.541700 0.000000
-4.505000 0.000000
-4.468300 0.000000
-4.431500 0.000000
-4.394800 0.000000
-4.358000 0.000000
-4.321300 0.000000
-4.284600 0.000000
-4.247800 0.000000
-4.211100 0.000000
-4.174400 0.000000
-4.137600 0.000000
-4.100900 0.000000
-4.064200 0.000000
-4.027400 0.000000
-3.990700 0.000000
-3.954000 0.000000
-3.917200 0.000000
-3.880500 0.000000
-3.843800 0.000000
-3.807000 0.000000
-3.770300 0.000000
-3.733600 0.000000
-3.696800 0.000000
-3.660100 0.000000
-3.623300 0.000000
-3.586600 0.000000
-3.549900 0.000000
-3.513100 0.000000
-3.476400 0.000000
-3.439700 0.000000
-3.402900 0.000000
-3.366200 0.000000
-3.329500 0.000000
-3.292700 0.000000
-3.256000 0.000000
-3.219300 0.000000
-3.182500 0.000000
-3.145800 0.000000
-3.109100 0.000000
-3.072300 0.000000
-3.035600 0.000000
-2.998900 0.000000
-2.962100 0.000000
-2.925400 0.000000
-2.888600 0.000000
-2.851900 0.000000
-2.815200 0.000000
-2.778400 0.000000
-2.741700 0.000000
-2.705000 0.000000
-2.668200 0.000000
-2.631500 0.000000
-2.594800 0.000000
-2.558000 0.000000
-2.521300 0.000000
-2.484600 0.000000
-2.447800 0.000000
-2.411100 0.000000
-2.374400 0.000000
-2.337600 0.000000
-2.300900 0.000000
-2.264100 0.000000
-2.227400 0.000000
-2.190700 0.000000
-2.153900 0.000000
-2.117200 0.000000
-2.080500 0.000000
-2.043700 0.000000
-2.007000 0.000000
-1.970300 0.000000
-1.933500 0.000000
-1.896800 0.000000
-1.860100 0.000000
-1.823300 0.000000
-1.786600 0.000000
-1.749900 0.000000
-1.713100 0.000000
-1.676400 0.000000
-1.639700 0.000000
-1.602900 0.000000
-1.566200 0.000000
-1.529400 0.000000
-1.492700 0.000000
-1.456000 0.000000
-1.419200 0.000000
-1.382500 0.000000
-1.345800 0.000000
-1.309000 0.000000
-1.272300 0.000000
-1.235600 0.000000
-1.198800 0.000000
-1.162100 0.000000
-1.125400 0.000000
-1.088600 0.000000
-1.051900 0.000000
-1.015200 0.004100
-0.978400 0.014900
-0.941700 0.018400
-0.905000 0.023000
-0.868200 0.027900
-0.831500 0.031700
-0.794700 0.034300
-0.758000 0.036200
-0.721300 0.039100
-0.684500 0.042600
-0.647800 0.044900
-0.611100 0.048200
-0.574300 0.050800
-0.537600 0.051600
-0.500900 0.054800
-0.464100 0.057300
-0.427400 0.059800
-0.390700 0.061900
-0.353900 0.063900
-0.317200 0.066600
-0.280500 0.069700
-0.243700 0.072200
-0.207000 0.074400
-0.170300 0.076300
-0.133500 0.078400
-0.096800 0.081300
-0.060000 0.083800
-0.023300 0.086200
0.013400 0.088600
0.050200 0.091200
0.086900 0.094000
0.123600 0.097200
0.160400 0.100000
0.197100 0.102900
0.233800 0.105800
0.270600 0.108300
0.307300 0.110800
0.344000 0.113600
0.380800 0.117400
0.417500 0.120700
0.454200 0.124100
0.491000 0.127700
0.527700 0.131400
0.564500 0.135300
0.601200 0.139300
0.637900 0.143700
0.674700 0.148000
0.711400 0.152300
0.748100 0.156600
0.784900 0.161200
0.821600 0.167200
0.858300 0.173000
0.895100 0.179000
0.931800 0.185300
0.968500 0.191900
1.005300 0.199500
1.042000 0.208200
1.078700 0.217400
1.115500 0.227800
1.152200 0.238500
1.188900 0.255000
1.225700 0.361600
1.262400 0.547100
1.299200 0.659600
1.335900 0.822800
1.372600 0.957600
1.409400 0.923100
1.446100 0.949300
1.482800 0.966900
1.519600 0.974800
1.556300 0.989500
1.593000 1.006900
1.629800 1.025300
1.666500 1.038500
1.703200 1.046800
1.740000 1.056800
1.776700 1.074000
1.813400 1.095800
1.850200 1.118400
1.886900 1.141200
1.923600 1.164400
1.960400 1.186200
1.997100 1.209200
2.033900 1.240000
2.070600 1.271900
2.107300 1.312700
2.144100 1.405300
2.180800 1.494400
2.217500 1.513800
2.254300 1.532200
2.291000 1.488800
2.327700 1.472600
2.364500 1.458200
2.401200 1.438700
2.437900 1.424900
2.474700 1.439800
2.511400 1.436500
2.548100 1.515000
2.584900 1.465800
2.621600 1.434000
2.658400 1.180200
2.695100 1.004500
2.731800 0.857300
2.768600 0.759600
2.805300 0.701200
2.842000 0.627800
2.878800 0.562900
2.915500 0.537900
2.952200 0.502800
2.989000 0.479800
3.025700 0.467800
3.062400 0.459900
3.099200 0.454800
3.135900 0.437100
3.172600 0.426200
3.209400 0.894200
3.246100 1.485700
3.282800 1.664100
3.319600 1.722000
3.356300 1.913200
3.393100 2.054300
3.429800 2.221600
3.466500 2.586200
3.503300 2.825800
3.540000 2.449300
3.576700 2.235900
3.613500 1.973700
3.650200 1.798600
3.686900 1.658600
3.723700 1.540100
3.760400 1.453900
3.797100 1.412100
3.833900 1.322300
3.870600 1.236800
3.907300 1.187600
3.944100 1.186000
3.980800 1.184300
4.017500 1.187400
4.054300 1.189400
4.091000 1.200500
4.127800 1.133000
4.164500 1.084800
4.201200 1.087200
4.238000 1.119700
4.274700 1.154600
4.311400 1.182900
4.348200 1.236200
4.384900 1.313600
4.421600 1.416100
4.458400 1.536100
4.495100 1.713800
4.531800 2.027800
4.568600 2.177200
4.605300 2.456600
4.642000 2.471800
4.678800 2.418600
4.715500 2.146800
4.752200 1.989300
4.789000 1.793500
4.825700 1.635100
4.862500 1.529800
4.899200 1.436400
4.935900 1.356600
4.972700 1.313200
5.009400 1.264400
5.046100 1.215900
5.082900 1.209600
5.119600 1.099500
5.156300 0.974000
5.193100 0.760400
5.229800 0.630300
5.266500 0.613100
5.303300 0.585200
5.340000 0.563300
5.376700 0.546900
5.413500 0.531600
5.450200 0.522700
5.487000 0.496900
5.523700 0.485400
5.560400 0.483900
5.597200 0.478900
5.633900 0.474200
5.670600 0.468900
5.707400 0.462700
5.744100 0.464300
5.780800 0.459200
5.817600 0.450700
5.854300 0.450300
5.891000 0.454500
5.927800 0.459100
5.964500 0.463600
6.001200 0.469000
6.038000 0.473500
6.074700 0.478600
6.111400 0.469800
6.148200 0.468000
6.184900 0.468200
6.221700 0.476500
6.258400 0.485700
6.295100 0.495600
6.331900 0.503300
6.368600 0.512700
6.405300 0.527200
6.442100 0.542000
6.478800 0.559900
6.515500 0.582400
6.552300 0.633300
6.589000 0.731000
6.625700 0.819600
6.662500 0.911800
6.699200 0.938900
6.735900 0.912100
6.772700 0.880100
6.809400 0.893000
6.846100 0.910000
6.882900 0.922300
6.919600 0.925100
6.956400 0.941000
6.993100 0.935700
7.029800 0.950500
7.066600 0.969800
7.103300 0.989600
7.140000 1.012500
7.176800 1.036400
7.213500 1.065400
7.250200 1.092000
7.287000 1.125100
7.323700 1.149200
7.360400 1.183500
7.397200 1.219900
7.433900 1.277600
7.470600 1.322100
7.507400 1.313300
7.544100 1.306600
7.580800 1.311900
7.617600 1.347600
7.654300 1.352300
7.691100 1.335000
7.727800 1.309900
7.764500 1.331400
7.801300 1.320700
7.838000 1.324100
7.874700 1.321600
7.911500 1.319700
7.948200 1.389200
7.984900 1.451000
8.021700 1.518400
8.058400 1.727700
8.095100 1.760200
8.131900 1.597000
8.168600 1.520800
8.205300 1.480200
8.242100 1.435900
8.278800 1.411500
8.315600 1.355300
8.352300 1.325800
8.389000 1.357100
8.425800 1.358900
8.462500 1.380500
8.499200 1.438800
8.536000 1.505100
8.572700 1.586600
8.609400 1.704700
8.646200 1.778300
8.682900 1.983600
8.719600 2.262800
8.756400 2.702300
8.793100 4.023500
8.829800 4.515000
8.866600 2.519600
8.903300 1.874800
8.940000 1.674700
8.976800 1.455000
9.013500 1.327000
9.050300 1.244800
9.087000 1.174500
9.123700 1.122000
9.160500 1.083700
9.197200 1.047500
9.233900 1.007000
9.270700 0.961200
9.307400 0.904500
9.344100 0.881300
9.380900 0.863900
9.417600 0.847800
9.454300 0.825500
9.491100 0.808700
9.527800 0.797000
9.564500 0.787600
9.601300 0.773600
9.638000 0.757800
9.674700 0.736500
9.711500 0.733800
9.748200 0.705600
9.785000 0.696100
9.821700 0.687500
9.858400 0.672100
9.895200 0.658100
9.931900 0.650000
9.968600 0.661000
10.005400 0.648000
10.042100 0.644700
10.078800 0.640500
10.115600 0.635300
10.152300 0.624200
10.189000 0.628800
10.225800 0.655400
10.262500 0.641200
10.299200 0.556900
10.336000 0.519600
10.372700 0.499800
10.409500 0.467100
10.446200 0.447700
10.482900 0.433900
10.519700 0.424500
10.556400 0.406900
10.593100 0.389200
10.629900 0.372100
10.666600 0.358600
10.703300 0.347800
10.740100 0.340900
10.776800 0.332700
10.813500 0.329100
10.850300 0.334100
10.887000 0.339300
10.923700 0.349700
10.960500 0.362200
10.997200 0.423900
11.033900 0.420600
11.070700 0.409800
11.107400 0.398600
11.144200 0.386300
11.180900 0.368800
11.217600 0.363200
11.254400 0.357900
11.291100 0.354200
11.327800 0.351300
11.364600 0.348600
11.401300 0.346400
11.438000 0.341800
11.474800 0.339300
11.511500 0.337000
11.548200 0.335700
11.585000 0.334400
11.621700 0.331700
11.658400 0.329800
11.695200 0.328200
11.731900 0.326500
11.768600 0.324600
11.805400 0.322600
11.842100 0.320600
11.878900 0.318700
11.915600 0.317200
11.952300 0.315800
11.989100 0.314600
12.025800 0.313400
12.062500 0.312300
12.099300 0.311200
12.136000 0.310100
12.172700 0.308900
12.209500 0.307700
12.246200 0.307300
12.282900 0.305200
12.319700 0.303500
12.356400 0.301800
12.393100 0.300400
12.429900 0.299300
12.466600 0.298400
12.503300 0.297400
12.540100 0.296200
12.576800 0.294800
12.613600 0.293400
12.650300 0.292000
12.687000 0.290500
12.723800 0.288900
12.760500 0.289000
12.797200 0.289200
12.834000 0.285500
12.870700 0.282600
12.907400 0.280800
12.944200 0.278900
12.980900 0.277300
13.017600 0.275800
13.054400 0.274400
13.091100 0.273200
13.127800 0.272300
13.164600 0.271500
13.201300 0.270300
13.238100 0.268600
13.274800 0.266700
13.311500 0.264700
13.348300 0.262600
13.385000 0.261100
13.421700 0.259800
13.458500 0.258700
13.495200 0.257300
13.531900 0.255200
13.568700 0.253000
13.605400 0.251100
13.642100 0.249000
13.678900 0.246000
13.715600 0.242700
13.752300 0.239200
13.789100 0.239900
13.825800 0.237400
13.862500 0.234200
13.899300 0.230300
13.936000 0.225900
13.972800 0.219600
14.009500 0.213400
14.046200 0.208800
14.083000 0.205900
14.119700 0.200700
14.156400 0.204600
14.193200 0.191200
14.229900 0.170400
14.266600 0.175700
14.303400 0.175000
14.340100 0.174100
14.376800 0.173100
14.413600 0.172000
14.450300 0.180400
14.487000 0.192400
14.523800 0.208400
14.560500 0.237100
14.597200 0.270500
14.634000 0.321300
14.670700 0.288600
14.707500 0.196200
14.744200 0.164600
14.780900 0.151700
14.817700 0.136700
14.854400 0.122000
14.891100 0.096800
14.927900 0.088500
14.964600 0.081100
15.001300 0.077000
15.038100 0.075700
15.074800 0.119500
15.111500 0.155200
15.148300 0.196100
15.185000 0.229100
15.221700 0.271800
15.258500 0.299300
15.295200 0.317100
15.331900 0.342400
15.368700 0.360500
15.405400 0.380500
15.442200 0.431000
15.478900 0.457500
15.515600 0.444700
15.552400 0.444900
15.589100 0.449100
15.625800 0.463700
15.662600 0.486000
15.699300 0.528200
15.736000 0.557000
15.772800 0.523700
15.809500 0.514500
15.846200 0.492400
15.883000 0.500400
15.919700 0.505200
15.956400 0.507100
15.993200 0.510400
16.029900 0.517300
16.066700 0.521600
16.103400 0.530100
16.140100 0.535200
16.176900 0.540500
16.213600 0.554500
16.250300 0.565300
16.287100 0.577000
16.323800 0.596300
16.360500 0.595400
16.397300 0.603000
16.434000 0.605900
16.470700 0.625400
16.507500 0.640500
16.544200 0.662600
16.580900 0.661300
16.617700 0.661600
16.654400 0.663900
16.691100 0.655200
16.727900 0.626500
16.764600 0.606900
16.801400 0.593100
16.838100 0.582500
16.874800 0.573500
16.911600 0.569100
16.948300 0.565100
16.985000 0.561600
17.021800 0.557900
17.058500 0.556200
17.095200 0.554100
17.132000 0.554500
17.168700 0.553100
17.205400 0.552200
17.242200 0.551700
17.278900 0.556500
17.315600 0.579200
17.352400 0.596600
17.389100 0.617000
17.425800 0.634800
17.462600 0.651500
17.499300 0.652500
17.536100 0.662400
17.572800 0.676200
17.609500 0.692400
17.646300 0.711100
17.683000 0.728600
17.719700 0.742300
17.756500 0.760100
17.793200 0.780800
17.829900 0.805600
17.866700 0.830600
17.903400 0.903800
17.940100 0.963200
17.976900 0.971000
18.013600 0.964700
18.050300 0.981100
18.087100 0.924400
18.123800 0.890700
18.160600 0.878000
18.197300 0.871400
18.234000 0.863100
18.270800 0.855900
18.307500 0.850400
18.344200 0.842300
18.381000 0.834600
18.417700 0.830700
18.454400 0.826400
18.491200 0.818700
18.527900 0.812700
18.564600 0.807400
18.601400 0.801700
18.638100 0.798500
18.674800 0.795900
18.711600 0.792700
18.748300 0.788800
18.785000 0.787300
18.821800 0.784400
18.858500 0.773900
18.895300 0.769600
18.932000 0.765700
18.968700 0.761600
19.005500 0.757200
19.042200 0.752100
19.078900 0.747600
19.115700 0.743100
19.152400 0.738500
19.189100 0.733600
19.225900 0.729200
19.262600 0.725900
19.299300 0.722700
19.336100 0.719400
19.372800 0.715300
19.409500 0.711600
19.446300 0.708400
19.483000 0.705700
19.519700 0.702200
19.556500 0.698000
19.593200 0.692200
19.630000 0.691200
19.666700 0.686700
19.703400 0.680500
19.740200 0.673800
19.776900 0.666700
19.813600 0.660300
19.850400 0.655200
19.887100 0.650000
19.923800 0.644000
19.960600 0.637400
19.997300 0.636500
20.034000 0.616300
20.070800 0.602700
20.107500 0.595600
20.144200 0.588700
20.181000 0.582200
20.217700 0.575800
20.254400 0.569700
20.291200 0.564600
20.327900 0.566400
20.364700 0.577900
20.401400 0.587500
20.438100 0.603700
20.474900 0.623800
20.511600 0.624500
20.548300 0.636400
20.585100 0.651300
20.621800 0.668000
20.658500 0.686200
20.695300 0.701100
20.732000 0.733700
20.768700 0.774400
20.805500 0.796100
20.842200 0.786600
20.878900 0.782000
20.915700 0.777800
20.952400 0.780400
20.989200 0.786400
21.025900 0.792300
21.062600 0.802900
21.099400 0.821200
21.136100 0.771300
21.172800 0.763700
21.209600 0.773900
21.246300 0.786900
21.283000 0.822100
21.319800 0.843700
21.356500 0.861900
21.393200 0.876700
21.430000 0.885000
21.466700 0.892300
21.503400 0.913900
21.540200 0.950300
21.576900 1.022200
21.613600 1.047000
21.650400 1.056300
21.687100 1.040800
21.723900 1.019100
21.760600 0.913500
21.797300 0.820600
21.834100 0.808100
21.870800 0.795500
21.907500 0.799000
21.944300 0.785700
21.981000 0.769400
22.017700 0.760800
22.054500 0.762600
22.091200 0.768400
22.127900 0.750400
22.164700 0.731400
22.201400 0.715300
22.238100 0.700600
22.274900 0.688300
22.311600 0.675500
22.348300 0.669000
22.385100 0.662900
22.421800 0.662000
22.458600 0.658300
22.495300 0.650100
22.532000 0.644500
22.568800 0.639700
22.605500 0.633800
22.642200 0.624200
22.679000 0.621300
22.715700 0.607100
22.752400 0.591500
22.789200 0.575100
22.825900 0.556800
22.862600 0.538900
22.899400 0.523300
22.936100 0.512900
22.972800 0.501700
23.009600 0.482300
23.046300 0.474200
23.083000 0.467200
23.119800 0.462500
23.156500 0.458800
23.193300 0.456200
23.230000 0.450400
23.266700 0.448000
23.303500 0.449700
23.340200 0.450500
23.376900 0.455900
23.413700 0.459200
23.450400 0.461800
23.487100 0.463100
23.523900 0.474500
23.560600 0.478500
23.597300 0.486300
23.634100 0.502000
23.670800 0.507800
23.707500 0.521500
23.744300 0.538300
23.781000 0.562800
23.817800 0.568500
23.854500 0.577600
23.891200 0.593300
23.928000 0.612200
23.964700 0.644500
24.001400 0.685200
24.038200 0.738200
24.074900 0.677200
24.111600 0.622800
24.148400 0.608600
24.185100 0.626100
24.221800 0.626500
24.258600 0.634700
24.295300 0.656100
24.332000 0.674000
24.368800 0.707400
24.405500 0.751300
24.442200 0.780500
24.479000 0.827100
24.515700 0.949700
24.552500 1.025700
24.589200 1.091200
24.625900 1.237200
24.662700 1.230700
24.699400 1.073200
24.736100 0.969300
24.772900 0.907300
24.809600 0.853300
24.846300 0.818800
24.883100 0.794000
24.919800 0.772500
24.956500 0.752700
24.993300 0.733900
25.030000 0.718200
25.066700 0.691500
25.103500 0.677500
25.140200 0.661000
25.176900 0.643200
25.213700 0.626000
25.250400 0.624700
25.287200 0.643400
25.323900 0.654800
25.360600 0.606800
25.397400 0.583800
25.434100 0.576500
25.470800 0.571100
25.507600 0.563400
25.544300 0.556500
25.581000 0.550300
25.617800 0.547400
25.654500 0.548200
25.691200 0.550800
25.728000 0.551100
25.764700 0.551300
25.801400 0.556900
25.838200 0.556600
25.874900 0.556100
25.911600 0.555500
25.948400 0.554700
25.985100 0.553900
26.021900 0.552900
26.058600 0.552900
26.095300 0.551900
26.132100 0.550900
26.168800 0.550300
26.205500 0.550200
26.242300 0.550600
26.279000 0.547700
26.315700 0.547700
26.352500 0.555500
26.389200 0.554000
26.425900 0.554300
26.462700 0.554300
26.499400 0.555600
26.536100 0.553800
26.572900 0.549500
26.609600 0.540300
26.646400 0.530600
26.683100 0.512200
26.719800 0.494300
26.756600 0.478900
26.793300 0.465000
26.830000 0.457300
26.866800 0.456300
26.903500 0.457700
26.940200 0.460400
26.977000 0.462500
27.013700 0.466300
27.050400 0.469500
27.087200 0.470600
27.123900 0.481100
27.160600 0.483200
27.197400 0.484300
27.234100 0.492500
27.270800 0.503000
27.307600 0.516100
27.344300 0.531300
27.381100 0.551900
27.417800 0.580800
27.454500 0.606400
27.491300 0.621900
27.528000 0.633700
27.564700 0.641600
27.601500 0.646300
27.638200 0.650000
27.674900 0.661000
27.711700 0.673300
27.748400 0.674900
27.785100 0.670600
27.821900 0.669500
27.858600 0.665400
27.895300 0.655600
27.932100 0.649400
27.968800 0.648100
28.005500 0.651800
28.042300 0.617500
28.079000 0.587300
28.115800 0.566500
28.152500 0.570500
28.189200 0.580300
28.226000 0.586800
28.262700 0.599000
28.299400 0.616600
28.336200 0.641800
28.372900 0.674000
28.409600 0.711700
28.446400 0.761100
28.483100 0.815800
28.519800 0.894300
28.556600 0.911300
28.593300 0.951700
28.630000 0.990400
28.666800 1.034600
28.703500 1.061700
28.740300 1.017600
28.777000 0.972300
28.813700 0.914600
28.850500 0.867800
28.887200 0.835000
28.923900 0.806200
28.960700 0.776700
28.997400 0.753200
29.034100 0.735000
29.070900 0.723800
29.107600 0.715500
29.144300 0.708100
29.181100 0.703600
29.217800 0.700900
29.254500 0.705600
29.291300 0.748000
29.328000 0.715900
29.364700 0.718100
29.401500 0.723400
29.438200 0.731900
29.475000 0.729400
29.511700 0.725600
29.548400 0.725500
29.585200 0.726800
29.621900 0.726900
29.658600 0.724500
29.695400 0.723200
29.732100 0.717700
29.768800 0.713200
29.805600 0.708000
29.842300 0.702900
29.879000 0.694400
29.915800 0.684000
29.952500 0.676400
29.989200 0.670000
30.026000 0.670300
30.062700 0.669000
30.099400 0.665900
30.136200 0.665000
30.172900 0.663900
30.209700 0.662500
30.246400 0.658800
30.283100 0.658100
30.319900 0.660300
30.356600 0.661000
30.393300 0.665300
30.430100 0.673800
30.466800 0.671400
30.503500 0.666800
30.540300 0.667000
30.577000 0.675500
30.613700 0.662500
30.650500 0.664000
30.687200 0.668400
30.723900 0.688000
30.760700 0.685200
30.797400 0.724400
30.834100 0.721300
30.870900 0.709000
30.907600 0.694300
30.944400 0.681400
30.981100 0.674200
31.017800 0.660300
31.054600 0.641300
31.091300 0.621800
31.128000 0.610700
31.164800 0.603000
31.201500 0.601900
31.238200 0.602200
31.275000 0.619800
31.311700 0.626600
31.348400 0.621400
31.385200 0.626200
31.421900 0.631000
31.458600 0.635200
31.495400 0.643400
31.532100 0.653100
31.568900 0.662600
31.605600 0.678000
31.642300 0.699200
31.679100 0.718300
31.715800 0.739200
31.752500 0.762900
31.789300 0.786800
31.826000 0.807800
31.862700 0.814700
31.899500 0.825100
31.936200 0.836200
31.972900 0.850400
32.009700 0.868200
32.046400 0.880900
32.083100 0.888000
32.119900 0.900800
32.156600 0.901300
32.193300 0.904200
32.230100 0.926600
32.266800 0.929700
32.303600 0.924500
32.340300 0.916500
32.377000 0.905200
32.413800 0.902500
32.450500 0.907000
32.487200 0.909900
32.524000 0.908400
32.560700 0.918400
32.597400 0.887600
32.634200 0.866900
32.670900 0.850200
32.707600 0.871800
32.744400 0.887100
32.781100 0.890600
32.817800 0.897000
32.854600 0.901600
32.891300 0.899800
32.928000 0.888400
32.964800 0.891700
33.001500 0.900100
33.038300 0.909600
33.075000 0.918500
33.111700 0.925700
33.148500 0.930500
33.185200 0.932600
33.221900 0.923500
33.258700 0.917300
33.295400 0.913700
33.332100 0.906200
33.368900 0.905200
33.405600 0.911400
33.442300 0.915800
33.479100 0.958500
33.515800 0.914700
33.552500 0.889800
33.589300 0.873800
33.626000 0.866500
33.662700 0.856200
33.699500 0.840500
33.736200 0.827700
33.773000 0.817000
33.809700 0.809300
33.846400 0.799000
33.883200 0.790600
33.919900 0.773600
33.956600 0.759500
33.993400 0.748900
34.030100 0.737800
34.066800 0.728000
34.103600 0.718200
34.140300 0.709600
34.177000 0.702000
34.213800 0.692900
34.250500 0.684400
34.287200 0.682400
34.324000 0.686800
34.360700 0.698300
34.397500 0.691300
34.434200 0.679600
34.470900 0.674400
34.507700 0.668700
34.544400 0.663400
34.581100 0.659600
34.617900 0.673800
34.654600 0.680200
34.691300 0.688300
34.728100 0.640400
34.764800 0.597600
34.801500 0.567600
34.838300 0.543200
34.875000 0.520300
34.911700 0.499100
34.948500 0.478100
34.985200 0.457200
35.021900 0.438400
35.058700 0.421500
35.095400 0.404800
35.132200 0.391400
35.168900 0.374200
35.205600 0.353800
35.242400 0.317000
35.279100 0.291100
35.315800 0.277800
35.352600 0.264100
35.389300 0.252900
35.426000 0.242300
35.462800 0.233900
35.499500 0.225000
35.536200 0.216700
35.573000 0.208500
35.609700 0.200700
35.646400 0.190900
35.683200 0.180300
35.719900 0.172000
35.756600 0.165300
35.793400 0.156300
35.830100 0.146000
35.866900 0.136900
35.903600 0.128800
35.940300 0.122200
35.977100 0.116200
36.013800 0.108700
36.050500 0.100100
36.087300 0.102000
36.124000 0.087400
36.160700 0.073300
36.197500 0.059400
36.234200 0.044900
36.270900 0.037900
36.307700 0.033600
36.344400 0.030300
36.381100 0.028100
36.417900 0.026800
36.454600 0.026300
36.491400 0.025900
36.528100 0.025600
36.564800 0.025200
36.601600 0.024800
36.638300 0.024500
36.675000 0.024100
36.711800 0.023800
36.748500 0.023400
36.785200 0.023100
36.822000 0.022900
36.858700 0.022600
36.895400 0.022300
36.932200 0.022000
36.968900 0.021700
37.005600 0.021400
37.042400 0.021000
37.079100 0.020700
37.115800 0.020300
37.152600 0.019900
37.189300 0.019600
37.226100 0.019200
37.262800 0.018200
37.299500 0.017700
37.336300 0.017400
37.373000 0.017100
37.409700 0.016900
37.446500 0.016700
37.483200 0.016400
37.519900 0.016200
37.556700 0.016000
37.593400 0.015800
37.630100 0.015500
37.666900 0.015300
37.703600 0.015100
37.740300 0.014900
37.777100 0.014700
37.813800 0.014400
37.850500 0.014200
37.887300 0.014000
37.924000 0.013800
37.960800 0.013600
37.997500 0.013400
38.034200 0.013200
38.071000 0.013000
38.107700 0.012800
38.144400 0.012600
38.181200 0.012400
38.217900 0.012200
38.254600 0.012000
38.291400 0.011800
38.328100 0.011900
38.364800 0.011700
38.401600 0.011500
38.438300 0.011300
38.475000 0.011200
38.511800 0.011100
38.548500 0.010900
38.585200 0.010800
38.622000 0.010600
38.658700 0.010500
38.695500 0.010300
38.732200 0.010100
38.768900 0.009900
38.805700 0.008800
38.842400 0.008500
38.879100 0.008400
38.915900 0.008200
38.952600 0.008100
38.989300 0.008000
39.026100 0.007800
39.062800 0.007700
39.099500 0.007600
39.136300 0.007400
39.173000 0.007300
39.209700 0.007200
39.246500 0.007100
39.283200 0.006900
39.320000 0.006800
39.356700 0.006700
39.393400 0.006600
39.430200 0.006400
39.466900 0.006300
39.503600 0.006200
39.540400 0.006100
39.577100 0.006000
39.613800 0.005900
39.650600 0.005700
39.687300 0.005600
39.724000 0.005500
39.760800 0.005400
39.797500 0.005300
39.834200 0.005200
39.871000 0.005100
39.907700 0.005100
39.944400 0.005100
39.981200 0.005100
40.017900 0.005100
40.054700 0.005200
40.091400 0.005300
40.128100 0.009400
40.164900 0.009400
40.201600 0.007000
40.238300 0.006300
40.275100 0.005800
40.311800 0.005300
40.348500 0.004800
40.385300 0.004300
40.422000 0.003800
40.458700 0.003300
40.495500 0.002800
40.532200 0.002400
40.568900 0.001900
40.605700 0.001500
40.642400 0.000000
40.679100 0.000000
40.715900 0.000000
40.752600 0.000000
40.789400 0.000000
40.826100 0.000000
40.862800 0.000000
40.899600 0.000000
40.936300 0.000000
40.973000 0.000000
41.009800 0.000000
41.046500 0.000000
41.083200 0.000000
41.120000 0.000000
41.156700 0.000000
41.193400 0.000000
41.230200 0.000000
41.266900 0.000000
41.303600 0.000000
41.340400 0.000000
41.377100 0.000000
41.413800 0.000000
41.450600 0.000000
41.487300 0.000000
41.524100 0.000000
41.560800 0.000000
41.597500 0.000000
41.634300 0.000000
41.671000 0.000000
41.707700 0.000000
41.744500 0.000000
41.781200 0.000000
41.817900 0.000000
41.854700 0.000000
41.891400 0.000000
41.928100 0.000000
41.964900 0.000000
42.001600 0.000000
42.038300 0.000000
42.075100 0.000000
42.111800 0.000000
42.148600 0.000000
42.185300 0.000000
42.222000 0.000000
42.258800 0.000000
42.295500 0.000000
42.332200 0.000000
42.369000 0.000000
42.405700 0.000000
42.442400 0.000000
42.479200 0.000000
42.515900 0.000000
42.552600 0.000000
42.589400 0.000000
42.626100 0.000000
42.662800 0.000000
42.699600 0.000000
42.736300 0.000000
42.773000 0.000000
42.809800 0.000000
42.846500 0.000000
42.883300 0.000000
42.920000 0.000000
42.956700 0.000000
42.993500 0.000000
43.030200 0.000000
43.066900 0.000000
43.103700 0.000000
43.140400 0.000000
43.177100 0.000000
43.213900 0.000000
43.250600 0.000000
43.287300 0.000000
43.324100 0.000000
43.360800 0.000000
43.397500 0.000000
43.434300 0.000000
43.471000 0.000000
43.507700 0.000000
43.544500 0.000000
43.581200 0.000000
43.618000 0.000000
43.654700 0.000000
43.691400 0.000000
43.728200 0.000000
43.764900 0.000000
43.801600 0.000000
43.838400 0.000000
43.875100 0.000000
43.911800 0.000000
43.948600 0.000000
e
