set title 'mp-1184183 - Density of States'
set xlabel 'Energy (eV)'
set ylabel 'DOS (states/eV)'
set grid
set xrange [-10:10]
set yrange [0:15.115]
set xzeroaxis lt -1
set terminal png size 800,600
set output 'mp-1184183_dos_gnuplot.png'
plot '-' using 1:2 with lines title 'DOS'
-68.302400 0.000000
-68.245800 0.000000
-68.189100 0.000000
-68.132400 0.000000
-68.075700 0.000000
-68.019000 0.000000
-67.962300 0.000000
-67.905600 0.000000
-67.848900 0.000000
-67.792200 0.000000
-67.735600 0.000000
-67.678900 0.000000
-67.622200 0.000000
-67.565500 0.000000
-67.508800 0.000000
-67.452100 0.000000
-67.395400 0.000000
-67.338700 0.000000
-67.282000 0.000000
-67.225400 0.000000
-67.168700 0.000000
-67.112000 0.000000
-67.055300 0.000000
-66.998600 0.000000
-66.941900 0.000000
-66.885200 0.000000
-66.828500 0.000000
-66.771900 0.000000
-66.715200 0.000000
-66.658500 0.000000
-66.601800 0.000000
-66.545100 0.000000
-66.488400 0.000000
-66.431700 0.000000
-66.375000 0.000000
-66.318300 0.000000
-66.261700 0.000000
-66.205000 0.000000
-66.148300 0.000000
-66.091600 0.000000
-66.034900 0.000000
-65.978200 0.000000
-65.921500 0.000000
-65.864800 0.000000
-65.808100 0.000000
-65.751500 0.000000
-65.694800 0.000000
-65.638100 0.000000
-65.581400 0.000000
-65.524700 0.000000
-65.468000 0.000000
-65.411300 0.000000
-65.354600 0.000000
-65.298000 0.000000
-65.241300 0.000000
-65.184600 0.000000
-65.127900 0.000000
-65.071200 0.000000
-65.014500 0.000000
-64.957800 0.000000
-64.901100 0.000000
-64.844400 0.000000
-64.787800 0.000000
-64.731100 0.000000
-64.674400 0.000000
-64.617700 0.000000
-64.561000 0.000000
-64.504300 0.000000
-64.447600 0.000000
-64.390900 0.000000
-64.334200 0.000000
-64.277600 0.000000
-64.220900 0.000000
-64.164200 0.000000
-64.107500 0.000000
-64.050800 0.000000
-63.994100 0.000000
-63.937400 0.000000
-63.880700 0.000000
-63.824100 0.000000
-63.767400 0.000000
-63.710700 0.000000
-63.654000 0.000000
-63.597300 0.000000
-63.540600 0.000000
-63.483900 0.000000
-63.427200 0.000000
-63.370500 0.000000
-63.313900 0.000100
-63.257200 0.086900
-63.200500 6.198800
-63.143800 47.708000
-63.087100 46.147600
-63.030400 5.625200
-62.973700 0.075000
-62.917000 0.000100
-62.860400 0.000000
-62.803700 0.000000
-62.747000 0.000000
-62.690300 0.000000
-62.633600 0.000000
-62.576900 0.000000
-62.520200 0.000000
-62.463500 0.000000
-62.406800 0.000000
-62.350200 0.000000
-62.293500 0.000000
-62.236800 0.000000
-62.180100 0.000000
-62.123400 0.000000
-62.066700 0.000000
-62.010000 0.000000
-61.953300 0.000000
-61.896600 0.000000
-61.840000 0.000000
-61.783300 0.000000
-61.726600 0.000000
-61.669900 0.000000
-61.613200 0.000000
-61.556500 0.000000
-61.499800 0.000000
-61.443100 0.000000
-61.386500 0.000000
-61.329800 0.000000
-61.273100 0.000000
-61.216400 0.000000
-61.159700 0.000000
-61.103000 0.000000
-61.046300 0.000000
-60.989600 0.000000
-60.932900 0.000000
-60.876300 0.000000
-60.819600 0.000000
-60.762900 0.000000
-60.706200 0.000000
-60.649500 0.000000
-60.592800 0.000000
-60.536100 0.000000
-60.479400 0.000000
-60.422700 0.000000
-60.366100 0.000000
-60.309400 0.000000
-60.252700 0.000000
-60.196000 0.000000
-60.139300 0.000000
-60.082600 0.000000
-60.025900 0.000000
-59.969200 0.000000
-59.912600 0.000000
-59.855900 0.000000
-59.799200 0.000000
-59.742500 0.000000
-59.685800 0.000000
-59.629100 0.000000
-59.572400 0.000000
-59.515700 0.000000
-59.459000 0.000000
-59.402400 0.000000
-59.345700 0.000000
-59.289000 0.000000
-59.232300 0.000000
-59.175600 0.000000
-59.118900 0.000000
-59.062200 0.000000
-59.005500 0.000000
-58.948800 0.000000
-58.892200 0.000000
-58.835500 0.000000
-58.778800 0.000000
-58.722100 0.000000
-58.665400 0.000000
-58.608700 0.000000
-58.552000 0.000000
-58.495300 0.000000
-58.438700 0.000000
-58.382000 0.000000
-58.325300 0.000000
-58.268600 0.000000
-58.211900 0.000000
-58.155200 0.000000
-58.098500 0.000000
-58.041800 0.000000
-57.985100 0.000000
-57.928500 0.000000
-57.871800 0.000000
-57.815100 0.000000
-57.758400 0.000000
-57.701700 0.000000
-57.645000 0.000000
-57.588300 0.000000
-57.531600 0.000000
-57.475000 0.000000
-57.418300 0.000000
-57.361600 0.000000
-57.304900 0.000000
-57.248200 0.000000
-57.191500 0.000000
-57.134800 0.000000
-57.078100 0.000000
-57.021400 0.000000
-56.964800 0.000000
-56.908100 0.000000
-56.851400 0.000000
-56.794700 0.000000
-56.738000 0.000000
-56.681300 0.000000
-56.624600 0.000000
-56.567900 0.000000
-56.511200 0.000000
-56.454600 0.000000
-56.397900 0.000000
-56.341200 0.000000
-56.284500 0.000000
-56.227800 0.000000
-56.171100 0.000000
-56.114400 0.000000
-56.057700 0.000000
-56.001100 0.000000
-55.944400 0.000000
-55.887700 0.000000
-55.831000 0.000000
-55.774300 0.000000
-55.717600 0.000000
-55.660900 0.000000
-55.604200 0.000000
-55.547500 0.000000
-55.490900 0.000000
-55.434200 0.000000
-55.377500 0.000000
-55.320800 0.000000
-55.264100 0.000000
-55.207400 0.000000
-55.150700 0.000000
-55.094000 0.000000
-55.037300 0.000000
-54.980700 0.000000
-54.924000 0.000000
-54.867300 0.000000
-54.810600 0.000000
-54.753900 0.000000
-54.697200 0.000000
-54.640500 0.000000
-54.583800 0.000000
-54.527200 0.000000
-54.470500 0.000000
-54.413800 0.000000
-54.357100 0.000000
-54.300400 0.000000
-54.243700 0.000000
-54.187000 0.000000
-54.130300 0.000000
-54.073600 0.000000
-54.017000 0.000000
-53.960300 0.000000
-53.903600 0.000000
-53.846900 0.000000
-53.790200 0.000000
-53.733500 0.000000
-53.676800 0.000000
-53.620100 0.000000
-53.563400 0.000000
-53.506800 0.000000
-53.450100 0.000000
-53.393400 0.000000
-53.336700 0.000000
-53.280000 0.000000
-53.223300 0.000000
-53.166600 0.000000
-53.109900 0.000000
-53.053300 0.000000
-52.996600 0.000000
-52.939900 0.000000
-52.883200 0.000000
-52.826500 0.000000
-52.769800 0.000000
-52.713100 0.000000
-52.656400 0.000000
-52.599700 0.000000
-52.543100 0.000000
-52.486400 0.000000
-52.429700 0.000000
-52.373000 0.000000
-52.316300 0.000000
-52.259600 0.000000
-52.202900 0.000000
-52.146200 0.000000
-52.089600 0.000000
-52.032900 0.000000
-51.976200 0.000000
-51.919500 0.000000
-51.862800 0.000000
-51.806100 0.000000
-51.749400 0.000000
-51.692700 0.000000
-51.636000 0.000000
-51.579400 0.000000
-51.522700 0.000000
-51.466000 0.000000
-51.409300 0.000000
-51.352600 0.000000
-51.295900 0.000000
-51.239200 0.000000
-51.182500 0.000000
-51.125800 0.000000
-51.069200 0.000000
-51.012500 0.000000
-50.955800 0.000000
-50.899100 0.000000
-50.842400 0.000000
-50.785700 0.000000
-50.729000 0.000000
-50.672300 0.000000
-50.615700 0.000000
-50.559000 0.000000
-50.502300 0.000000
-50.445600 0.000000
-50.388900 0.000000
-50.332200 0.000000
-50.275500 0.000000
-50.218800 0.000000
-50.162100 0.000000
-50.105500 0.000000
-50.048800 0.000000
-49.992100 0.000000
-49.935400 0.000000
-49.878700 0.000000
-49.822000 0.000000
-49.765300 0.000000
-49.708600 0.000000
-49.651900 0.000000
-49.595300 0.000000
-49.538600 0.000000
-49.481900 0.000000
-49.425200 0.000000
-49.368500 0.000000
-49.311800 0.000000
-49.255100 0.000000
-49.198400 0.000000
-49.141800 0.000000
-49.085100 0.000000
-49.028400 0.000000
-48.971700 0.000000
-48.915000 0.000000
-48.858300 0.000000
-48.801600 0.000000
-48.744900 0.000000
-48.688200 0.000000
-48.631600 0.000000
-48.574900 0.000000
-48.518200 0.000000
-48.461500 0.000000
-48.404800 0.000000
-48.348100 0.000000
-48.291400 0.000000
-48.234700 0.000000
-48.178000 0.000000
-48.121400 0.000000
-48.064700 0.000000
-48.008000 0.000000
-47.951300 0.000000
-47.894600 0.000000
-47.837900 0.000000
-47.781200 0.000000
-47.724500 0.000000
-47.667900 0.000000
-47.611200 0.000000
-47.554500 0.000000
-47.497800 0.000000
-47.441100 0.000000
-47.384400 0.000000
-47.327700 0.000000
-47.271000 0.000000
-47.214300 0.000000
-47.157700 0.000000
-47.101000 0.000000
-47.044300 0.000000
-46.987600 0.000000
-46.930900 0.000000
-46.874200 0.000000
-46.817500 0.000000
-46.760800 0.000000
-46.704200 0.000000
-46.647500 0.000000
-46.590800 0.000000
-46.534100 0.000000
-46.477400 0.000000
-46.420700 0.000000
-46.364000 0.000000
-46.307300 0.000000
-46.250600 0.000000
-46.194000 0.000000
-46.137300 0.000000
-46.080600 0.000000
-46.023900 0.000000
-45.967200 0.000000
-45.910500 0.000000
-45.853800 0.000000
-45.797100 0.000000
-45.740400 0.000000
-45.683800 0.000000
-45.627100 0.000000
-45.570400 0.000000
-45.513700 0.000000
-45.457000 0.000000
-45.400300 0.000000
-45.343600 0.000000
-45.286900 0.000000
-45.230300 0.000000
-45.173600 0.000000
-45.116900 0.000000
-45.060200 0.000000
-45.003500 0.000000
-44.946800 0.000000
-44.890100 0.000000
-44.833400 0.000000
-44.776700 0.000000
-44.720100 0.000000
-44.663400 0.000000
-44.606700 0.000000
-44.550000 0.000000
-44.493300 0.000000
-44.436600 0.000000
-44.379900 0.000000
-44.323200 0.000000
-44.266500 0.000000
-44.209900 0.000000
-44.153200 0.000000
-44.096500 0.000000
-44.039800 0.000000
-43.983100 0.000000
-43.926400 0.000000
-43.869700 0.000000
-43.813000 0.000000
-43.756400 0.000000
-43.699700 0.000000
-43.643000 0.000000
-43.586300 0.000000
-43.529600 0.000000
-43.472900 0.000000
-43.416200 0.000000
-43.359500 0.000000
-43.302800 0.000000
-43.246200 0.000000
-43.189500 0.000000
-43.132800 0.000000
-43.076100 0.000000
-43.019400 0.000000
-42.962700 0.000000
-42.906000 0.000000
-42.849300 0.000000
-42.792600 0.000000
-42.736000 0.000000
-42.679300 0.000000
-42.622600 0.000000
-42.565900 0.000000
-42.509200 0.000000
-42.452500 0.000000
-42.395800 0.000000
-42.339100 0.000000
-42.282500 0.000000
-42.225800 0.000000
-42.169100 0.000000
-42.112400 0.000000
-42.055700 0.000000
-41.999000 0.000000
-41.942300 0.000000
-41.885600 0.000000
-41.828900 0.000000
-41.772300 0.000000
-41.715600 0.000000
-41.658900 0.000000
-41.602200 0.000000
-41.545500 0.000000
-41.488800 0.000000
-41.432100 0.000000
-41.375400 0.000000
-41.318800 0.000000
-41.262100 0.000000
-41.205400 0.000000
-41.148700 0.000000
-41.092000 0.000000
-41.035300 0.000000
-40.978600 0.000000
-40.921900 0.000000
-40.865200 0.000000
-40.808600 0.000000
-40.751900 0.000000
-40.695200 0.000000
-40.638500 0.000000
-40.581800 0.000000
-40.525100 0.000000
-40.468400 0.000000
-40.411700 0.000000
-40.355000 0.000000
-40.298400 0.000000
-40.241700 0.000000
-40.185000 0.000000
-40.128300 0.000000
-40.071600 0.000000
-40.014900 0.000000
-39.958200 0.000000
-39.901500 0.000000
-39.844900 0.000000
-39.788200 0.000000
-39.731500 0.000000
-39.674800 0.000000
-39.618100 0.000000
-39.561400 0.000000
-39.504700 0.000000
-39.448000 0.000000
-39.391300 0.000000
-39.334700 0.000000
-39.278000 0.000000
-39.221300 0.000000
-39.164600 0.000000
-39.107900 0.000000
-39.051200 0.000000
-38.994500 0.000000
-38.937800 0.000000
-38.881100 0.000000
-38.824500 0.000000
-38.767800 0.000000
-38.711100 0.000000
-38.654400 0.000000
-38.597700 0.000000
-38.541000 0.000000
-38.484300 0.000000
-38.427600 0.000000
-38.371000 0.000000
-38.314300 0.000000
-38.257600 0.000000
-38.200900 0.000000
-38.144200 0.000000
-38.087500 0.000000
-38.030800 0.000000
-37.974100 0.000000
-37.917400 0.000000
-37.860800 0.000000
-37.804100 0.000000
-37.747400 0.000000
-37.690700 0.000000
-37.634000 0.000000
-37.577300 0.000000
-37.520600 0.000000
-37.463900 0.000000
-37.407200 0.000000
-37.350600 0.000000
-37.293900 0.000000
-37.237200 0.000000
-37.180500 0.000000
-37.123800 0.000000
-37.067100 0.000000
-37.010400 0.000000
-36.953700 0.000000
-36.897100 0.000000
-36.840400 0.000000
-36.783700 0.000000
-36.727000 0.000000
-36.670300 0.000000
-36.613600 0.000000
-36.556900 0.000000
-36.500200 0.000000
-36.443500 0.000000
-36.386900 0.000000
-36.330200 0.000000
-36.273500 0.000000
-36.216800 0.000000
-36.160100 0.000000
-36.103400 0.000000
-36.046700 0.000000
-35.990000 0.000000
-35.933400 0.000000
-35.876700 0.000000
-35.820000 0.000000
-35.763300 0.000000
-35.706600 0.000000
-35.649900 0.000000
-35.593200 0.000000
-35.536500 0.000000
-35.479800 0.000000
-35.423200 0.000000
-35.366500 0.000000
-35.309800 0.000000
-35.253100 0.000000
-35.196400 0.000000
-35.139700 0.000000
-35.083000 0.000000
-35.026300 0.000000
-34.969600 0.000000
-34.913000 0.000000
-34.856300 0.000000
-34.799600 0.000000
-34.742900 0.000000
-34.686200 0.000000
-34.629500 0.000000
-34.572800 0.000000
-34.516100 0.000000
-34.459500 0.000000
-34.402800 0.000000
-34.346100 0.000000
-34.289400 0.000000
-34.232700 0.000000
-34.176000 0.000000
-34.119300 0.000000
-34.062600 0.000000
-34.005900 0.000000
-33.949300 0.000000
-33.892600 0.000000
-33.835900 0.000000
-33.779200 0.000000
-33.722500 0.000000
-33.665800 0.000000
-33.609100 0.000000
-33.552400 0.000000
-33.495700 0.000000
-33.439100 0.000000
-33.382400 0.000000
-33.325700 0.000000
-33.269000 0.000000
-33.212300 0.000000
-33.155600 0.000000
-33.098900 0.000000
-33.042200 0.000000
-32.985600 0.000000
-32.928900 0.000000
-32.872200 0.000000
-32.815500 0.000000
-32.758800 0.000000
-32.702100 0.000000
-32.645400 0.000000
-32.588700 0.000000
-32.532000 0.000000
-32.475400 0.000000
-32.418700 0.000000
-32.362000 0.000000
-32.305300 0.000000
-32.248600 0.000000
-32.191900 0.000000
-32.135200 0.000000
-32.078500 0.000000
-32.021800 0.000000
-31.965200 0.000000
-31.908500 0.000000
-31.851800 0.000000
-31.795100 0.000000
-31.738400 0.000000
-31.681700 0.000000
-31.625000 0.000000
-31.568300 0.000000
-31.511700 0.000000
-31.455000 0.000000
-31.398300 0.000000
-31.341600 0.000000
-31.284900 0.000000
-31.228200 0.000000
-31.171500 0.000000
-31.114800 0.000000
-31.058100 0.000000
-31.001500 0.000000
-30.944800 0.000000
-30.888100 0.000000
-30.831400 0.000000
-30.774700 0.000000
-30.718000 0.000000
-30.661300 0.000000
-30.604600 0.000000
-30.548000 0.000000
-30.491300 0.000000
-30.434600 0.000000
-30.377900 0.000000
-30.321200 0.000000
-30.264500 0.000000
-30.207800 0.000000
-30.151100 0.000000
-30.094400 0.000000
-30.037800 0.000000
-29.981100 0.000000
-29.924400 0.000000
-29.867700 0.000000
-29.811000 0.000000
-29.754300 0.000000
-29.697600 0.000000
-29.640900 0.000000
-29.584200 0.000000
-29.527600 0.000000
-29.470900 0.000000
-29.414200 0.000000
-29.357500 0.000000
-29.300800 0.000000
-29.244100 0.000000
-29.187400 0.000000
-29.130700 0.000000
-29.074100 0.000000
-29.017400 0.000000
-28.960700 0.000000
-28.904000 0.000000
-28.847300 0.000000
-28.790600 0.000000
-28.733900 0.000000
-28.677200 0.000000
-28.620500 0.000000
-28.563900 0.000000
-28.507200 0.000000
-28.450500 0.000000
-28.393800 0.000000
-28.337100 0.000000
-28.280400 0.000000
-28.223700 0.000000
-28.167000 0.000000
-28.110300 0.000000
-28.053700 0.000000
-27.997000 0.000000
-27.940300 0.000000
-27.883600 0.000000
-27.826900 0.000000
-27.770200 0.000000
-27.713500 0.000000
-27.656800 0.000000
-27.600200 0.000000
-27.543500 0.000000
-27.486800 0.000000
-27.430100 0.000000
-27.373400 0.000000
-27.316700 0.000000
-27.260000 0.000000
-27.203300 0.000000
-27.146600 0.000000
-27.090000 0.000000
-27.033300 0.000000
-26.976600 0.000000
-26.919900 0.000000
-26.863200 0.000000
-26.806500 0.000000
-26.749800 0.000000
-26.693100 0.000000
-26.636400 0.000000
-26.579800 0.000000
-26.523100 0.000000
-26.466400 0.000000
-26.409700 0.000000
-26.353000 0.000000
-26.296300 0.000000
-26.239600 0.000000
-26.182900 0.000000
-26.126300 0.000000
-26.069600 0.000000
-26.012900 0.000000
-25.956200 0.000000
-25.899500 0.000000
-25.842800 0.000000
-25.786100 0.000000
-25.729400 0.000000
-25.672700 0.000000
-25.616100 0.000000
-25.559400 0.000000
-25.502700 0.000000
-25.446000 0.000000
-25.389300 0.000000
-25.332600 0.000000
-25.275900 0.000000
-25.219200 0.000000
-25.162600 0.000000
-25.105900 0.000000
-25.049200 0.000000
-24.992500 0.000000
-24.935800 0.000000
-24.879100 0.000000
-24.822400 0.000000
-24.765700 0.000000
-24.709000 0.000000
-24.652400 0.000000
-24.595700 0.000000
-24.539000 0.000000
-24.482300 0.000000
-24.425600 0.000000
-24.368900 0.000000
-24.312200 0.000000
-24.255500 0.000000
-24.198800 0.000000
-24.142200 0.000000
-24.085500 0.000000
-24.028800 0.000000
-23.972100 0.000000
-23.915400 0.000000
-23.858700 0.000000
-23.802000 0.000000
-23.745300 0.000000
-23.688700 0.000000
-23.632000 0.000000
-23.575300 0.000000
-23.518600 0.000000
-23.461900 0.000000
-23.405200 0.000000
-23.348500 0.000000
-23.291800 0.000000
-23.235100 0.000000
-23.178500 0.000000
-23.121800 0.000000
-23.065100 0.000000
-23.008400 0.000000
-22.951700 0.000000
-22.895000 0.000000
-22.838300 0.000000
-22.781600 0.000000
-22.724900 0.000000
-22.668300 0.000000
-22.611600 0.000000
-22.554900 0.000000
-22.498200 0.000000
-22.441500 0.000000
-22.384800 0.000000
-22.328100 0.000000
-22.271400 0.000000
-22.214800 0.000000
-22.158100 0.000000
-22.101400 0.000000
-22.044700 0.000000
-21.988000 0.000000
-21.931300 0.000000
-21.874600 0.000000
-21.817900 0.000000
-21.761200 0.000000
-21.704600 0.000000
-21.647900 0.000000
-21.591200 0.000000
-21.534500 0.000000
-21.477800 0.000000
-21.421100 0.000000
-21.364400 0.000000
-21.307700 0.000000
-21.251000 0.000000
-21.194400 0.000000
-21.137700 0.000000
-21.081000 0.000000
-21.024300 0.000000
-20.967600 0.000000
-20.910900 0.000000
-20.854200 0.000000
-20.797500 0.000000
-20.740900 0.000000
-20.684200 0.000000
-20.627500 0.000000
-20.570800 0.000000
-20.514100 0.000000
-20.457400 0.000000
-20.400700 0.000000
-20.344000 0.000000
-20.287300 0.000000
-20.230700 0.000000
-20.174000 0.000000
-20.117300 0.000000
-20.060600 0.000000
-20.003900 0.000000
-19.947200 0.000000
-19.890500 0.000000
-19.833800 0.000000
-19.777200 0.000000
-19.720500 0.000000
-19.663800 0.000000
-19.607100 0.000000
-19.550400 0.000000
-19.493700 0.000000
-19.437000 0.000000
-19.380300 0.000000
-19.323600 0.000000
-19.267000 0.000000
-19.210300 0.000000
-19.153600 0.000000
-19.096900 0.000000
-19.040200 0.000000
-18.983500 0.000000
-18.926800 0.000000
-18.870100 0.000000
-18.813400 0.000000
-18.756800 0.000000
-18.700100 0.000000
-18.643400 0.000000
-18.586700 0.000000
-18.530000 0.000000
-18.473300 0.000000
-18.416600 0.000000
-18.359900 0.000000
-18.303300 0.000000
-18.246600 0.000000
-18.189900 0.000000
-18.133200 0.000000
-18.076500 0.000000
-18.019800 0.000000
-17.963100 0.000000
-17.906400 0.000000
-17.849700 0.000000
-17.793100 0.000000
-17.736400 0.000000
-17.679700 0.000000
-17.623000 0.000000
-17.566300 0.000000
-17.509600 0.001200
-17.452900 0.208000
-17.396200 6.486500
-17.339500 54.059800
-17.282900 140.195700
-17.226200 173.143800
-17.169500 125.749700
-17.112800 28.187700
-17.056100 1.168500
-16.999400 0.007600
-16.942700 0.000000
-16.886000 0.000000
-16.829400 0.000000
-16.772700 0.000000
-16.716000 0.000000
-16.659300 0.000000
-16.602600 0.000000
-16.545900 0.000000
-16.489200 0.000000
-16.432500 0.000000
-16.375800 0.000000
-16.319200 0.000000
-16.262500 0.000000
-16.205800 0.000000
-16.149100 0.000000
-16.092400 0.000000
-16.035700 0.000000
-15.979000 0.000000
-15.922300 0.000000
-15.865600 0.000000
-15.809000 0.000000
-15.752300 0.000000
-15.695600 0.000000
-15.638900 0.000000
-15.582200 0.000000
-15.525500 0.000000
-15.468800 0.000000
-15.412100 0.000000
-15.355500 0.000000
-15.298800 0.000000
-15.242100 0.000000
-15.185400 0.000000
-15.128700 0.000000
-15.072000 0.000000
-15.015300 0.000000
-14.958600 0.000000
-14.901900 0.000000
-14.845300 0.000000
-14.788600 0.000000
-14.731900 0.000000
-14.675200 0.000000
-14.618500 0.000000
-14.561800 0.000000
-14.505100 0.000000
-14.448400 0.000000
-14.391800 0.000000
-14.335100 0.000000
-14.278400 0.000000
-14.221700 0.000000
-14.165000 0.000000
-14.108300 0.000000
-14.051600 0.000000
-13.994900 0.000000
-13.938200 0.000000
-13.881600 0.000000
-13.824900 0.000000
-13.768200 0.000000
-13.711500 0.000000
-13.654800 0.000000
-13.598100 0.000000
-13.541400 0.000000
-13.484700 0.000000
-13.428000 0.000000
-13.371400 0.000000
-13.314700 0.000000
-13.258000 0.000000
-13.201300 0.000000
-13.144600 0.000000
-13.087900 0.000000
-13.031200 0.000000
-12.974500 0.000000
-12.917900 0.000000
-12.861200 0.000000
-12.804500 0.000000
-12.747800 0.000000
-12.691100 0.000000
-12.634400 0.000000
-12.577700 0.000000
-12.521000 0.000000
-12.464300 0.000000
-12.407700 0.000000
-12.351000 0.000000
-12.294300 0.000000
-12.237600 0.000000
-12.180900 0.000000
-12.124200 0.000000
-12.067500 0.000000
-12.010800 0.000000
-11.954100 0.000000
-11.897500 0.000000
-11.840800 0.000000
-11.784100 0.000000
-11.727400 0.000000
-11.670700 0.000000
-11.614000 0.000000
-11.557300 0.000000
-11.500600 0.000000
-11.444000 0.000000
-11.387300 0.000000
-11.330600 0.000000
-11.273900 0.000000
-11.217200 0.000000
-11.160500 0.000000
-11.103800 0.000000
-11.047100 0.000000
-10.990400 0.000000
-10.933800 0.000000
-10.877100 0.000000
-10.820400 0.000000
-10.763700 0.000000
-10.707000 0.000000
-10.650300 0.000000
-10.593600 0.000000
-10.536900 0.000000
-10.480200 0.000000
-10.423600 0.000000
-10.366900 0.000000
-10.310200 0.000000
-10.253500 0.000000
-10.196800 0.000000
-10.140100 0.000000
-10.083400 0.000000
-10.026700 0.000000
-9.970100 0.000000
-9.913400 0.000000
-9.856700 0.000000
-9.800000 0.000000
-9.743300 0.000000
-9.686600 0.000000
-9.629900 0.000000
-9.573200 0.000000
-9.516500 0.000000
-9.459900 0.000000
-9.403200 0.000000
-9.346500 0.000000
-9.289800 0.000000
-9.233100 0.000000
-9.176400 0.000000
-9.119700 0.000000
-9.063000 0.000000
-9.006400 0.000000
-8.949700 0.000000
-8.893000 0.000000
-8.836300 0.000000
-8.779600 0.000000
-8.722900 0.000000
-8.666200 0.000000
-8.609500 0.000000
-8.552800 0.000000
-8.496200 0.000000
-8.439500 0.000000
-8.382800 0.000000
-8.326100 0.000000
-8.269400 0.000000
-8.212700 0.000000
-8.156000 0.000000
-8.099300 0.000000
-8.042600 0.000000
-7.986000 0.000000
-7.929300 0.000000
-7.872600 0.000000
-7.815900 0.000000
-7.759200 0.000000
-7.702500 0.000000
-7.645800 0.000000
-7.589100 0.000000
-7.532500 0.000000
-7.475800 0.000000
-7.419100 0.000000
-7.362400 0.000000
-7.305700 0.000000
-7.249000 0.000000
-7.192300 0.000000
-7.135600 0.000000
-7.078900 0.000000
-7.022300 0.000000
-6.965600 0.000000
-6.908900 0.000000
-6.852200 0.000000
-6.795500 0.000000
-6.738800 0.000000
-6.682100 0.000000
-6.625400 0.000000
-6.568700 0.000000
-6.512100 0.000000
-6.455400 0.000000
-6.398700 0.000000
-6.342000 0.000000
-6.285300 0.000000
-6.228600 0.000000
-6.171900 0.001300
-6.115200 0.019100
-6.058600 0.071000
-6.001900 0.180100
-5.945200 0.189900
-5.888500 0.148300
-5.831800 0.321500
-5.775100 0.342400
-5.718400 0.343400
-5.661700 0.200400
-5.605000 0.355600
-5.548400 0.467800
-5.491700 0.443900
-5.435000 0.342900
-5.378300 0.403000
-5.321600 0.613700
-5.264900 0.557700
-5.208200 0.419400
-5.151500 0.322700
-5.094800 0.477400
-5.038200 0.642800
-4.981500 0.771500
-4.924800 0.453800
-4.868100 0.881000
-4.811400 0.807800
-4.754700 0.443000
-4.698000 0.412900
-4.641300 0.587900
-4.584700 0.681200
-4.528000 1.135200
-4.471300 0.889100
-4.414600 0.565500
-4.357900 0.708300
-4.301200 0.729000
-4.244500 0.739400
-4.187800 0.780700
-4.131100 0.930800
-4.074500 0.458600
-4.017800 0.412800
-3.961100 0.767000
-3.904400 1.220100
-3.847700 0.984100
-3.791000 0.799100
-3.734300 0.720400
-3.677600 0.796300
-3.621000 0.914400
-3.564300 0.965200
-3.507600 0.638300
-3.450900 0.521400
-3.394200 0.601500
-3.337500 0.693100
-3.280800 0.703400
-3.224100 0.747400
-3.167400 0.700800
-3.110800 0.398800
-3.054100 0.589400
-2.997400 0.773100
-2.940700 1.025600
-2.884000 1.341600
-2.827300 1.551300
-2.770600 0.918300
-2.713900 0.535700
-2.657200 0.646800
-2.600600 1.477500
-2.543900 1.239600
-2.487200 1.016000
-2.430500 1.041400
-2.373800 1.390300
-2.317100 1.092200
-2.260400 0.632000
-2.203700 0.934100
-2.147100 1.048900
-2.090400 0.849300
-2.033700 0.771200
-1.977000 0.805200
-1.920300 1.088000
-1.863600 0.802500
-1.806900 0.579000
-1.750200 1.420000
-1.693500 1.639300
-1.636900 0.754500
-1.580200 0.548900
-1.523500 0.568900
-1.466800 0.560100
-1.410100 1.029100
-1.353400 1.393500
-1.296700 0.855200
-1.240000 1.327900
-1.183300 1.750600
-1.126700 1.538300
-1.070000 1.301500
-1.013300 1.417700
-0.956600 1.066900
-0.899900 0.872300
-0.843200 1.226100
-0.786500 1.220300
-0.729800 1.355300
-0.673200 1.184500
-0.616500 1.166000
-0.559800 2.195200
-0.503100 1.310800
-0.446400 0.887000
-0.389700 1.192400
-0.333000 0.932100
-0.276300 0.884600
-0.219600 0.937400
-0.163000 1.582300
-0.106300 1.550200
-0.049600 1.468600
0.007100 1.157100
0.063800 1.029200
0.120500 1.206900
0.177200 0.889900
0.233900 0.774200
0.290600 0.877800
0.347200 0.948800
0.403900 1.016000
0.460600 0.939300
0.517300 0.460400
0.574000 0.415100
0.630700 0.782700
0.687400 0.672000
0.744100 0.335300
0.800700 0.259700
0.857400 0.323400
0.914100 0.121300
0.970800 0.239800
1.027500 0.530200
1.084200 0.425700
1.140900 0.496900
1.197600 0.665300
1.254300 0.660000
1.310900 0.761600
1.367600 0.689600
1.424300 0.552400
1.481000 0.443200
1.537700 0.511300
1.594400 0.625000
1.651100 0.710900
1.707800 1.039900
1.764400 1.192100
1.821100 1.131000
1.877800 1.008700
1.934500 1.498800
1.991200 1.674800
2.047900 1.854900
2.104600 1.678100
2.161300 1.611100
2.218000 1.533500
2.274600 1.830800
2.331300 1.968000
2.388000 1.449100
2.444700 1.224000
2.501400 1.833500
2.558100 2.069400
2.614800 1.700700
2.671500 2.112700
2.728200 2.068800
2.784800 2.403400
2.841500 2.337400
2.898200 2.390000
2.954900 2.155600
3.011600 1.718900
3.068300 2.573800
3.125000 2.649300
3.181700 2.307400
3.238300 3.053200
3.295000 4.959600
3.351700 7.489900
3.408400 6.900500
3.465100 5.460200
3.521800 6.030000
3.578500 5.867100
3.635200 7.439800
3.691900 10.777100
3.748500 10.438900
3.805200 8.317800
3.861900 6.663800
3.918600 4.193800
3.975300 2.226600
4.032000 5.692900
4.088700 13.379100
4.145400 13.740700
4.202100 10.892000
4.258700 7.215900
4.315400 5.889300
4.372100 6.191600
4.428800 5.346100
4.485500 4.456200
4.542200 5.074400
4.598900 5.110700
4.655600 3.295200
4.712200 2.138200
4.768900 2.092600
4.825600 2.230900
4.882300 2.212300
4.939000 2.666600
4.995700 2.120500
5.052400 2.000100
5.109100 2.531600
5.165800 3.001600
5.222400 2.545100
5.279100 1.903700
5.335800 2.403500
5.392500 2.414600
5.449200 1.853100
5.505900 2.199700
5.562600 1.788300
5.619300 0.787000
5.676000 1.121300
5.732600 1.736500
5.789300 1.846400
5.846000 1.850500
5.902700 1.537500
5.959400 1.366700
6.016100 1.330600
6.072800 1.483800
6.129500 1.774900
6.186100 1.971400
6.242800 2.046100
6.299500 1.495100
6.356200 1.687800
6.412900 1.912100
6.469600 1.992600
6.526300 1.998500
6.583000 1.491900
6.639700 0.873000
6.696300 1.024400
6.753000 1.609700
6.809700 1.873200
6.866400 1.611100
6.923100 1.514800
6.979800 2.260100
7.036500 2.512900
7.093200 1.507000
7.149800 1.471500
7.206500 1.763700
7.263200 1.861300
7.319900 1.513500
7.376600 1.215100
7.433300 1.522100
7.490000 1.881300
7.546700 1.993400
7.603400 1.567800
7.660000 1.291800
7.716700 1.676800
7.773400 1.840200
7.830100 1.290000
7.886800 1.666100
7.943500 1.934900
8.000200 1.679000
8.056900 0.889800
8.113600 1.339100
8.170200 2.062800
8.226900 2.031500
8.283600 1.916400
8.340300 2.098800
8.397000 2.366000
8.453700 2.491700
8.510400 1.969300
8.567100 1.596000
8.623700 1.317900
8.680400 1.489200
8.737100 2.178600
8.793800 2.331200
8.850500 1.992200
8.907200 1.718800
8.963900 1.258900
9.020600 1.800800
9.077300 2.055400
9.133900 1.640300
9.190600 1.567100
9.247300 1.368800
9.304000 1.735800
9.360700 2.302200
9.417400 1.964000
9.474100 1.998000
9.530800 2.348400
9.587500 2.045900
9.644100 2.050900
9.700800 1.857500
9.757500 1.969400
9.814200 2.103500
9.870900 2.999400
9.927600 2.922700
9.984300 2.474500
10.041000 2.701000
10.097600 1.896000
10.154300 1.687100
10.211000 1.770600
10.267700 1.936000
10.324400 1.940600
10.381100 2.057700
10.437800 1.938200
10.494500 2.022000
10.551200 2.326600
10.607800 2.099600
10.664500 1.599900
10.721200 2.263100
10.777900 2.644000
10.834600 1.985600
10.891300 1.754700
10.948000 1.815000
11.004700 1.509000
11.061400 1.747300
11.118000 2.310000
11.174700 2.551500
11.231400 1.529900
11.288100 1.846600
11.344800 2.663700
11.401500 2.459900
11.458200 1.769600
11.514900 1.930500
11.571500 2.279600
11.628200 2.396500
11.684900 2.173500
11.741600 1.938500
11.798300 2.059300
11.855000 2.276500
11.911700 2.100500
11.968400 2.364000
12.025100 2.002900
12.081700 1.932400
12.138400 1.563400
12.195100 2.048000
12.251800 2.850900
12.308500 1.577900
12.365200 1.698700
12.421900 2.005700
12.478600 1.691600
12.535200 1.750800
12.591900 1.682100
12.648600 1.494100
12.705300 1.486800
12.762000 1.527600
12.818700 2.272900
12.875400 2.351400
12.932100 1.797800
12.988800 1.528700
13.045400 1.771700
13.102100 1.926100
13.158800 1.946800
13.215500 1.421200
13.272200 1.123400
13.328900 1.706400
13.385600 1.857700
13.442300 1.690300
13.499000 1.731800
13.555600 1.909300
13.612300 1.280400
13.669000 1.593200
13.725700 2.379500
13.782400 2.565900
13.839100 2.390700
13.895800 1.712200
13.952500 1.645800
14.009100 1.839300
14.065800 1.425300
14.122500 1.121500
14.179200 1.497900
14.235900 2.205900
14.292600 1.648600
14.349300 0.982500
14.406000 1.797100
14.462700 1.792700
14.519300 1.771200
14.576000 1.916100
14.632700 1.520100
14.689400 1.612600
14.746100 1.203600
14.802800 0.809700
14.859500 1.318300
14.916200 1.637200
14.972900 1.935900
15.029500 2.260900
15.086200 2.235000
15.142900 1.806100
15.199600 1.781900
15.256300 1.694700
15.313000 1.500900
15.369700 1.737500
15.426400 1.807300
15.483000 1.682600
15.539700 1.671100
15.596400 1.434600
15.653100 1.449000
15.709800 1.261800
15.766500 1.227200
15.823200 1.887700
15.879900 1.575700
15.936600 1.441300
15.993200 1.573400
16.049900 1.652400
16.106600 1.746300
16.163300 2.121600
16.220000 1.461500
16.276700 1.834200
16.333400 1.972900
16.390100 1.612200
16.446800 1.291500
16.503400 1.432800
16.560100 1.938700
16.616800 2.140000
16.673500 1.867900
16.730200 1.600800
16.786900 2.055700
16.843600 2.893300
16.900300 2.538700
16.956900 2.435500
17.013600 2.524900
17.070300 1.977700
17.127000 1.473000
17.183700 1.499300
17.240400 1.962300
17.297100 1.924500
17.353800 1.957000
17.410500 2.141000
17.467100 2.025900
17.523800 2.379100
17.580500 2.202100
17.637200 1.977900
17.693900 2.666800
17.750600 2.190000
17.807300 1.869300
17.864000 2.059500
17.920600 2.061700
17.977300 2.253400
18.034000 1.921800
18.090700 2.180800
18.147400 2.805600
18.204100 3.152700
18.260800 2.438400
18.317500 1.755800
18.374200 2.168400
18.430800 1.896900
18.487500 1.647700
18.544200 2.208600
18.600900 2.317300
18.657600 2.178100
18.714300 2.104900
18.771000 2.148900
18.827700 2.505800
18.884400 2.432500
18.941000 1.768900
18.997700 1.957800
19.054400 1.614900
19.111100 1.732300
19.167800 1.679500
19.224500 1.464600
19.281200 1.640300
19.337900 2.064200
19.394500 2.552300
19.451200 2.392600
19.507900 1.543300
19.564600 1.316700
19.621300 1.773800
19.678000 2.714100
19.734700 2.954400
19.791400 2.734500
19.848100 2.891100
19.904700 3.010300
19.961400 2.803600
20.018100 2.505000
20.074800 2.492600
20.131500 2.388500
20.188200 2.265700
20.244900 2.343300
20.301600 2.247100
20.358300 3.129800
20.414900 3.397700
20.471600 2.478100
20.528300 1.842500
20.585000 1.788100
20.641700 1.720600
20.698400 1.952700
20.755100 2.179900
20.811800 1.624200
20.868400 1.535000
20.925100 1.938900
20.981800 2.168600
21.038500 1.797200
21.095200 2.255100
21.151900 3.161900
21.208600 2.766300
21.265300 2.338800
21.322000 1.624400
21.378600 1.914800
21.435300 2.568100
21.492000 2.689200
21.548700 3.078500
21.605400 3.309200
21.662100 3.037500
21.718800 2.638700
21.775500 2.052700
21.832200 1.438800
21.888800 1.510500
21.945500 1.929100
22.002200 2.735000
22.058900 3.560100
22.115600 3.544800
22.172300 3.064300
22.229000 2.734300
22.285700 2.688600
22.342300 2.588600
22.399000 2.147800
22.455700 1.697100
22.512400 1.924900
22.569100 1.980400
22.625800 2.568400
22.682500 2.413300
22.739200 2.760800
22.795900 3.438900
22.852500 2.611500
22.909200 1.925300
22.965900 1.385600
23.022600 1.163200
23.079300 1.684000
23.136000 1.755400
23.192700 2.247000
23.249400 2.719600
23.306000 2.380800
23.362700 2.036100
23.419400 2.066300
23.476100 3.146000
23.532800 3.096900
23.589500 2.392500
23.646200 2.214000
23.702900 1.812900
23.759600 1.951500
23.816200 2.214600
23.872900 2.201600
23.929600 2.143900
23.986300 2.728300
24.043000 2.192000
24.099700 1.831000
24.156400 1.987600
24.213100 1.803600
24.269800 1.741500
24.326400 2.151900
24.383100 2.345000
24.439800 2.464500
24.496500 2.686300
24.553200 3.644900
24.609900 3.361000
24.666600 2.998800
24.723300 2.795600
24.779900 2.373800
24.836600 2.195900
24.893300 2.558300
24.950000 2.489700
25.006700 2.781100
25.063400 2.643000
25.120100 2.674500
25.176800 2.303900
25.233500 2.101600
25.290100 2.173200
25.346800 2.183500
25.403500 3.294700
25.460200 3.540800
25.516900 3.352900
25.573600 3.019600
25.630300 2.289300
25.687000 1.984900
25.743700 2.335000
25.800300 2.576000
25.857000 2.476400
25.913700 2.556800
25.970400 2.962500
26.027100 2.648800
26.083800 2.036500
26.140500 2.283600
26.197200 2.668000
26.253800 2.609300
26.310500 2.533700
26.367200 3.500400
26.423900 3.151000
26.480600 2.288900
26.537300 1.630900
26.594000 1.967900
26.650700 1.880600
26.707400 2.044000
26.764000 2.661300
26.820700 3.066600
26.877400 3.419700
26.934100 3.185900
26.990800 3.250700
27.047500 3.545300
27.104200 3.415200
27.160900 2.918600
27.217600 1.601900
27.274200 1.380200
27.330900 2.790700
27.387600 3.479000
27.444300 3.077500
27.501000 2.958400
27.557700 3.619000
27.614400 3.185500
27.671100 2.144800
27.727700 2.278200
27.784400 2.152600
27.841100 2.902800
27.897800 3.175700
27.954500 3.032500
28.011200 3.039300
28.067900 2.917400
28.124600 2.709200
28.181300 2.165400
28.237900 2.076200
28.294600 2.948300
28.351300 3.057000
28.408000 3.407400
28.464700 3.044600
28.521400 2.364200
28.578100 2.034000
28.634800 2.310100
28.691400 2.906000
28.748100 2.519600
28.804800 2.585400
28.861500 3.220800
28.918200 2.601700
28.974900 2.210900
29.031600 2.770300
29.088300 2.950300
29.145000 2.577900
29.201600 2.477400
29.258300 2.698800
29.315000 2.477600
29.371700 2.583300
29.428400 3.071000
29.485100 2.526600
29.541800 2.935100
29.598500 3.320500
29.655200 2.956700
29.711800 2.625200
29.768500 3.209300
29.825200 3.563100
29.881900 3.047900
29.938600 3.106200
29.995300 3.029800
30.052000 3.322000
30.108700 3.529000
30.165300 2.510100
30.222000 2.798400
30.278700 2.543500
30.335400 1.743100
30.392100 2.649500
30.448800 2.631200
30.505500 2.381700
30.562200 3.120700
30.618900 3.241000
30.675500 2.771900
30.732200 2.517700
30.788900 2.588200
30.845600 3.217400
30.902300 3.231200
30.959000 3.434400
31.015700 3.261300
31.072400 2.910000
31.129100 2.822600
31.185700 2.437000
31.242400 3.240600
31.299100 2.849800
31.355800 2.509900
31.412500 2.437100
31.469200 2.431500
31.525900 2.787200
31.582600 2.973600
31.639200 3.164300
31.695900 3.232800
31.752600 3.004500
31.809300 3.194700
31.866000 3.374200
31.922700 2.963000
31.979400 2.631100
32.036100 2.698800
32.092800 3.189300
32.149400 3.281300
32.206100 2.502300
32.262800 2.646000
32.319500 3.124700
32.376200 3.471600
32.432900 3.185500
32.489600 2.949700
32.546300 2.641300
32.603000 2.892300
32.659600 3.196500
32.716300 3.385400
32.773000 3.012800
32.829700 3.067700
32.886400 2.956800
32.943100 2.951600
32.999800 2.908700
33.056500 3.366700
33.113100 3.510900
33.169800 3.058700
33.226500 2.718500
33.283200 2.371800
33.339900 2.180900
33.396600 2.574400
33.453300 3.048800
33.510000 3.129400
33.566700 3.449700
33.623300 4.110700
33.680000 3.930400
33.736700 3.340400
33.793400 3.003100
33.850100 2.910500
33.906800 3.701600
33.963500 4.064900
34.020200 3.168700
34.076800 2.864200
34.133500 3.061200
34.190200 3.742700
34.246900 3.604100
34.303600 2.700600
34.360300 2.748400
34.417000 2.804300
34.473700 2.049500
34.530400 1.957600
34.587000 1.992600
34.643700 2.552700
34.700400 2.783600
34.757100 2.396000
34.813800 1.835900
34.870500 2.381800
34.927200 3.328400
34.983900 3.595200
35.040600 3.356900
35.097200 2.951300
35.153900 2.190200
35.210600 2.584900
35.267300 2.717400
35.324000 2.279700
35.380700 2.048700
35.437400 2.123400
35.494100 3.492800
35.550700 2.859200
35.607400 1.883900
35.664100 2.080700
35.720800 1.618700
35.777500 2.071300
35.834200 2.289500
35.890900 1.819200
35.947600 1.644100
36.004300 1.241500
36.060900 1.022000
36.117600 1.136100
36.174300 1.322500
36.231000 1.155900
36.287700 1.155100
36.344400 0.937200
36.401100 0.738000
36.457800 0.926100
36.514500 1.083200
36.571100 0.875700
36.627800 0.541100
36.684500 0.724900
36.741200 1.155800
36.797900 1.009600
36.854600 0.722500
36.911300 0.951700
36.968000 1.023000
37.024600 0.597200
37.081300 0.392600
37.138000 0.452000
37.194700 0.423700
37.251400 0.361900
37.308100 0.358300
37.364800 0.155900
37.421500 0.050500
37.478200 0.134200
37.534800 0.205100
37.591500 0.160300
37.648200 0.226500
37.704900 0.172300
37.761600 0.078600
37.818300 0.229500
37.875000 0.218600
37.931700 0.042100
37.988400 0.013700
38.045000 0.116100
38.101700 0.215100
38.158400 0.141100
38.215100 0.259300
38.271800 0.227600
38.328500 0.195400
38.385200 0.234900
38.441900 0.149100
38.498500 0.109600
38.555200 0.225500
38.611900 0.213000
38.668600 0.092000
38.725300 0.073600
38.782000 0.021400
38.838700 0.003200
38.895400 0.029500
38.952100 0.042200
39.008700 0.007500
39.065400 0.003500
39.122100 0.020600
39.178800 0.015400
39.235500 0.001400
39.292200 0.000000
39.348900 0.000000
39.405600 0.000000
39.462200 0.000000
39.518900 0.000000
39.575600 0.001300
39.632300 0.015000
39.689000 0.020900
39.745700 0.003600
39.802400 0.000100
39.859100 0.001600
39.915800 0.016400
39.972400 0.019800
40.029100 0.002900
40.085800 0.000000
40.142500 0.000000
40.199200 0.000000
40.255900 0.000000
40.312600 0.000000
40.369300 0.000000
40.426000 0.000000
40.482600 0.000000
40.539300 0.000000
40.596000 0.000000
40.652700 0.000000
40.709400 0.000000
40.766100 0.000000
40.822800 0.000000
40.879500 0.000000
40.936100 0.000000
40.992800 0.000000
41.049500 0.000000
41.106200 0.000000
41.162900 0.000000
41.219600 0.000000
41.276300 0.000000
41.333000 0.000000
41.389700 0.000000
41.446300 0.000000
41.503000 0.000000
41.559700 0.000000
41.616400 0.000000
41.673100 0.000000
41.729800 0.000000
41.786500 0.000000
41.843200 0.000000
41.899900 0.000000
41.956500 0.000000
42.013200 0.000000
42.069900 0.000000
42.126600 0.000000
42.183300 0.000000
42.240000 0.000000
42.296700 0.000000
42.353400 0.000000
42.410000 0.000000
42.466700 0.000000
42.523400 0.000000
42.580100 0.000000
42.636800 0.000000
42.693500 0.000000
42.750200 0.000000
42.806900 0.000000
42.863600 0.000000
42.920200 0.000000
42.976900 0.000000
43.033600 0.000000
43.090300 0.000000
43.147000 0.000000
43.203700 0.000000
43.260400 0.000000
43.317100 0.000000
43.373800 0.000000
43.430400 0.000000
43.487100 0.000000
43.543800 0.000000
43.600500 0.000000
43.657200 0.000000
43.713900 0.000000
43.770600 0.000000
43.827300 0.000000
43.883900 0.000000
43.940600 0.000000
43.997300 0.000000
44.054000 0.000000
44.110700 0.000000
44.167400 0.000000
44.224100 0.000000
44.280800 0.000000
44.337500 0.000000
44.394100 0.000000
44.450800 0.000000
44.507500 0.000000
44.564200 0.000000
44.620900 0.000000
44.677600 0.000000
44.734300 0.000000
44.791000 0.000000
44.847600 0.000000
44.904300 0.000000
44.961000 0.000000
45.017700 0.000000
45.074400 0.000000
e
