set title 'mp-1007923 - Density of States'
set xlabel 'Energy (eV)'
set ylabel 'DOS (states/eV)'
set grid
set xrange [-10:10]
set yrange [0:6.251]
set xzeroaxis lt -1
set terminal png size 800,600
set output 'mp-1007923_dos_gnuplot.png'
plot '-' using 1:2 with lines title 'DOS'
-61.636500 0.000000
-61.573500 0.000000
-61.510500 0.000000
-61.447600 0.000000
-61.384600 0.000000
-61.321600 0.000000
-61.258700 0.000000
-61.195700 0.000000
-61.132700 0.000000
-61.069700 0.000000
-61.006800 0.000000
-60.943800 0.000000
-60.880800 0.000000
-60.817800 0.000000
-60.754900 0.000000
-60.691900 0.000000
-60.628900 0.000000
-60.566000 0.000000
-60.503000 0.000000
-60.440000 0.000000
-60.377000 0.000000
-60.314100 0.000000
-60.251100 0.000000
-60.188100 0.000000
-60.125100 0.000000
-60.062200 0.000000
-59.999200 0.000000
-59.936200 0.000000
-59.873300 0.000000
-59.810300 0.000000
-59.747300 0.000000
-59.684300 0.000000
-59.621400 0.000000
-59.558400 0.000000
-59.495400 0.000000
-59.432400 0.000000
-59.369500 0.000000
-59.306500 0.000000
-59.243500 0.000000
-59.180600 0.000000
-59.117600 0.000000
-59.054600 0.000000
-58.991600 0.000000
-58.928700 0.000000
-58.865700 0.000000
-58.802700 0.000000
-58.739800 0.000000
-58.676800 0.000000
-58.613800 0.000000
-58.550800 0.000000
-58.487900 0.000000
-58.424900 0.000000
-58.361900 0.000000
-58.298900 0.000000
-58.236000 0.000000
-58.173000 0.000000
-58.110000 0.000000
-58.047100 0.000000
-57.984100 0.000000
-57.921100 0.000000
-57.858100 0.000000
-57.795200 0.000000
-57.732200 0.000000
-57.669200 0.000000
-57.606200 0.000000
-57.543300 0.000000
-57.480300 0.000000
-57.417300 0.000000
-57.354400 0.000000
-57.291400 0.000000
-57.228400 0.000000
-57.165400 0.000000
-57.102500 0.000000
-57.039500 0.000000
-56.976500 0.000000
-56.913500 0.000000
-56.850600 0.000000
-56.787600 0.000000
-56.724600 0.000000
-56.661700 0.000000
-56.598700 0.000000
-56.535700 0.000000
-56.472700 0.000000
-56.409800 0.000000
-56.346800 0.000000
-56.283800 0.000000
-56.220800 0.000000
-56.157900 0.000000
-56.094900 0.000000
-56.031900 0.000000
-55.969000 0.033100
-55.906000 2.835500
-55.843000 25.105300
-55.780000 44.963500
-55.717100 36.599200
-55.654100 16.255900
-55.591100 7.426700
-55.528200 8.629400
-55.465200 1.062400
-55.402200 0.008500
-55.339200 0.000000
-55.276300 0.000000
-55.213300 0.000000
-55.150300 0.000000
-55.087300 0.000000
-55.024400 0.000000
-54.961400 0.000000
-54.898400 0.000000
-54.835500 0.000000
-54.772500 0.000000
-54.709500 0.000000
-54.646500 0.000000
-54.583600 0.000000
-54.520600 0.000000
-54.457600 0.000000
-54.394600 0.000000
-54.331700 0.000000
-54.268700 0.000000
-54.205700 0.000000
-54.142800 0.000000
-54.079800 0.000000
-54.016800 0.000000
-53.953800 0.000000
-53.890900 0.000000
-53.827900 0.000000
-53.764900 0.000000
-53.701900 0.000000
-53.639000 0.000000
-53.576000 0.000000
-53.513000 0.000000
-53.450100 0.000000
-53.387100 0.000000
-53.324100 0.000000
-53.261100 0.000000
-53.198200 0.000000
-53.135200 0.000000
-53.072200 0.000000
-53.009300 0.000000
-52.946300 0.000000
-52.883300 0.000000
-52.820300 0.000000
-52.757400 0.000000
-52.694400 0.000000
-52.631400 0.000000
-52.568400 0.000000
-52.505500 0.000000
-52.442500 0.000000
-52.379500 0.000000
-52.316600 0.000000
-52.253600 0.000000
-52.190600 0.000000
-52.127600 0.000000
-52.064700 0.000000
-52.001700 0.000000
-51.938700 0.000000
-51.875700 0.000000
-51.812800 0.000000
-51.749800 0.000000
-51.686800 0.000000
-51.623900 0.000000
-51.560900 0.000000
-51.497900 0.000000
-51.434900 0.000000
-51.372000 0.000000
-51.309000 0.000000
-51.246000 0.000000
-51.183000 0.000000
-51.120100 0.000000
-51.057100 0.000000
-50.994100 0.000000
-50.931200 0.000000
-50.868200 0.000000
-50.805200 0.000000
-50.742200 0.000000
-50.679300 0.000000
-50.616300 0.000000
-50.553300 0.000000
-50.490300 0.000000
-50.427400 0.000000
-50.364400 0.000000
-50.301400 0.000000
-50.238500 0.000000
-50.175500 0.000000
-50.112500 0.000000
-50.049500 0.000000
-49.986600 0.000000
-49.923600 0.000000
-49.860600 0.000000
-49.797700 0.000000
-49.734700 0.000000
-49.671700 0.000000
-49.608700 0.000000
-49.545800 0.000000
-49.482800 0.000000
-49.419800 0.000000
-49.356800 0.000000
-49.293900 0.000000
-49.230900 0.000000
-49.167900 0.000000
-49.105000 0.000000
-49.042000 0.000000
-48.979000 0.000000
-48.916000 0.000000
-48.853100 0.000000
-48.790100 0.000000
-48.727100 0.000000
-48.664100 0.000000
-48.601200 0.000000
-48.538200 0.000000
-48.475200 0.000000
-48.412300 0.000000
-48.349300 0.000000
-48.286300 0.000000
-48.223300 0.000000
-48.160400 0.000000
-48.097400 0.000000
-48.034400 0.000000
-47.971400 0.000000
-47.908500 0.000000
-47.845500 0.000000
-47.782500 0.000000
-47.719600 0.000000
-47.656600 0.000000
-47.593600 0.000000
-47.530600 0.000000
-47.467700 0.000000
-47.404700 0.000000
-47.341700 0.000000
-47.278800 0.000000
-47.215800 0.000000
-47.152800 0.000000
-47.089800 0.000000
-47.026900 0.000000
-46.963900 0.000000
-46.900900 0.000000
-46.837900 0.000000
-46.775000 0.000000
-46.712000 0.000000
-46.649000 0.000000
-46.586100 0.000000
-46.523100 0.000000
-46.460100 0.000000
-46.397100 0.000000
-46.334200 0.000000
-46.271200 0.000000
-46.208200 0.000000
-46.145200 0.000000
-46.082300 0.000000
-46.019300 0.000000
-45.956300 0.000000
-45.893400 0.000000
-45.830400 0.000000
-45.767400 0.000000
-45.704400 0.000000
-45.641500 0.000000
-45.578500 0.000000
-45.515500 0.000000
-45.452500 0.000000
-45.389600 0.000000
-45.326600 0.000000
-45.263600 0.000000
-45.200700 0.000000
-45.137700 0.000000
-45.074700 0.000000
-45.011700 0.000000
-44.948800 0.000000
-44.885800 0.000000
-44.822800 0.000000
-44.759800 0.000000
-44.696900 0.000000
-44.633900 0.000000
-44.570900 0.000000
-44.508000 0.000000
-44.445000 0.000000
-44.382000 0.000000
-44.319000 0.000000
-44.256100 0.000000
-44.193100 0.000000
-44.130100 0.000000
-44.067200 0.000000
-44.004200 0.000000
-43.941200 0.000000
-43.878200 0.000000
-43.815300 0.000000
-43.752300 0.000000
-43.689300 0.000000
-43.626300 0.000000
-43.563400 0.000000
-43.500400 0.000000
-43.437400 0.000000
-43.374500 0.000000
-43.311500 0.000000
-43.248500 0.000000
-43.185500 0.000000
-43.122600 0.000000
-43.059600 0.000000
-42.996600 0.000000
-42.933600 0.000000
-42.870700 0.000000
-42.807700 0.000000
-42.744700 0.000000
-42.681800 0.000000
-42.618800 0.000000
-42.555800 0.000000
-42.492800 0.000000
-42.429900 0.000000
-42.366900 0.000000
-42.303900 0.000000
-42.240900 0.000000
-42.178000 0.000000
-42.115000 0.000000
-42.052000 0.000000
-41.989100 0.000000
-41.926100 0.000000
-41.863100 0.000000
-41.800100 0.000000
-41.737200 0.000000
-41.674200 0.000000
-41.611200 0.000000
-41.548300 0.000000
-41.485300 0.000000
-41.422300 0.000000
-41.359300 0.000000
-41.296400 0.000000
-41.233400 0.000000
-41.170400 0.000000
-41.107400 0.000000
-41.044500 0.000000
-40.981500 0.000000
-40.918500 0.000000
-40.855600 0.000000
-40.792600 0.000000
-40.729600 0.000000
-40.666600 0.000000
-40.603700 0.000000
-40.540700 0.000000
-40.477700 0.000000
-40.414700 0.000000
-40.351800 0.000000
-40.288800 0.000000
-40.225800 0.000000
-40.162900 0.000000
-40.099900 0.000000
-40.036900 0.000000
-39.973900 0.000000
-39.911000 0.000000
-39.848000 0.000000
-39.785000 0.000000
-39.722000 0.000000
-39.659100 0.000000
-39.596100 0.000000
-39.533100 0.000000
-39.470200 0.000000
-39.407200 0.000000
-39.344200 0.000000
-39.281200 0.000000
-39.218300 0.000000
-39.155300 0.000000
-39.092300 0.000000
-39.029300 0.000000
-38.966400 0.000000
-38.903400 0.000000
-38.840400 0.000000
-38.777500 0.000000
-38.714500 0.000000
-38.651500 0.000000
-38.588500 0.000000
-38.525600 0.000000
-38.462600 0.000000
-38.399600 0.000000
-38.336700 0.000000
-38.273700 0.000000
-38.210700 0.000000
-38.147700 0.000000
-38.084800 0.000000
-38.021800 0.000000
-37.958800 0.000000
-37.895800 0.000000
-37.832900 0.000000
-37.769900 0.000000
-37.706900 0.000000
-37.644000 0.000000
-37.581000 0.000000
-37.518000 0.000000
-37.455000 0.000000
-37.392100 0.000000
-37.329100 0.000000
-37.266100 0.000000
-37.203100 0.000000
-37.140200 0.000000
-37.077200 0.000000
-37.014200 0.000000
-36.951300 0.000000
-36.888300 0.000000
-36.825300 0.000000
-36.762300 0.000000
-36.699400 0.000000
-36.636400 0.000000
-36.573400 0.000000
-36.510400 0.000000
-36.447500 0.000000
-36.384500 0.000000
-36.321500 0.000000
-36.258600 0.000100
-36.195600 0.115200
-36.132600 5.657200
-36.069600 24.091400
-36.006700 15.846700
-35.943700 1.907300
-35.880700 0.021900
-35.817800 0.000000
-35.754800 0.000000
-35.691800 0.000000
-35.628800 0.000000
-35.565900 0.000000
-35.502900 0.000000
-35.439900 0.000000
-35.376900 0.000000
-35.314000 0.000000
-35.251000 0.000000
-35.188000 0.000000
-35.125100 0.000000
-35.062100 0.000000
-34.999100 0.000000
-34.936100 0.000000
-34.873200 0.000000
-34.810200 0.000000
-34.747200 0.000000
-34.684200 0.000000
-34.621300 0.000000
-34.558300 0.000000
-34.495300 0.000000
-34.432400 0.000000
-34.369400 0.000000
-34.306400 0.000000
-34.243400 0.000000
-34.180500 0.000000
-34.117500 0.000000
-34.054500 0.000000
-33.991500 0.000000
-33.928600 0.000000
-33.865600 0.000000
-33.802600 0.000000
-33.739700 0.000000
-33.676700 0.000000
-33.613700 0.000000
-33.550700 0.000000
-33.487800 0.000000
-33.424800 0.000000
-33.361800 0.000000
-33.298800 0.000000
-33.235900 0.000000
-33.172900 0.000000
-33.109900 0.000000
-33.047000 0.000000
-32.984000 0.000000
-32.921000 0.000000
-32.858000 0.000000
-32.795100 0.000000
-32.732100 0.000000
-32.669100 0.000000
-32.606200 0.000000
-32.543200 0.000000
-32.480200 0.000000
-32.417200 0.000000
-32.354300 0.000000
-32.291300 0.000000
-32.228300 0.000000
-32.165300 0.000000
-32.102400 0.000000
-32.039400 0.000000
-31.976400 0.000000
-31.913500 0.000000
-31.850500 0.000000
-31.787500 0.000000
-31.724500 0.000000
-31.661600 0.000000
-31.598600 0.000000
-31.535600 0.000000
-31.472600 0.000000
-31.409700 0.000000
-31.346700 0.000000
-31.283700 0.000000
-31.220800 0.000000
-31.157800 0.000000
-31.094800 0.000000
-31.031800 0.000000
-30.968900 0.000000
-30.905900 0.000000
-30.842900 0.000000
-30.779900 0.000000
-30.717000 0.000000
-30.654000 0.000000
-30.591000 0.000000
-30.528100 0.000000
-30.465100 0.000000
-30.402100 0.000000
-30.339100 0.000000
-30.276200 0.000000
-30.213200 0.000000
-30.150200 0.000000
-30.087300 0.000000
-30.024300 0.000000
-29.961300 0.000000
-29.898300 0.000000
-29.835400 0.000000
-29.772400 0.000000
-29.709400 0.000000
-29.646400 0.000000
-29.583500 0.000000
-29.520500 0.000000
-29.457500 0.000000
-29.394600 0.000000
-29.331600 0.000000
-29.268600 0.000000
-29.205600 0.000000
-29.142700 0.000000
-29.079700 0.000000
-29.016700 0.000000
-28.953700 0.000000
-28.890800 0.000000
-28.827800 0.000000
-28.764800 0.000000
-28.701900 0.000000
-28.638900 0.000000
-28.575900 0.000000
-28.512900 0.000000
-28.450000 0.000000
-28.387000 0.000000
-28.324000 0.000000
-28.261000 0.000000
-28.198100 0.000000
-28.135100 0.000000
-28.072100 0.000000
-28.009200 0.000000
-27.946200 0.000000
-27.883200 0.000000
-27.820200 0.000000
-27.757300 0.000000
-27.694300 0.000000
-27.631300 0.000000
-27.568300 0.000000
-27.505400 0.000000
-27.442400 0.000000
-27.379400 0.000000
-27.316500 0.000000
-27.253500 0.000000
-27.190500 0.000000
-27.127500 0.000000
-27.064600 0.000000
-27.001600 0.000000
-26.938600 0.000000
-26.875700 0.000000
-26.812700 0.000000
-26.749700 0.000000
-26.686700 0.000000
-26.623800 0.000000
-26.560800 0.000000
-26.497800 0.000000
-26.434800 0.000000
-26.371900 0.000000
-26.308900 0.000000
-26.245900 0.000000
-26.183000 0.000000
-26.120000 0.000000
-26.057000 0.000000
-25.994000 0.000000
-25.931100 0.000000
-25.868100 0.000000
-25.805100 0.000000
-25.742100 0.000000
-25.679200 0.000000
-25.616200 0.000000
-25.553200 0.000000
-25.490300 0.000000
-25.427300 0.000000
-25.364300 0.000000
-25.301300 0.000000
-25.238400 0.000000
-25.175400 0.000000
-25.112400 0.000000
-25.049400 0.000000
-24.986500 0.000000
-24.923500 0.000000
-24.860500 0.000000
-24.797600 0.000000
-24.734600 0.000000
-24.671600 0.000000
-24.608600 0.000000
-24.545700 0.000000
-24.482700 0.000000
-24.419700 0.000000
-24.356800 0.000000
-24.293800 0.000000
-24.230800 0.000000
-24.167800 0.000000
-24.104900 0.000000
-24.041900 0.000000
-23.978900 0.000000
-23.915900 0.000000
-23.853000 0.000000
-23.790000 0.000000
-23.727000 0.000000
-23.664100 0.000000
-23.601100 0.000000
-23.538100 0.000000
-23.475100 0.000000
-23.412200 0.000000
-23.349200 0.000000
-23.286200 0.000000
-23.223200 0.000000
-23.160300 0.000000
-23.097300 0.000000
-23.034300 0.000000
-22.971400 0.000000
-22.908400 0.000000
-22.845400 0.000000
-22.782400 0.000000
-22.719500 0.000000
-22.656500 0.000000
-22.593500 0.000000
-22.530500 0.000000
-22.467600 0.000000
-22.404600 0.000000
-22.341600 0.000000
-22.278700 0.000000
-22.215700 0.000000
-22.152700 0.000000
-22.089700 0.000000
-22.026800 0.000000
-21.963800 0.000000
-21.900800 0.000000
-21.837800 0.000000
-21.774900 0.000000
-21.711900 0.000000
-21.648900 0.000000
-21.586000 0.000000
-21.523000 0.000000
-21.460000 0.000000
-21.397000 0.000000
-21.334100 0.000000
-21.271100 0.000000
-21.208100 0.000000
-21.145200 0.000000
-21.082200 0.000000
-21.019200 0.000000
-20.956200 0.000000
-20.893300 0.000000
-20.830300 0.000000
-20.767300 0.000000
-20.704300 0.000000
-20.641400 0.000000
-20.578400 0.000000
-20.515400 0.000000
-20.452500 0.000000
-20.389500 0.000000
-20.326500 0.000000
-20.263500 0.000000
-20.200600 0.000000
-20.137600 0.000000
-20.074600 0.000000
-20.011600 0.000000
-19.948700 0.000000
-19.885700 0.000000
-19.822700 0.000000
-19.759800 0.000000
-19.696800 0.000000
-19.633800 0.000000
-19.570800 0.000000
-19.507900 0.000000
-19.444900 0.000000
-19.381900 0.000000
-19.318900 0.000000
-19.256000 0.000000
-19.193000 0.000000
-19.130000 0.000000
-19.067100 0.000000
-19.004100 0.000000
-18.941100 0.000000
-18.878100 0.000000
-18.815200 0.000000
-18.752200 0.000000
-18.689200 0.000000
-18.626300 0.000000
-18.563300 0.000000
-18.500300 0.000000
-18.437300 0.000000
-18.374400 0.000000
-18.311400 0.000000
-18.248400 0.000000
-18.185400 0.000000
-18.122500 0.000000
-18.059500 0.000000
-17.996500 0.000000
-17.933600 0.000000
-17.870600 0.000000
-17.807600 0.000000
-17.744600 0.000000
-17.681700 0.000000
-17.618700 0.000000
-17.555700 0.000000
-17.492700 0.000000
-17.429800 0.000000
-17.366800 0.000000
-17.303800 0.000000
-17.240900 0.000000
-17.177900 0.000000
-17.114900 0.000000
-17.051900 0.000000
-16.989000 0.000000
-16.926000 0.000000
-16.863000 0.000000
-16.800000 0.000000
-16.737100 0.000000
-16.674100 0.000000
-16.611100 0.000000
-16.548200 0.000000
-16.485200 0.000000
-16.422200 0.000000
-16.359200 0.000000
-16.296300 0.000000
-16.233300 0.000000
-16.170300 0.000000
-16.107400 0.000000
-16.044400 0.000000
-15.981400 0.000000
-15.918400 0.000000
-15.855500 0.000000
-15.792500 0.000000
-15.729500 0.000000
-15.666500 0.000000
-15.603600 0.000000
-15.540600 0.000000
-15.477600 0.000000
-15.414700 0.000000
-15.351700 0.000000
-15.288700 0.000000
-15.225700 0.000000
-15.162800 0.000000
-15.099800 0.000000
-15.036800 0.000000
-14.973800 0.000000
-14.910900 0.000000
-14.847900 0.000000
-14.784900 0.000000
-14.722000 0.000000
-14.659000 0.000000
-14.596000 0.000000
-14.533000 0.000000
-14.470100 0.000000
-14.407100 0.000000
-14.344100 0.000000
-14.281100 0.000000
-14.218200 0.000000
-14.155200 0.000000
-14.092200 0.000000
-14.029300 0.000000
-13.966300 0.000000
-13.903300 0.000000
-13.840300 0.000000
-13.777400 0.000000
-13.714400 0.000000
-13.651400 0.000000
-13.588400 0.000000
-13.525500 0.000000
-13.462500 0.000000
-13.399500 0.000000
-13.336600 0.000000
-13.273600 0.000000
-13.210600 0.000000
-13.147600 0.000000
-13.084700 0.000000
-13.021700 0.000000
-12.958700 0.000000
-12.895800 0.000000
-12.832800 0.000000
-12.769800 0.000000
-12.706800 0.000000
-12.643900 0.000000
-12.580900 0.000000
-12.517900 0.000000
-12.454900 0.000000
-12.392000 0.000000
-12.329000 0.000000
-12.266000 0.000000
-12.203100 0.000000
-12.140100 0.000000
-12.077100 0.000000
-12.014100 0.000000
-11.951200 0.000000
-11.888200 0.000000
-11.825200 0.000000
-11.762200 0.000000
-11.699300 0.000000
-11.636300 0.000000
-11.573300 0.000000
-11.510400 0.000000
-11.447400 0.000000
-11.384400 0.000000
-11.321400 0.000000
-11.258500 0.000000
-11.195500 0.000000
-11.132500 0.000000
-11.069500 0.000000
-11.006600 0.000000
-10.943600 0.000000
-10.880600 0.000000
-10.817700 0.000000
-10.754700 0.000000
-10.691700 0.000000
-10.628700 0.000000
-10.565800 0.000000
-10.502800 0.000000
-10.439800 0.000000
-10.376900 0.000000
-10.313900 0.000000
-10.250900 0.000000
-10.187900 0.000000
-10.125000 0.000000
-10.062000 0.000000
-9.999000 0.000000
-9.936000 0.000000
-9.873100 0.000000
-9.810100 0.000000
-9.747100 0.000000
-9.684200 0.000000
-9.621200 0.000000
-9.558200 0.000000
-9.495200 0.000000
-9.432300 0.000000
-9.369300 0.000000
-9.306300 0.000000
-9.243300 0.000000
-9.180400 0.000000
-9.117400 0.000000
-9.054400 0.000000
-8.991500 0.000000
-8.928500 0.000000
-8.865500 0.000000
-8.802500 0.000000
-8.739600 0.000000
-8.676600 0.000000
-8.613600 0.000000
-8.550600 0.000000
-8.487700 0.000000
-8.424700 0.000000
-8.361700 0.000000
-8.298800 0.000000
-8.235800 0.000000
-8.172800 0.000000
-8.109800 0.000000
-8.046900 0.000000
-7.983900 0.000000
-7.920900 0.000000
-7.857900 0.000000
-7.795000 0.000000
-7.732000 0.000000
-7.669000 0.000000
-7.606100 0.000000
-7.543100 0.000000
-7.480100 0.000000
-7.417100 0.000000
-7.354200 0.000000
-7.291200 0.000000
-7.228200 0.000000
-7.165300 0.000000
-7.102300 0.000000
-7.039300 0.000000
-6.976300 0.000000
-6.913400 0.000000
-6.850400 0.000000
-6.787400 0.000000
-6.724400 0.000000
-6.661500 0.000000
-6.598500 0.000000
-6.535500 0.000000
-6.472600 0.000000
-6.409600 0.000000
-6.346600 0.000000
-6.283600 0.000000
-6.220700 0.000000
-6.157700 0.000000
-6.094700 0.000000
-6.031700 0.000000
-5.968800 0.000000
-5.905800 0.000000
-5.842800 0.000000
-5.779900 0.000000
-5.716900 0.000000
-5.653900 0.000000
-5.590900 0.000000
-5.528000 0.000000
-5.465000 0.000000
-5.402000 0.000000
-5.339000 0.000000
-5.276100 0.000000
-5.213100 0.000000
-5.150100 0.000000
-5.087200 0.000000
-5.024200 0.000000
-4.961200 0.000000
-4.898200 0.000000
-4.835300 0.000000
-4.772300 0.000000
-4.709300 0.000000
-4.646400 0.000000
-4.583400 0.000000
-4.520400 0.000000
-4.457400 0.000000
-4.394500 0.000000
-4.331500 0.000000
-4.268500 0.000000
-4.205500 0.000000
-4.142600 0.000000
-4.079600 0.000000
-4.016600 0.000000
-3.953700 0.000000
-3.890700 0.000000
-3.827700 0.000000
-3.764700 0.000000
-3.701800 0.000000
-3.638800 0.000000
-3.575800 0.000000
-3.512800 0.000000
-3.449900 0.000000
-3.386900 0.000000
-3.323900 0.000000
-3.261000 0.000000
-3.198000 0.000000
-3.135000 0.000000
-3.072000 0.000000
-3.009100 0.000000
-2.946100 0.000000
-2.883100 0.000000
-2.820100 0.000000
-2.757200 0.000000
-2.694200 0.000000
-2.631200 0.000000
-2.568300 0.000000
-2.505300 0.000000
-2.442300 0.000000
-2.379300 0.000000
-2.316400 0.000000
-2.253400 0.000000
-2.190400 0.000000
-2.127400 0.000000
-2.064500 0.000000
-2.001500 0.000000
-1.938500 0.000000
-1.875600 0.000000
-1.812600 0.000000
-1.749600 0.000000
-1.686600 0.000000
-1.623700 0.000000
-1.560700 0.000000
-1.497700 0.000000
-1.434800 0.000000
-1.371800 0.000000
-1.308800 0.000000
-1.245800 0.000000
-1.182900 0.000400
-1.119900 0.006400
-1.056900 0.021100
-0.993900 0.052500
-0.931000 0.053400
-0.868000 0.032200
-0.805000 0.094300
-0.742100 0.103000
-0.679100 0.095100
-0.616100 0.034100
-0.553100 0.091100
-0.490200 0.136800
-0.427200 0.177700
-0.364200 0.072800
-0.301200 0.080500
-0.238300 0.147800
-0.175300 0.188900
-0.112300 0.071900
-0.049400 0.153000
0.013600 0.187400
0.076600 0.166300
0.139600 0.096400
0.202500 0.173600
0.265500 0.250500
0.328500 0.238500
0.391500 0.097300
0.454400 0.098600
0.517400 0.196500
0.580400 0.277000
0.643300 0.148700
0.706300 0.277700
0.769300 0.315500
0.832300 0.149000
0.895200 0.177100
0.958200 0.300300
1.021200 0.234100
1.084100 0.139600
1.147100 0.208800
1.210100 0.331000
1.273100 0.313800
1.336000 0.355900
1.399000 0.316200
1.462000 0.291400
1.525000 0.197400
1.587900 0.261900
1.650900 0.375900
1.713900 0.303900
1.776800 0.355200
1.839800 0.333700
1.902800 0.323300
1.965800 0.531400
2.028700 0.478700
2.091700 0.279000
2.154700 0.344700
2.217700 0.476300
2.280600 0.444000
2.343600 0.524600
2.406600 0.536900
2.469500 0.539200
2.532500 0.540000
2.595500 0.675700
2.658500 0.575600
2.721400 0.603700
2.784400 0.698900
2.847400 1.044100
2.910400 0.943200
2.973300 1.125400
3.036300 1.464300
3.099300 1.636800
3.162200 1.678400
3.225200 1.732800
3.288200 1.413000
3.351200 1.657400
3.414100 2.066600
3.477100 2.037200
3.540100 2.184400
3.603100 1.935500
3.666000 1.887400
3.729000 2.301800
3.792000 2.127500
3.854900 2.405200
3.917900 2.975300
3.980900 3.073800
4.043900 3.231600
4.106800 3.490900
4.169800 3.738100
4.232800 3.572300
4.295700 3.282000
4.358700 3.369700
4.421700 3.444600
4.484700 3.456700
4.547600 3.105700
4.610600 3.183900
4.673600 3.200000
4.736600 3.232100
4.799500 2.875100
4.862500 2.832400
4.925500 2.865700
4.988400 2.786000
5.051400 3.779100
5.114400 3.686500
5.177400 3.661000
5.240300 4.168200
5.303300 4.158700
5.366300 4.568500
5.429300 4.741500
5.492200 4.422000
5.555200 4.648200
5.618200 4.896500
5.681100 5.380000
5.744100 5.530300
5.807100 5.260400
5.870100 5.262900
5.933000 5.442800
5.996000 5.683100
6.059000 5.631600
6.122000 4.781900
6.184900 4.424800
6.247900 4.585300
6.310900 4.490600
6.373800 4.133900
6.436800 4.285700
6.499800 4.199300
6.562800 4.888400
6.625700 5.192300
6.688700 4.411200
6.751700 4.256300
6.814600 3.897800
6.877600 3.381600
6.940600 3.159500
7.003600 3.074600
7.066500 3.510300
7.129500 3.369800
7.192500 3.827200
7.255500 4.210300
7.318400 4.598600
7.381400 5.159500
7.444400 5.043700
7.507300 4.382800
7.570300 3.753400
7.633300 3.108500
7.696300 3.026600
7.759200 2.738600
7.822200 2.494000
7.885200 2.587700
7.948200 3.570400
8.011100 3.756400
8.074100 3.761400
8.137100 4.934400
8.200000 5.624400
8.263000 5.282200
8.326000 3.572800
8.389000 1.921600
8.451900 1.376300
8.514900 1.520700
8.577900 1.375900
8.640900 1.134700
8.703800 0.949200
8.766800 0.868200
8.829800 0.846300
8.892700 0.733500
8.955700 0.880300
9.018700 0.968300
9.081700 0.691300
9.144600 0.689900
9.207600 0.465300
9.270600 0.407700
9.333600 0.581700
9.396500 0.789700
9.459500 0.660900
9.522500 0.500100
9.585400 0.519200
9.648400 0.697500
9.711400 0.518500
9.774400 0.362900
9.837300 0.514400
9.900300 0.645500
9.963300 0.631200
10.026200 0.536200
10.089200 0.450200
10.152200 0.510400
10.215200 0.626700
10.278100 0.574200
10.341100 0.563900
10.404100 0.533200
10.467100 0.670800
10.530000 0.769700
10.593000 0.672400
10.656000 0.561300
10.718900 0.361900
10.781900 0.462400
10.844900 0.541700
10.907900 0.517200
10.970800 0.500500
11.033800 0.511800
11.096800 0.703800
11.159800 0.716300
11.222700 0.665300
11.285700 0.564400
11.348700 0.386400
11.411600 0.268600
11.474600 0.433700
11.537600 0.472200
11.600600 0.399400
11.663500 0.510400
11.726500 0.459100
11.789500 0.550800
11.852500 0.701800
11.915400 0.662800
11.978400 0.408300
12.041400 0.342500
12.104300 0.332900
12.167300 0.214700
12.230300 0.295900
12.293300 0.357600
12.356200 0.548500
12.419200 0.396500
12.482200 0.199400
12.545100 0.145000
12.608100 0.170000
12.671100 0.363100
12.734100 0.531000
12.797000 0.563900
12.860000 0.461900
12.923000 0.335000
12.986000 0.340800
13.048900 0.324300
13.111900 0.230100
13.174900 0.371300
13.237800 0.395700
13.300800 0.258600
13.363800 0.274400
13.426800 0.356000
13.489700 0.307300
13.552700 0.176100
13.615700 0.174400
13.678700 0.258300
13.741600 0.326200
13.804600 0.283800
13.867600 0.256400
13.930500 0.339300
13.993500 0.180100
14.056500 0.149300
14.119500 0.167300
14.182400 0.154100
14.245400 0.226400
14.308400 0.208500
14.371400 0.174400
14.434300 0.353000
14.497300 0.569600
14.560300 0.808800
14.623200 0.690300
14.686200 0.740100
14.749200 0.476500
14.812200 0.323200
14.875100 0.510400
14.938100 0.705300
15.001100 0.780700
15.064100 0.694100
15.127000 0.689500
15.190000 0.623400
15.253000 0.445400
15.315900 0.787000
15.378900 1.100900
15.441900 0.791600
15.504900 0.494900
15.567800 0.483400
15.630800 0.370900
15.693800 0.394100
15.756700 0.371100
15.819700 0.588200
15.882700 0.689600
15.945700 0.865000
16.008600 0.687100
16.071600 0.518800
16.134600 0.510800
16.197600 0.554900
16.260500 0.465700
16.323500 0.312700
16.386500 0.383200
16.449400 0.437700
16.512400 0.475600
16.575400 0.553600
16.638400 0.627200
16.701300 0.490300
16.764300 0.401800
16.827300 0.414200
16.890300 0.613100
16.953200 0.686500
17.016200 0.515400
17.079200 0.426300
17.142100 0.305600
17.205100 0.310900
17.268100 0.452400
17.331100 0.471300
17.394000 0.414900
17.457000 0.580800
17.520000 0.572000
17.583000 0.526200
17.645900 0.484000
17.708900 0.516700
17.771900 0.577800
17.834800 0.495500
17.897800 0.530900
17.960800 0.672000
18.023800 0.770200
18.086700 0.563100
18.149700 0.381300
18.212700 0.444800
18.275600 0.677400
18.338600 0.779600
18.401600 0.871000
18.464600 0.913600
18.527500 0.847300
18.590500 0.746300
18.653500 0.840400
18.716500 0.709900
18.779400 0.741200
18.842400 0.844100
18.905400 0.951800
18.968300 0.893900
19.031300 0.669300
19.094300 0.612600
19.157300 0.552600
19.220200 0.579300
19.283200 0.676000
19.346200 0.699200
19.409200 0.724800
19.472100 0.716700
19.535100 0.872900
19.598100 0.882000
19.661000 0.728000
19.724000 0.623300
19.787000 0.737500
19.850000 1.055500
19.912900 0.962900
19.975900 0.608800
20.038900 0.551300
20.101900 0.747100
20.164800 0.900500
20.227800 0.807500
20.290800 0.615300
20.353700 0.926200
20.416700 0.683100
20.479700 0.587800
20.542700 0.657900
20.605600 0.764800
20.668600 0.684100
20.731600 0.569200
20.794600 0.661500
20.857500 0.589300
20.920500 0.506900
20.983500 1.037000
21.046400 1.120200
21.109400 0.881700
21.172400 0.827500
21.235400 0.707400
21.298300 0.694000
21.361300 0.758600
21.424300 0.743600
21.487200 0.953700
21.550200 0.966500
21.613200 0.857100
21.676200 0.859900
21.739100 0.763700
21.802100 0.688000
21.865100 0.886600
21.928100 0.763700
21.991000 0.623800
22.054000 0.593300
22.117000 0.711500
22.179900 0.886000
22.242900 1.021300
22.305900 0.857400
22.368900 0.708600
22.431800 0.615100
22.494800 0.904500
22.557800 0.987600
22.620800 0.966600
22.683700 1.138200
22.746700 1.153000
22.809700 0.804000
22.872600 0.728300
22.935600 0.696300
22.998600 0.993900
23.061600 0.970600
23.124500 1.045000
23.187500 1.053600
23.250500 0.804500
23.313500 0.863300
23.376400 0.917700
23.439400 0.711100
23.502400 0.576500
23.565300 0.825700
23.628300 0.885800
23.691300 0.757400
23.754300 0.736800
23.817200 1.082700
23.880200 1.034200
23.943200 0.921300
24.006100 0.881200
24.069100 0.653100
24.132100 0.533600
24.195100 0.596200
24.258000 0.759500
24.321000 0.860700
24.384000 1.096100
24.447000 1.138800
24.509900 1.098200
24.572900 0.786900
24.635900 0.655500
24.698800 0.769400
24.761800 0.817400
24.824800 0.894700
24.887800 0.820200
24.950700 0.862500
25.013700 0.702700
25.076700 0.738800
25.139700 0.775200
25.202600 0.940300
25.265600 1.008100
25.328600 0.843400
25.391500 0.702400
25.454500 0.639700
25.517500 0.763900
25.580500 0.597600
25.643400 0.482400
25.706400 0.728000
25.769400 0.711200
25.832400 0.587400
25.895300 0.940800
25.958300 0.933500
26.021300 1.079800
26.084200 0.988000
26.147200 0.624400
26.210200 0.696200
26.273200 0.651000
26.336100 0.416800
26.399100 0.627100
26.462100 0.822300
26.525100 1.166500
26.588000 0.893600
26.651000 0.587800
26.714000 0.723100
26.776900 0.655700
26.839900 0.557800
26.902900 0.638400
26.965900 0.796200
27.028800 0.684600
27.091800 0.440200
27.154800 0.794500
27.217700 0.676200
27.280700 0.755000
27.343700 0.675300
27.406700 0.638600
27.469600 0.608400
27.532600 0.704100
27.595600 0.747500
27.658600 0.726400
27.721500 0.760300
27.784500 0.569700
27.847500 0.662300
27.910400 0.804400
27.973400 0.634600
28.036400 0.586900
28.099400 0.584700
28.162300 0.677200
28.225300 0.842900
28.288300 0.916600
28.351300 0.745700
28.414200 0.749800
28.477200 0.737200
28.540200 0.825700
28.603100 0.715700
28.666100 0.712600
28.729100 0.912900
28.792100 0.707600
28.855000 0.776600
28.918000 0.860100
28.981000 0.751000
29.044000 0.890300
29.106900 0.881600
29.169900 1.223700
29.232900 1.117600
29.295800 0.854300
29.358800 0.833800
29.421800 0.770900
29.484800 0.741000
29.547700 0.929800
29.610700 1.115300
29.673700 1.163200
29.736600 0.948000
29.799600 0.875500
29.862600 0.801300
29.925600 0.956200
29.988500 0.985900
30.051500 0.898000
30.114500 1.082900
30.177500 0.884300
30.240400 0.867800
30.303400 0.917200
30.366400 0.976300
30.429300 1.113100
30.492300 1.285400
30.555300 1.324400
30.618300 1.066200
30.681200 0.956200
30.744200 0.996700
30.807200 1.082000
30.870200 1.006800
30.933100 0.960800
30.996100 1.082800
31.059100 0.735100
31.122000 0.627000
31.185000 0.882600
31.248000 1.159500
31.311000 1.246100
31.373900 1.044200
31.436900 0.720500
31.499900 0.741000
31.562900 0.968600
31.625800 1.117700
31.688800 0.792800
31.751800 0.979700
31.814700 0.884700
31.877700 0.971500
31.940700 1.140000
32.003700 1.148200
32.066600 1.181300
32.129600 1.305400
32.192600 0.878700
32.255600 0.874000
32.318500 0.999200
32.381500 1.241800
32.444500 1.289400
32.507400 0.773000
32.570400 0.834300
32.633400 1.241800
32.696400 0.990400
32.759300 0.762600
32.822300 1.012000
32.885300 0.899800
32.948200 0.856900
33.011200 0.737800
33.074200 0.825200
33.137200 0.852800
33.200100 0.857300
33.263100 0.939600
33.326100 0.936900
33.389100 1.058300
33.452000 1.306700
33.515000 1.126000
33.578000 0.888300
33.640900 0.822500
33.703900 0.724400
33.766900 0.710800
33.829900 0.929500
33.892800 0.887200
33.955800 0.881100
34.018800 0.678900
34.081800 0.756100
34.144700 0.778200
34.207700 0.995900
34.270700 0.949800
34.333600 0.495600
34.396600 0.548600
34.459600 0.500900
34.522600 0.743200
34.585500 0.917400
34.648500 0.888900
34.711500 0.896300
34.774500 0.762400
34.837400 0.726300
34.900400 0.481200
34.963400 0.389700
35.026300 0.517600
35.089300 0.549000
35.152300 0.468700
35.215300 0.756900
35.278200 0.858700
35.341200 0.955800
35.404200 0.937900
35.467100 0.651200
35.530100 0.616600
35.593100 0.895000
35.656100 0.807800
35.719000 0.811900
35.782000 0.585900
35.845000 0.488700
35.908000 0.504100
35.970900 0.547400
36.033900 0.623500
36.096900 0.516800
36.159800 0.520000
36.222800 0.766400
36.285800 0.900600
36.348800 0.712400
36.411700 0.887900
36.474700 0.906400
36.537700 0.995900
36.600700 0.873000
36.663600 0.849200
36.726600 0.934400
36.789600 1.188800
36.852500 1.294500
36.915500 1.127400
36.978500 1.055700
37.041500 1.018100
37.104400 1.067300
37.167400 0.833200
37.230400 0.976800
37.293400 1.094400
37.356300 1.277700
37.419300 1.401700
37.482300 1.528200
37.545200 1.207100
37.608200 0.888300
37.671200 1.034700
37.734200 1.105900
37.797100 1.135200
37.860100 1.518900
37.923100 1.292700
37.986100 0.835400
38.049000 1.210000
38.112000 1.558900
38.175000 1.425300
38.237900 1.147200
38.300900 1.042400
38.363900 1.165900
38.426900 1.191200
38.489800 1.082200
38.552800 0.974400
38.615800 0.882800
38.678700 1.035300
38.741700 1.319400
38.804700 1.104100
38.867700 0.892500
38.930600 1.106700
38.993600 0.989700
39.056600 0.905100
39.119600 1.310600
39.182500 1.646100
39.245500 1.531100
39.308500 1.602500
39.371400 2.211200
39.434400 2.835100
39.497400 2.988700
39.560400 2.312300
39.623300 1.926900
39.686300 1.488400
39.749300 1.043000
39.812300 0.931800
39.875200 0.932500
39.938200 1.301400
40.001200 1.361600
40.064100 1.139900
40.127100 0.979400
40.190100 1.073200
40.253100 1.198000
40.316000 0.963600
40.379000 0.887300
40.442000 1.106400
40.505000 1.335200
40.567900 1.049700
40.630900 0.864800
40.693900 0.919200
40.756800 0.834400
40.819800 1.077500
40.882800 1.007200
40.945800 0.760200
41.008700 1.045300
41.071700 0.909200
41.134700 0.697100
41.197600 0.998600
41.260600 1.345600
41.323600 1.179000
41.386600 1.340900
41.449500 1.008600
41.512500 0.815100
41.575500 1.062100
41.638500 1.201100
41.701400 1.144900
41.764400 1.057300
41.827400 1.314300
41.890300 1.499900
41.953300 1.020000
42.016300 1.030900
42.079300 1.147300
42.142200 1.095400
42.205200 0.992200
42.268200 1.420300
42.331200 1.403200
42.394100 1.398100
42.457100 1.148700
42.520100 0.936500
42.583000 1.072000
42.646000 1.076800
42.709000 1.115400
42.772000 1.173200
42.834900 1.156800
42.897900 0.978800
42.960900 1.073700
43.023900 1.105500
43.086800 0.849100
43.149800 1.033500
43.212800 1.304700
43.275700 1.128000
43.338700 0.817400
43.401700 0.806500
43.464700 1.257800
43.527600 1.264600
43.590600 1.033500
43.653600 0.940000
43.716600 1.109400
43.779500 1.117900
43.842500 0.704500
43.905500 0.729000
43.968400 0.974400
44.031400 1.055500
44.094400 1.176100
44.157400 1.350400
44.220300 1.486900
44.283300 1.161700
44.346300 1.015300
44.409200 0.964800
44.472200 0.997100
44.535200 1.377500
44.598200 1.493700
44.661100 1.314400
44.724100 1.646300
44.787100 2.631200
44.850100 3.842900
44.913000 5.196800
44.976000 6.643000
45.039000 8.660300
45.101900 10.347700
45.164900 6.849200
45.227900 3.024400
45.290900 1.767200
45.353800 1.571900
45.416800 1.387100
45.479800 1.162400
45.542800 1.116200
45.605700 1.142200
45.668700 1.153800
45.731700 1.067900
45.794600 1.089900
45.857600 0.825400
45.920600 0.946200
45.983600 1.176900
46.046500 1.100000
46.109500 0.888000
46.172500 1.045500
46.235500 1.058500
46.298400 1.066200
46.361400 0.876600
46.424400 1.056900
46.487300 1.271900
46.550300 0.966300
46.613300 0.952000
46.676300 0.976000
46.739200 1.172800
46.802200 1.460900
46.865200 1.273800
46.928100 1.371700
46.991100 1.359900
47.054100 0.894700
47.117100 1.022700
47.180000 0.977200
47.243000 0.900900
47.306000 0.795600
47.369000 1.098500
47.431900 1.081500
47.494900 1.134100
47.557900 0.944100
47.620800 0.742600
47.683800 1.117100
47.746800 1.299400
47.809800 1.360700
47.872700 1.395100
47.935700 0.953700
47.998700 1.134100
48.061700 1.124200
48.124600 0.834600
48.187600 0.801200
48.250600 1.056400
48.313500 1.365500
48.376500 1.254000
48.439500 1.207200
48.502500 1.137600
48.565400 1.371300
48.628400 1.227700
48.691400 1.063000
48.754400 0.876400
48.817300 0.995200
48.880300 1.032400
48.943300 1.107700
49.006200 1.318900
49.069200 1.112300
49.132200 0.720500
49.195200 1.095900
49.258100 1.245700
49.321100 1.411200
49.384100 1.206100
49.447100 1.175400
49.510000 0.917700
49.573000 0.891500
49.636000 1.260500
49.698900 1.463800
49.761900 1.195400
49.824900 0.970200
49.887900 0.943100
49.950800 1.032600
50.013800 1.281600
50.076800 1.202600
50.139700 1.327600
50.202700 1.316500
50.265700 0.979500
50.328700 0.861700
50.391600 1.116100
50.454600 0.968600
50.517600 1.000300
50.580600 1.311400
50.643500 1.334200
50.706500 1.294200
50.769500 1.196500
50.832400 1.037100
50.895400 1.098500
50.958400 1.344500
51.021400 1.125800
51.084300 1.023000
51.147300 1.072200
51.210300 0.979100
51.273300 1.188900
51.336200 1.274200
51.399200 1.155200
51.462200 0.853400
51.525100 0.973300
51.588100 1.057900
51.651100 1.222400
51.714100 1.308600
51.777000 1.267900
51.840000 1.530700
51.903000 1.179500
51.966000 1.118500
52.028900 1.353400
52.091900 1.418500
52.154900 1.274600
52.217800 1.139200
52.280800 1.046900
52.343800 1.129300
52.406800 1.163500
52.469700 0.863100
52.532700 0.835300
52.595700 1.246300
52.658600 1.222100
52.721600 1.150200
52.784600 1.194900
52.847600 1.260800
52.910500 1.145000
52.973500 1.225500
53.036500 1.140400
53.099500 1.012300
53.162400 1.348300
53.225400 1.179100
53.288400 1.222300
53.351300 1.011300
53.414300 1.054200
53.477300 1.264200
53.540300 1.177500
53.603200 1.513600
53.666200 1.920000
53.729200 1.732900
53.792200 1.029800
53.855100 0.957700
53.918100 1.185100
53.981100 1.354300
54.044000 1.065600
54.107000 0.911700
54.170000 1.070900
54.233000 1.092300
54.295900 1.107400
54.358900 1.347100
54.421900 1.459900
54.484900 1.715900
54.547800 1.459700
54.610800 1.471100
54.673800 1.408500
54.736700 1.194700
54.799700 1.040000
54.862700 1.107200
54.925700 1.228100
54.988600 1.246900
55.051600 0.970700
55.114600 0.976300
55.177600 1.246800
55.240500 1.340000
55.303500 1.403600
55.366500 1.320400
55.429400 1.061000
55.492400 1.270800
55.555400 1.369100
55.618400 1.588500
55.681300 1.664800
55.744300 1.429400
55.807300 1.245700
55.870200 1.161000
55.933200 1.182000
55.996200 1.519400
56.059200 1.441500
56.122100 1.235200
56.185100 0.964100
56.248100 1.088600
56.311100 1.364100
56.374000 1.302600
56.437000 1.205700
56.500000 1.137600
56.562900 1.359600
56.625900 1.148400
56.688900 0.717300
56.751900 0.818800
56.814800 0.856800
56.877800 0.800600
56.940800 1.115800
57.003800 1.078200
57.066700 0.993100
57.129700 0.613600
57.192700 0.452500
57.255600 0.603600
57.318600 0.598200
57.381600 0.486900
57.444600 0.860100
57.507500 0.944500
57.570500 0.821500
57.633500 0.584700
57.696500 0.436800
57.759400 0.490600
57.822400 0.464900
57.885400 0.346400
57.948300 0.363400
58.011300 0.291500
58.074300 0.296200
58.137300 0.243800
58.200200 0.121000
58.263200 0.103900
58.326200 0.197500
58.389100 0.143400
58.452100 0.152100
58.515100 0.046200
58.578100 0.001500
58.641000 0.000000
58.704000 0.000000
58.767000 0.000000
58.830000 0.000000
58.892900 0.000000
58.955900 0.000000
59.018900 0.000000
59.081800 0.000000
59.144800 0.000000
59.207800 0.000000
59.270800 0.000000
59.333700 0.000000
59.396700 0.000000
59.459700 0.000000
59.522700 0.000000
59.585600 0.000000
59.648600 0.000000
59.711600 0.000000
59.774500 0.000000
59.837500 0.000000
59.900500 0.000000
59.963500 0.000000
60.026400 0.000000
60.089400 0.000000
60.152400 0.000000
60.215400 0.000000
60.278300 0.000000
60.341300 0.000000
60.404300 0.000000
60.467200 0.000000
60.530200 0.000000
60.593200 0.000000
60.656200 0.000000
60.719100 0.000000
60.782100 0.000000
60.845100 0.000000
60.908100 0.000000
60.971000 0.000000
61.034000 0.000000
61.097000 0.000000
61.159900 0.000000
61.222900 0.000000
61.285900 0.000000
61.348900 0.000000
61.411800 0.000000
61.474800 0.000000
61.537800 0.000000
61.600700 0.000000
61.663700 0.000000
61.726700 0.000000
61.789700 0.000000
61.852600 0.000000
61.915600 0.000000
61.978600 0.000000
62.041600 0.000000
62.104500 0.000000
62.167500 0.000000
62.230500 0.000000
62.293400 0.000000
62.356400 0.000000
62.419400 0.000000
62.482400 0.000000
62.545300 0.000000
62.608300 0.000000
62.671300 0.000000
62.734300 0.000000
62.797200 0.000000
62.860200 0.000000
62.923200 0.000000
62.986100 0.000000
63.049100 0.000000
63.112100 0.000000
63.175100 0.000000
63.238000 0.000000
63.301000 0.000000
63.364000 0.000000
63.427000 0.000000
63.489900 0.000000
63.552900 0.000000
63.615900 0.000000
63.678800 0.000000
63.741800 0.000000
63.804800 0.000000
63.867800 0.000000
63.930700 0.000000
63.993700 0.000000
64.056700 0.000000
64.119600 0.000000
64.182600 0.000000
64.245600 0.000000
64.308600 0.000000
e
