set title 'mp-567752 - Density of States'
set xlabel 'Energy (eV)'
set ylabel 'DOS (states/eV)'
set grid
set xrange [-10:10]
set yrange [0:47.801]
set xzeroaxis lt -1
set terminal png size 800,600
set output 'mp-567752_dos_gnuplot.png'
plot '-' using 1:2 with lines title 'DOS'
-21.461600 0.000000
-21.441200 0.000000
-21.420800 0.000000
-21.400400 0.000000
-21.380100 0.000000
-21.359700 0.000000
-21.339300 0.000000
-21.318900 0.000000
-21.298500 0.000000
-21.278200 0.000000
-21.257800 0.000000
-21.237400 0.000000
-21.217000 0.000000
-21.196700 0.000000
-21.176300 0.000000
-21.155900 0.000000
-21.135500 0.000000
-21.115200 0.000000
-21.094800 0.000000
-21.074400 0.000000
-21.054000 0.000000
-21.033600 0.000000
-21.013300 0.000000
-20.992900 0.000000
-20.972500 0.000000
-20.952100 0.000000
-20.931800 0.000000
-20.911400 0.000000
-20.891000 0.000000
-20.870600 0.000000
-20.850300 0.000000
-20.829900 0.000000
-20.809500 0.000000
-20.789100 0.000000
-20.768800 0.000000
-20.748400 0.000000
-20.728000 0.000000
-20.707600 0.000000
-20.687200 0.000000
-20.666900 0.000000
-20.646500 0.000000
-20.626100 0.000000
-20.605700 0.000000
-20.585400 0.000000
-20.565000 0.000000
-20.544600 0.000000
-20.524200 0.000000
-20.503900 0.000000
-20.483500 0.000000
-20.463100 0.000000
-20.442700 0.000000
-20.422300 0.000000
-20.402000 0.000000
-20.381600 0.000000
-20.361200 0.000000
-20.340800 0.000000
-20.320500 0.000000
-20.300100 0.000000
-20.279700 0.000000
-20.259300 0.000000
-20.239000 0.000000
-20.218600 0.000000
-20.198200 0.000000
-20.177800 0.000000
-20.157500 0.000000
-20.137100 0.000000
-20.116700 0.000000
-20.096300 0.000000
-20.075900 0.000000
-20.055600 0.000000
-20.035200 0.000000
-20.014800 0.000000
-19.994400 0.000000
-19.974100 0.000000
-19.953700 0.000000
-19.933300 0.000000
-19.912900 0.000000
-19.892600 0.000000
-19.872200 0.000000
-19.851800 0.000000
-19.831400 0.000000
-19.811000 0.000000
-19.790700 0.000000
-19.770300 0.000000
-19.749900 0.000700
-19.729500 0.008100
-19.709200 0.065300
-19.688800 0.381900
-19.668400 1.626900
-19.648000 5.061100
-19.627700 11.565000
-19.607300 19.725400
-19.586900 26.213100
-19.566500 29.902100
-19.546100 33.551600
-19.525800 38.804300
-19.505400 42.367400
-19.485000 40.471400
-19.464600 34.789200
-19.444300 30.136100
-19.423900 27.378100
-19.403500 23.014900
-19.383100 15.599000
-19.362800 7.960400
-19.342400 2.982600
-19.322000 0.813500
-19.301600 0.161000
-19.281300 0.023100
-19.260900 0.002400
-19.240500 0.000200
-19.220100 0.000000
-19.199700 0.000000
-19.179400 0.000000
-19.159000 0.000000
-19.138600 0.000000
-19.118200 0.000000
-19.097900 0.000000
-19.077500 0.000000
-19.057100 0.000000
-19.036700 0.000000
-19.016400 0.000000
-18.996000 0.000000
-18.975600 0.000000
-18.955200 0.000000
-18.934800 0.000000
-18.914500 0.000000
-18.894100 0.000000
-18.873700 0.000000
-18.853300 0.000000
-18.833000 0.000000
-18.812600 0.000000
-18.792200 0.000000
-18.771800 0.000000
-18.751500 0.000000
-18.731100 0.000000
-18.710700 0.000000
-18.690300 0.000000
-18.670000 0.000000
-18.649600 0.000000
-18.629200 0.000000
-18.608800 0.000000
-18.588400 0.000000
-18.568100 0.000000
-18.547700 0.000000
-18.527300 0.000000
-18.506900 0.000000
-18.486600 0.000000
-18.466200 0.000000
-18.445800 0.000000
-18.425400 0.000000
-18.405100 0.000000
-18.384700 0.000000
-18.364300 0.000000
-18.343900 0.000000
-18.323500 0.000000
-18.303200 0.000000
-18.282800 0.000000
-18.262400 0.000000
-18.242000 0.000000
-18.221700 0.000000
-18.201300 0.000000
-18.180900 0.000000
-18.160500 0.000000
-18.140200 0.000000
-18.119800 0.000000
-18.099400 0.000000
-18.079000 0.000000
-18.058600 0.000000
-18.038300 0.000000
-18.017900 0.000000
-17.997500 0.000000
-17.977100 0.000000
-17.956800 0.000000
-17.936400 0.000000
-17.916000 0.000000
-17.895600 0.000000
-17.875300 0.000000
-17.854900 0.000000
-17.834500 0.000000
-17.814100 0.000000
-17.793800 0.000000
-17.773400 0.000000
-17.753000 0.000000
-17.732600 0.000000
-17.712200 0.000000
-17.691900 0.000000
-17.671500 0.000000
-17.651100 0.000000
-17.630700 0.000000
-17.610400 0.000000
-17.590000 0.000000
-17.569600 0.000000
-17.549200 0.000000
-17.528900 0.000000
-17.508500 0.000000
-17.488100 0.000000
-17.467700 0.000000
-17.447300 0.000000
-17.427000 0.000000
-17.406600 0.000000
-17.386200 0.000000
-17.365800 0.000000
-17.345500 0.000000
-17.325100 0.000000
-17.304700 0.000000
-17.284300 0.000000
-17.264000 0.000000
-17.243600 0.000000
-17.223200 0.000000
-17.202800 0.000000
-17.182500 0.000000
-17.162100 0.000000
-17.141700 0.000000
-17.121300 0.000000
-17.100900 0.000000
-17.080600 0.000000
-17.060200 0.000000
-17.039800 0.000000
-17.019400 0.000000
-16.999100 0.000000
-16.978700 0.000000
-16.958300 0.000000
-16.937900 0.000000
-16.917600 0.000000
-16.897200 0.000000
-16.876800 0.000000
-16.856400 0.000000
-16.836000 0.000000
-16.815700 0.000000
-16.795300 0.000000
-16.774900 0.000000
-16.754500 0.000000
-16.734200 0.000000
-16.713800 0.000000
-16.693400 0.000000
-16.673000 0.000000
-16.652700 0.000000
-16.632300 0.000000
-16.611900 0.000000
-16.591500 0.000000
-16.571100 0.000000
-16.550800 0.000000
-16.530400 0.000000
-16.510000 0.000000
-16.489600 0.000000
-16.469300 0.000000
-16.448900 0.000000
-16.428500 0.000000
-16.408100 0.000000
-16.387800 0.000000
-16.367400 0.000000
-16.347000 0.000000
-16.326600 0.000000
-16.306300 0.000000
-16.285900 0.000000
-16.265500 0.000000
-16.245100 0.000000
-16.224700 0.000000
-16.204400 0.000000
-16.184000 0.000000
-16.163600 0.000000
-16.143200 0.000000
-16.122900 0.000000
-16.102500 0.000000
-16.082100 0.000000
-16.061700 0.000000
-16.041400 0.000000
-16.021000 0.000000
-16.000600 0.000000
-15.980200 0.000000
-15.959800 0.000000
-15.939500 0.000000
-15.919100 0.000000
-15.898700 0.000000
-15.878300 0.000000
-15.858000 0.000000
-15.837600 0.000000
-15.817200 0.000000
-15.796800 0.000000
-15.776500 0.000000
-15.756100 0.000000
-15.735700 0.000000
-15.715300 0.000000
-15.694900 0.000000
-15.674600 0.000000
-15.654200 0.000000
-15.633800 0.000000
-15.613400 0.000000
-15.593100 0.000000
-15.572700 0.000000
-15.552300 0.000000
-15.531900 0.000000
-15.511600 0.000000
-15.491200 0.000000
-15.470800 0.000000
-15.450400 0.000000
-15.430100 0.000000
-15.409700 0.000000
-15.389300 0.000000
-15.368900 0.000000
-15.348500 0.000000
-15.328200 0.000000
-15.307800 0.000000
-15.287400 0.000000
-15.267000 0.000000
-15.246700 0.000000
-15.226300 0.000000
-15.205900 0.000000
-15.185500 0.000000
-15.165200 0.000000
-15.144800 0.000000
-15.124400 0.000000
-15.104000 0.000000
-15.083600 0.000000
-15.063300 0.000000
-15.042900 0.000000
-15.022500 0.000000
-15.002100 0.000000
-14.981800 0.000000
-14.961400 0.000000
-14.941000 0.000000
-14.920600 0.000000
-14.900300 0.000000
-14.879900 0.000000
-14.859500 0.000000
-14.839100 0.000000
-14.818800 0.000000
-14.798400 0.000000
-14.778000 0.000000
-14.757600 0.000000
-14.737200 0.000000
-14.716900 0.000000
-14.696500 0.000000
-14.676100 0.000000
-14.655700 0.000000
-14.635400 0.000000
-14.615000 0.000000
-14.594600 0.000000
-14.574200 0.000000
-14.553900 0.000000
-14.533500 0.000000
-14.513100 0.000000
-14.492700 0.000000
-14.472300 0.000000
-14.452000 0.000000
-14.431600 0.000000
-14.411200 0.000000
-14.390800 0.000000
-14.370500 0.000000
-14.350100 0.000000
-14.329700 0.000000
-14.309300 0.000000
-14.289000 0.000000
-14.268600 0.000000
-14.248200 0.000000
-14.227800 0.000000
-14.207400 0.000000
-14.187100 0.000000
-14.166700 0.000000
-14.146300 0.000000
-14.125900 0.000000
-14.105600 0.000000
-14.085200 0.000000
-14.064800 0.000000
-14.044400 0.000000
-14.024100 0.000000
-14.003700 0.000000
-13.983300 0.000000
-13.962900 0.000000
-13.942600 0.000000
-13.922200 0.000000
-13.901800 0.000000
-13.881400 0.000000
-13.861000 0.000000
-13.840700 0.000000
-13.820300 0.000000
-13.799900 0.000000
-13.779500 0.000000
-13.759200 0.000000
-13.738800 0.000000
-13.718400 0.000000
-13.698000 0.000000
-13.677700 0.000000
-13.657300 0.000000
-13.636900 0.000000
-13.616500 0.000000
-13.596100 0.000000
-13.575800 0.000000
-13.555400 0.000000
-13.535000 0.000000
-13.514600 0.000000
-13.494300 0.000000
-13.473900 0.000000
-13.453500 0.000000
-13.433100 0.000000
-13.412800 0.000000
-13.392400 0.000000
-13.372000 0.000000
-13.351600 0.000000
-13.331300 0.000000
-13.310900 0.000000
-13.290500 0.000000
-13.270100 0.000000
-13.249700 0.000000
-13.229400 0.000000
-13.209000 0.000000
-13.188600 0.000000
-13.168200 0.000000
-13.147900 0.000000
-13.127500 0.000000
-13.107100 0.000000
-13.086700 0.000000
-13.066400 0.000000
-13.046000 0.000000
-13.025600 0.000000
-13.005200 0.000000
-12.984800 0.000000
-12.964500 0.000000
-12.944100 0.000000
-12.923700 0.000000
-12.903300 0.000000
-12.883000 0.000000
-12.862600 0.000000
-12.842200 0.000000
-12.821800 0.000000
-12.801500 0.000000
-12.781100 0.000000
-12.760700 0.000000
-12.740300 0.000000
-12.719900 0.000000
-12.699600 0.000000
-12.679200 0.000000
-12.658800 0.000000
-12.638400 0.000000
-12.618100 0.000000
-12.597700 0.000000
-12.577300 0.000000
-12.556900 0.000000
-12.536600 0.000000
-12.516200 0.000000
-12.495800 0.000000
-12.475400 0.000000
-12.455100 0.000000
-12.434700 0.000000
-12.414300 0.000000
-12.393900 0.000000
-12.373500 0.000000
-12.353200 0.000000
-12.332800 0.000000
-12.312400 0.000000
-12.292000 0.000000
-12.271700 0.000000
-12.251300 0.000000
-12.230900 0.000000
-12.210500 0.000000
-12.190200 0.000000
-12.169800 0.000000
-12.149400 0.000000
-12.129000 0.000000
-12.108600 0.000000
-12.088300 0.000000
-12.067900 0.000000
-12.047500 0.000000
-12.027100 0.000000
-12.006800 0.000000
-11.986400 0.000000
-11.966000 0.000000
-11.945600 0.000000
-11.925300 0.000000
-11.904900 0.000000
-11.884500 0.000000
-11.864100 0.000000
-11.843800 0.000000
-11.823400 0.000000
-11.803000 0.000000
-11.782600 0.000000
-11.762200 0.000000
-11.741900 0.000000
-11.721500 0.000000
-11.701100 0.000000
-11.680700 0.000000
-11.660400 0.000000
-11.640000 0.000000
-11.619600 0.000000
-11.599200 0.000000
-11.578900 0.000000
-11.558500 0.000000
-11.538100 0.000000
-11.517700 0.000000
-11.497300 0.000000
-11.477000 0.000000
-11.456600 0.000000
-11.436200 0.000000
-11.415800 0.000000
-11.395500 0.000000
-11.375100 0.000000
-11.354700 0.000000
-11.334300 0.000000
-11.314000 0.000000
-11.293600 0.000000
-11.273200 0.000000
-11.252800 0.000000
-11.232400 0.000100
-11.212100 0.000700
-11.191700 0.006000
-11.171300 0.039300
-11.150900 0.195000
-11.130600 0.738600
-11.110200 2.176300
-11.089800 5.106300
-11.069400 9.796800
-11.049100 15.768300
-11.028700 21.794000
-11.008300 26.510100
-10.987900 29.241600
-10.967600 30.411300
-10.947200 31.590900
-10.926800 35.027300
-10.906400 41.810000
-10.886000 49.963100
-10.865700 55.795300
-10.845300 58.656700
-10.824900 63.456300
-10.804500 75.703700
-10.784200 92.866000
-10.763800 103.243200
-10.743400 96.938600
-10.723000 77.490100
-10.702700 59.987400
-10.682300 57.368800
-10.661900 69.456800
-10.641500 85.247100
-10.621100 94.745800
-10.600800 96.776800
-10.580400 95.114100
-10.560000 91.530400
-10.539600 86.923400
-10.519300 85.453900
-10.498900 91.494900
-10.478500 104.792800
-10.458100 122.552800
-10.437800 141.172800
-10.417400 153.175300
-10.397000 150.605500
-10.376600 133.667000
-10.356300 109.209900
-10.335900 82.291100
-10.315500 55.214200
-10.295100 31.411000
-10.274700 14.589900
-10.254400 5.411800
-10.234000 1.582900
-10.213600 0.361700
-10.193200 0.064000
-10.172900 0.008700
-10.152500 0.000900
-10.132100 0.000100
-10.111700 0.000000
-10.091400 0.000000
-10.071000 0.000000
-10.050600 0.000000
-10.030200 0.000000
-10.009800 0.000000
-9.989500 0.000000
-9.969100 0.000000
-9.948700 0.000000
-9.928300 0.000000
-9.908000 0.000000
-9.887600 0.000000
-9.867200 0.000000
-9.846800 0.000000
-9.826500 0.000000
-9.806100 0.000000
-9.785700 0.000000
-9.765300 0.000000
-9.744900 0.000000
-9.724600 0.000000
-9.704200 0.000000
-9.683800 0.000000
-9.663400 0.000000
-9.643100 0.000000
-9.622700 0.000000
-9.602300 0.000000
-9.581900 0.000000
-9.561600 0.000000
-9.541200 0.000000
-9.520800 0.000000
-9.500400 0.000000
-9.480100 0.000000
-9.459700 0.000000
-9.439300 0.000000
-9.418900 0.000000
-9.398500 0.000000
-9.378200 0.000000
-9.357800 0.000000
-9.337400 0.000000
-9.317000 0.000000
-9.296700 0.000000
-9.276300 0.000000
-9.255900 0.000000
-9.235500 0.000000
-9.215200 0.000000
-9.194800 0.000000
-9.174400 0.000000
-9.154000 0.000000
-9.133600 0.000000
-9.113300 0.000000
-9.092900 0.000000
-9.072500 0.000000
-9.052100 0.000000
-9.031800 0.000000
-9.011400 0.000000
-8.991000 0.000000
-8.970600 0.000000
-8.950300 0.000000
-8.929900 0.000000
-8.909500 0.000000
-8.889100 0.000000
-8.868800 0.000000
-8.848400 0.000000
-8.828000 0.000000
-8.807600 0.000000
-8.787200 0.000000
-8.766900 0.000000
-8.746500 0.000000
-8.726100 0.000000
-8.705700 0.000000
-8.685400 0.000000
-8.665000 0.000000
-8.644600 0.000000
-8.624200 0.000000
-8.603900 0.000000
-8.583500 0.000000
-8.563100 0.000000
-8.542700 0.000000
-8.522300 0.000000
-8.502000 0.000000
-8.481600 0.000000
-8.461200 0.000000
-8.440800 0.000000
-8.420500 0.000000
-8.400100 0.000000
-8.379700 0.000000
-8.359300 0.000000
-8.339000 0.000000
-8.318600 0.000000
-8.298200 0.000000
-8.277800 0.000000
-8.257400 0.000000
-8.237100 0.000000
-8.216700 0.000000
-8.196300 0.000000
-8.175900 0.000000
-8.155600 0.000000
-8.135200 0.000000
-8.114800 0.000000
-8.094400 0.000000
-8.074100 0.000000
-8.053700 0.000000
-8.033300 0.000000
-8.012900 0.000000
-7.992600 0.000000
-7.972200 0.000000
-7.951800 0.000000
-7.931400 0.000000
-7.911000 0.000000
-7.890700 0.000000
-7.870300 0.000000
-7.849900 0.000000
-7.829500 0.000000
-7.809200 0.000000
-7.788800 0.000000
-7.768400 0.000000
-7.748000 0.000000
-7.727700 0.000000
-7.707300 0.000000
-7.686900 0.000000
-7.666500 0.000000
-7.646100 0.000000
-7.625800 0.000000
-7.605400 0.000000
-7.585000 0.000000
-7.564600 0.000000
-7.544300 0.000000
-7.523900 0.000000
-7.503500 0.000000
-7.483100 0.000000
-7.462800 0.000000
-7.442400 0.000000
-7.422000 0.000000
-7.401600 0.000000
-7.381300 0.000000
-7.360900 0.000000
-7.340500 0.000000
-7.320100 0.000000
-7.299700 0.000000
-7.279400 0.000000
-7.259000 0.000000
-7.238600 0.000000
-7.218200 0.000000
-7.197900 0.000000
-7.177500 0.000000
-7.157100 0.000000
-7.136700 0.000000
-7.116400 0.000000
-7.096000 0.000000
-7.075600 0.000300
-7.055200 0.003500
-7.034800 0.026200
-7.014500 0.146900
-6.994100 0.620300
-6.973700 1.991700
-6.953300 4.932800
-6.933000 9.567400
-6.912600 14.724300
-6.892200 18.133500
-6.871800 17.920400
-6.851500 14.186500
-6.831100 8.956400
-6.810700 4.482600
-6.790300 1.772200
-6.769900 0.598900
-6.749600 0.429100
-6.729200 1.221400
-6.708800 3.697700
-6.688400 8.932800
-6.668100 17.163100
-6.647700 26.639000
-6.627300 34.170700
-6.606900 37.498500
-6.586600 37.166100
-6.566200 35.885100
-6.545800 35.902700
-6.525400 36.891500
-6.505100 36.686000
-6.484700 33.932600
-6.464300 29.395200
-6.443900 24.844700
-6.423500 21.493100
-6.403200 19.566400
-6.382800 18.689700
-6.362400 18.552700
-6.342000 19.381300
-6.321700 21.423100
-6.301300 24.110000
-6.280900 26.558700
-6.260500 28.815400
-6.240200 31.687100
-6.219800 35.432200
-6.199400 39.245800
-6.179000 41.971500
-6.158600 43.235100
-6.138300 43.455200
-6.117900 42.352400
-6.097500 38.701000
-6.077100 32.371800
-6.056800 25.527600
-6.036400 21.072800
-6.016000 19.991400
-5.995600 20.219100
-5.975300 18.532000
-5.954900 13.836100
-5.934500 8.019500
-5.914100 3.532900
-5.893700 1.170200
-5.873400 0.289400
-5.853000 0.053200
-5.832600 0.007200
-5.812200 0.000700
-5.791900 0.000100
-5.771500 0.000000
-5.751100 0.000000
-5.730700 0.000000
-5.710400 0.000000
-5.690000 0.000000
-5.669600 0.000000
-5.649200 0.000000
-5.628900 0.000000
-5.608500 0.000000
-5.588100 0.000000
-5.567700 0.000000
-5.547300 0.000000
-5.527000 0.000000
-5.506600 0.000000
-5.486200 0.000000
-5.465800 0.000000
-5.445500 0.000000
-5.425100 0.000000
-5.404700 0.000000
-5.384300 0.000000
-5.364000 0.000000
-5.343600 0.000000
-5.323200 0.000000
-5.302800 0.000000
-5.282400 0.000000
-5.262100 0.000000
-5.241700 0.000000
-5.221300 0.000000
-5.200900 0.000000
-5.180600 0.000000
-5.160200 0.000000
-5.139800 0.000000
-5.119400 0.000000
-5.099100 0.000000
-5.078700 0.000000
-5.058300 0.000000
-5.037900 0.000000
-5.017600 0.000000
-4.997200 0.000000
-4.976800 0.000000
-4.956400 0.000000
-4.936000 0.000000
-4.915700 0.000000
-4.895300 0.000000
-4.874900 0.000000
-4.854500 0.000000
-4.834200 0.000000
-4.813800 0.000000
-4.793400 0.000000
-4.773000 0.000000
-4.752700 0.000000
-4.732300 0.000000
-4.711900 0.000000
-4.691500 0.000000
-4.671100 0.000000
-4.650800 0.000000
-4.630400 0.000000
-4.610000 0.000000
-4.589600 0.000000
-4.569300 0.000000
-4.548900 0.000000
-4.528500 0.000000
-4.508100 0.000000
-4.487800 0.000000
-4.467400 0.000000
-4.447000 0.000000
-4.426600 0.000000
-4.406200 0.000000
-4.385900 0.000000
-4.365500 0.000000
-4.345100 0.000000
-4.324700 0.000000
-4.304400 0.000000
-4.284000 0.000000
-4.263600 0.000100
-4.243200 0.000700
-4.222900 0.004000
-4.202500 0.017400
-4.182100 0.057000
-4.161700 0.145600
-4.141400 0.308500
-4.121000 0.581300
-4.100600 1.010200
-4.080200 1.603200
-4.059800 2.288900
-4.039500 2.953800
-4.019100 3.472800
-3.998700 3.721600
-3.978300 3.710300
-3.958000 3.702600
-3.937600 4.068600
-3.917200 4.980000
-3.896800 6.199500
-3.876500 7.140100
-3.856100 7.313200
-3.835700 6.828400
-3.815300 6.229900
-3.794900 5.787900
-3.774600 5.304400
-3.754200 4.655800
-3.733800 4.045800
-3.713400 3.572500
-3.693100 3.022400
-3.672700 2.277800
-3.652300 1.509600
-3.631900 0.893700
-3.611600 0.462700
-3.591200 0.196800
-3.570800 0.064800
-3.550400 0.015900
-3.530100 0.002900
-3.509700 0.000400
-3.489300 0.000000
-3.468900 0.000000
-3.448500 0.000000
-3.428200 0.000000
-3.407800 0.000000
-3.387400 0.000000
-3.367000 0.000000
-3.346700 0.000000
-3.326300 0.000000
-3.305900 0.000000
-3.285500 0.000000
-3.265200 0.000000
-3.244800 0.000000
-3.224400 0.000000
-3.204000 0.000000
-3.183600 0.000000
-3.163300 0.000000
-3.142900 0.000000
-3.122500 0.000000
-3.102100 0.000000
-3.081800 0.000000
-3.061400 0.000000
-3.041000 0.000000
-3.020600 0.000000
-3.000300 0.000000
-2.979900 0.000000
-2.959500 0.000000
-2.939100 0.000000
-2.918700 0.000000
-2.898400 0.000000
-2.878000 0.000000
-2.857600 0.000000
-2.837200 0.000000
-2.816900 0.000000
-2.796500 0.000000
-2.776100 0.000000
-2.755700 0.000000
-2.735400 0.000000
-2.715000 0.000000
-2.694600 0.000000
-2.674200 0.000000
-2.653900 0.000000
-2.633500 0.000000
-2.613100 0.000000
-2.592700 0.000000
-2.572300 0.000000
-2.552000 0.000000
-2.531600 0.000000
-2.511200 0.000000
-2.490800 0.000000
-2.470500 0.000000
-2.450100 0.000000
-2.429700 0.000000
-2.409300 0.000000
-2.389000 0.000000
-2.368600 0.000000
-2.348200 0.000000
-2.327800 0.000000
-2.307400 0.000000
-2.287100 0.000000
-2.266700 0.000000
-2.246300 0.000400
-2.225900 0.003200
-2.205600 0.020200
-2.185200 0.095700
-2.164800 0.338400
-2.144400 0.904500
-2.124100 1.850500
-2.103700 2.942000
-2.083300 3.731700
-2.062900 4.000900
-2.042600 3.995000
-2.022200 3.972100
-2.001800 3.762400
-1.981400 3.137600
-1.961000 2.353700
-1.940700 2.068500
-1.920300 2.899700
-1.899900 4.947900
-1.879500 7.398200
-1.859200 8.794900
-1.838800 8.249800
-1.818400 6.401300
-1.798000 4.814600
-1.777700 4.419900
-1.757300 4.744000
-1.736900 4.671000
-1.716500 3.706400
-1.696100 2.289600
-1.675800 1.093600
-1.655400 0.402200
-1.635000 0.113000
-1.614600 0.024100
-1.594300 0.004300
-1.573900 0.004100
-1.553500 0.021200
-1.533100 0.092000
-1.512800 0.301900
-1.492400 0.762600
-1.472000 1.520200
-1.451600 2.449400
-1.431200 3.245500
-1.410900 3.581700
-1.390500 3.371600
-1.370100 2.851100
-1.349700 2.344700
-1.329400 2.117900
-1.309000 2.532700
-1.288600 4.021800
-1.268200 6.637000
-1.247900 9.716600
-1.227500 12.211700
-1.207100 13.519600
-1.186700 14.037800
-1.166400 14.637400
-1.146000 15.437300
-1.125600 15.406700
-1.105200 13.454200
-1.084800 9.750000
-1.064500 5.686400
-1.044100 2.617400
-1.023700 0.936200
-1.003300 0.256500
-0.983000 0.053100
-0.962600 0.008300
-0.942200 0.001500
-0.921800 0.003400
-0.901500 0.015000
-0.881100 0.051100
-0.860700 0.130000
-0.840300 0.252800
-0.819900 0.385100
-0.799600 0.473600
-0.779200 0.481400
-0.758800 0.406800
-0.738400 0.281000
-0.718100 0.154100
-0.697700 0.065100
-0.677300 0.020700
-0.656900 0.004900
-0.636600 0.000800
-0.616200 0.000100
-0.595800 0.000000
-0.575400 0.000200
-0.555100 0.001700
-0.534700 0.013500
-0.514300 0.080900
-0.493900 0.360400
-0.473500 1.201900
-0.453200 3.023200
-0.432800 5.792900
-0.412400 8.583900
-0.392000 10.077800
-0.371700 9.734500
-0.351300 8.095400
-0.330900 5.956300
-0.310500 3.816100
-0.290200 2.030500
-0.269800 0.856200
-0.249400 0.280700
-0.229000 0.087900
-0.208600 0.083600
-0.188300 0.185300
-0.167900 0.356200
-0.147500 0.522000
-0.127100 0.578700
-0.106800 0.483100
-0.086400 0.301900
-0.066000 0.140300
-0.045600 0.048200
-0.025300 0.012200
-0.004900 0.002200
0.015500 0.000300
0.035900 0.000000
0.056300 0.000000
0.076600 0.000000
0.097000 0.000000
0.117400 0.000000
0.137800 0.000000
0.158100 0.000300
0.178500 0.002200
0.198900 0.014100
0.219300 0.064600
0.239600 0.219800
0.260000 0.565200
0.280400 1.135200
0.300800 1.879600
0.321100 2.752300
0.341500 3.784600
0.361900 4.989100
0.382300 6.240600
0.402700 7.326300
0.423000 8.027100
0.443400 8.079600
0.463800 7.277000
0.484200 5.726000
0.504500 3.847300
0.524900 2.138300
0.545300 0.946000
0.565700 0.326200
0.586000 0.109400
0.606400 0.122200
0.626800 0.304800
0.647200 0.648300
0.667600 1.096600
0.687900 1.572600
0.708300 2.081200
0.728700 2.694700
0.749100 3.400500
0.769400 3.956600
0.789800 3.999700
0.810200 3.475000
0.830600 2.798900
0.850900 2.359200
0.871300 2.109700
0.891700 1.815800
0.912100 1.392900
0.932400 0.936100
0.952800 0.643600
0.973200 0.738700
0.993600 1.349900
1.014000 2.393400
1.034300 3.555200
1.054700 4.426200
1.075100 4.675800
1.095500 4.164900
1.115800 3.049500
1.136200 1.776900
1.156600 0.807800
1.177000 0.324100
1.197300 0.285500
1.217700 0.658600
1.238100 1.394900
1.258500 2.177400
1.278900 2.466000
1.299200 2.027800
1.319600 1.224400
1.340000 0.581300
1.360400 0.291300
1.380700 0.227300
1.401100 0.208800
1.421500 0.156800
1.441900 0.087000
1.462200 0.035300
1.482600 0.012300
1.503000 0.012000
1.523400 0.034600
1.543800 0.086200
1.564100 0.159400
1.584500 0.225100
1.604900 0.268100
1.625300 0.318500
1.645600 0.405300
1.666000 0.506000
1.686400 0.603000
1.706800 0.735600
1.727100 0.903900
1.747500 1.007400
1.767900 1.015200
1.788300 1.126300
1.808600 1.612800
1.829000 2.458200
1.849400 3.238000
1.869800 3.477400
1.890200 3.073800
1.910500 2.320300
1.930900 1.660800
1.951300 1.393300
1.971700 1.451900
1.992000 1.541700
2.012400 1.509300
2.032800 1.432700
2.053200 1.392300
2.073500 1.364500
2.093900 1.379300
2.114300 1.627800
2.134700 2.241100
2.155100 3.019800
2.175400 3.604000
2.195800 3.825700
2.216200 3.719700
2.236600 3.429800
2.256900 3.166000
2.277300 2.974300
2.297700 2.714500
2.318100 2.492600
2.338400 2.770800
2.358800 3.808100
2.379200 5.274400
2.399600 6.727800
2.419900 8.252500
2.440300 10.082400
2.460700 11.697300
2.481100 12.101000
2.501500 11.146400
2.521800 9.804400
2.542200 8.928700
2.562600 8.373700
2.583000 7.440800
2.603300 5.776200
2.623700 3.761000
2.644100 2.195600
2.664500 1.686000
2.684800 2.350400
2.705200 3.906200
2.725600 5.764000
2.746000 7.201400
2.766400 7.852000
2.786700 8.005100
2.807100 8.168400
2.827500 8.469700
2.847900 8.695400
2.868200 8.733700
2.888600 8.747500
2.909000 8.903500
2.929400 9.145800
2.949700 9.434000
2.970100 9.886800
2.990500 10.349800
3.010900 10.208400
3.031300 9.026100
3.051600 7.108500
3.072000 5.253100
3.092400 4.206000
3.112800 4.348900
3.133100 5.596200
3.153500 7.547600
3.173900 9.633900
3.194300 11.074100
3.214600 11.274600
3.235000 10.452500
3.255400 9.390500
3.275800 8.713100
3.296100 8.644300
3.316500 8.994600
3.336900 9.149900
3.357300 8.506000
3.377700 7.130500
3.398000 5.745800
3.418400 4.973400
3.438800 4.754800
3.459200 4.519100
3.479500 3.791800
3.499900 2.617100
3.520300 1.460100
3.540700 0.786500
3.561000 0.796700
3.581400 1.416900
3.601800 2.288900
3.622200 2.855700
3.642600 2.753900
3.662900 2.102600
3.683300 1.296000
3.703700 0.645900
3.724100 0.258000
3.744400 0.092400
3.764800 0.067600
3.785200 0.129500
3.805600 0.250200
3.825900 0.394900
3.846300 0.507600
3.866700 0.530500
3.887100 0.464200
3.907500 0.425800
3.927800 0.605300
3.948200 1.088300
3.968600 1.690400
3.989000 2.078500
4.009300 2.150600
4.029700 2.100200
4.050100 2.012300
4.070500 1.740800
4.090800 1.295700
4.111200 0.969400
4.131600 0.975500
4.152000 1.242400
4.172300 1.643500
4.192700 2.252500
4.213100 3.237000
4.233500 4.492600
4.253900 5.577100
4.274200 6.309200
4.294600 7.217500
4.315000 8.759300
4.335400 10.226200
4.355700 10.287900
4.376100 8.719400
4.396500 6.761700
4.416900 5.605000
4.437200 5.250400
4.457600 5.017700
4.478000 4.585100
4.498400 4.255800
4.518800 4.414600
4.539100 4.950900
4.559500 5.301500
4.579900 5.061400
4.600300 4.442600
4.620600 4.044100
4.641000 4.314000
4.661400 5.350300
4.681800 6.956300
4.702100 8.618500
4.722500 9.592800
4.742900 9.347200
4.763300 8.060300
4.783600 6.578600
4.804000 5.752100
4.824400 5.947700
4.844800 7.202300
4.865200 9.286300
4.885500 11.376700
4.905900 12.346700
4.926300 11.769100
4.946700 10.252600
4.967000 8.767800
4.987400 7.888300
5.007800 7.555400
5.028200 7.453800
5.048500 7.470300
5.068900 7.647500
5.089300 8.013400
5.109700 8.558100
5.130100 9.051900
5.150400 9.030200
5.170800 8.248800
5.191200 7.017100
5.211600 5.988900
5.231900 5.683500
5.252300 6.197300
5.272700 7.305200
5.293100 8.640600
5.313400 9.719600
5.333800 10.089700
5.354200 9.657000
5.374600 8.759100
5.395000 7.906300
5.415300 7.560500
5.435700 8.005700
5.456100 9.188300
5.476500 10.672200
5.496800 11.840000
5.517200 12.323400
5.537600 12.333400
5.558000 12.337200
5.578300 12.371900
5.598700 12.042300
5.619100 11.194200
5.639500 10.204500
5.659800 9.628300
5.680200 9.691100
5.700600 9.983800
5.721000 9.797900
5.741400 8.993300
5.761700 8.285300
5.782100 8.502200
5.802500 9.758100
5.822900 11.314500
5.843200 12.162500
5.863600 11.942400
5.884000 11.274000
5.904400 10.935000
5.924700 10.865300
5.945100 10.391600
5.965500 9.347200
5.985900 8.489900
6.006300 8.701900
6.026600 10.029400
6.047000 11.696900
6.067400 12.905600
6.087800 13.315300
6.108100 12.940500
6.128500 11.955500
6.148900 10.557300
6.169300 8.920400
6.189600 7.354000
6.210000 6.353700
6.230400 6.220800
6.250800 6.725500
6.271100 7.482900
6.291500 8.593000
6.311900 10.365300
6.332300 12.370700
6.352700 13.609200
6.373000 13.778000
6.393400 13.396900
6.413800 12.801300
6.434200 12.125400
6.454500 11.864900
6.474900 12.420000
6.495300 13.397200
6.515700 13.819700
6.536000 13.009800
6.556400 11.322500
6.576800 9.763600
6.597200 8.826200
6.617600 8.281000
6.637900 8.133900
6.658300 8.957800
6.678700 10.930000
6.699100 13.124400
6.719400 14.284800
6.739800 14.128200
6.760200 13.455200
6.780600 13.087800
6.800900 13.205300
6.821300 13.618800
6.841700 14.020300
6.862100 13.955300
6.882500 13.089400
6.902800 11.508000
6.923200 9.652200
6.943600 8.148900
6.964000 7.574200
6.984300 8.073400
7.004700 9.272500
7.025100 10.761500
7.045500 12.472600
7.065800 14.252000
7.086200 15.454700
7.106600 15.616700
7.127000 15.138900
7.147300 14.669400
7.167700 14.273000
7.188100 13.704200
7.208500 13.052700
7.228900 12.725600
7.249200 12.923500
7.269600 13.305800
7.290000 13.288900
7.310400 12.667100
7.330700 11.717300
7.351100 10.729400
7.371500 9.806800
7.391900 9.068200
7.412200 8.568900
7.432600 8.132900
7.453000 7.709900
7.473400 7.618500
7.493800 8.094700
7.514100 8.957100
7.534500 9.870300
7.554900 10.540800
7.575300 10.626400
7.595600 9.997300
7.616000 9.132600
7.636400 8.650400
7.656800 8.546400
7.677100 8.501300
7.697500 8.642300
7.717900 9.448600
7.738300 11.030800
7.758600 12.774900
7.779000 13.830200
7.799400 13.930800
7.819800 13.487100
7.840200 12.960500
7.860500 12.558600
7.880900 12.367600
7.901300 12.284500
7.921700 11.995700
7.942000 11.393500
7.962400 10.721500
7.982800 10.076300
8.003200 9.170100
8.023500 7.883200
8.043900 6.774000
8.064300 6.620800
8.084700 7.497200
8.105100 8.660500
8.125400 9.331600
8.145800 9.303700
8.166200 8.921400
8.186600 8.798200
8.206900 9.441300
8.227300 10.743100
8.247700 11.799700
8.268100 11.671900
8.288400 10.453300
8.308800 9.224200
8.329200 8.999000
8.349600 10.025200
8.370000 11.875500
8.390300 13.783900
8.410700 14.829700
8.431100 14.280600
8.451500 12.310000
8.471800 10.130300
8.492200 8.941700
8.512600 8.885700
8.533000 9.242700
8.553300 9.469600
8.573700 9.656100
8.594100 9.971800
8.614500 10.252100
8.634800 10.398300
8.655200 10.737300
8.675600 11.609200
8.696000 12.861100
8.716400 13.974600
8.736700 14.428200
8.757100 13.972300
8.777500 12.941500
8.797900 12.170300
8.818200 12.192300
8.838600 12.678600
8.859000 12.916200
8.879400 12.498400
8.899700 11.493900
8.920100 10.490100
8.940500 10.333000
8.960900 11.191300
8.981300 12.209000
9.001600 12.670700
9.022000 12.888000
9.042400 13.283900
9.062800 13.450000
9.083100 12.982200
9.103500 12.475200
9.123900 12.765300
9.144300 13.650700
9.164600 14.069700
9.185000 13.333000
9.205400 11.697400
9.225800 9.873600
9.246100 8.488300
9.266500 8.001300
9.286900 8.647800
9.307300 10.340500
9.327700 12.726000
9.348000 15.178500
9.368400 16.901700
9.388800 17.591900
9.409200 17.803700
9.429500 17.962800
9.449900 17.449800
9.470300 15.543100
9.490700 12.749600
9.511000 10.320800
9.531400 8.869900
9.551800 8.144800
9.572200 7.795700
9.592600 7.706900
9.612900 7.729700
9.633300 7.608100
9.653700 7.224600
9.674100 6.839500
9.694400 7.021700
9.714800 8.071300
9.735200 9.591400
9.755600 10.927700
9.775900 11.780000
9.796300 12.219600
9.816700 12.404900
9.837100 12.403500
9.857500 12.215300
9.877800 11.883000
9.898200 11.518800
9.918600 11.233900
9.939000 10.946100
9.959300 10.332300
9.979700 9.343700
10.000100 8.656300
10.020500 9.071700
10.040800 10.464900
10.061200 11.742800
10.081600 11.931700
10.102000 11.051100
10.122300 9.814400
10.142700 8.787300
10.163100 8.110600
10.183500 7.696900
10.203900 7.341700
10.224200 6.964400
10.244600 6.951300
10.265000 7.917400
10.285400 9.911400
10.305700 12.040700
10.326100 13.162900
10.346500 12.893500
10.366900 11.794200
10.387200 10.881000
10.407600 10.974000
10.428000 11.981400
10.448400 12.795700
10.468800 12.386600
10.489100 10.943900
10.509500 9.581500
10.529900 9.136100
10.550300 9.571900
10.570600 10.291500
10.591000 10.756200
10.611400 10.928700
10.631800 11.157000
10.652100 11.561500
10.672500 11.805100
10.692900 11.658400
10.713300 11.326500
10.733600 10.965700
10.754000 10.401800
10.774400 9.559600
10.794800 8.820400
10.815200 8.714000
10.835500 9.268000
10.855900 9.995100
10.876300 10.594000
10.896700 11.144500
10.917000 11.659500
10.937400 12.014200
10.957800 12.239400
10.978200 12.485100
10.998500 12.752400
11.018900 12.966800
11.039300 13.192100
11.059700 13.405700
11.080100 13.312900
11.100400 12.832600
11.120800 12.416900
11.141200 12.495900
11.161600 12.941400
11.181900 13.344700
11.202300 13.472700
11.222700 13.103400
11.243100 11.901700
11.263400 10.105800
11.283800 8.788700
11.304200 8.751900
11.324600 9.591000
11.345000 10.251900
11.365300 10.242200
11.385700 9.962500
11.406100 9.913800
11.426500 10.194100
11.446800 10.891600
11.467200 12.083600
11.487600 13.261200
11.508000 13.655400
11.528300 13.204900
11.548700 12.521200
11.569100 12.032400
11.589500 11.543400
11.609800 10.584000
11.630200 9.228300
11.650600 8.253900
11.671000 8.102900
11.691400 8.289100
11.711700 8.235100
11.732100 8.016000
11.752500 8.003700
11.772900 8.403900
11.793200 9.322800
11.813600 10.658100
11.834000 11.803000
11.854400 12.112000
11.874700 11.677200
11.895100 11.060300
11.915500 10.486100
11.935900 9.861200
11.956300 9.240500
11.976600 8.862400
11.997000 8.975600
12.017400 9.595400
12.037800 10.256200
12.058100 10.354200
12.078500 9.869000
12.098900 9.437900
12.119300 9.568400
12.139600 9.937800
12.160000 9.789600
12.180400 8.977500
12.200800 8.075800
12.221200 7.492300
12.241500 7.164100
12.261900 7.076000
12.282300 7.414100
12.302700 8.257300
12.323000 9.510500
12.343400 10.820200
12.363800 11.436800
12.384200 10.936200
12.404500 10.121600
12.424900 10.329600
12.445300 11.882800
12.465700 13.864700
12.486000 15.171300
12.506400 15.221300
12.526800 13.990100
12.547200 11.989100
12.567600 9.985100
12.587900 8.343400
12.608300 6.890300
12.628700 5.480800
12.649100 4.339900
12.669400 3.829500
12.689800 4.163700
12.710200 5.366900
12.730600 7.297700
12.750900 9.570700
12.771300 11.441600
12.791700 12.019200
12.812100 11.035400
12.832500 9.340000
12.852800 8.132100
12.873200 7.865800
12.893600 8.413000
12.914000 9.790700
12.934300 11.951500
12.954700 14.194200
12.975100 15.404400
12.995500 14.879000
13.015800 12.945500
13.036200 10.898200
13.056600 9.956400
13.077000 10.053800
13.097300 10.112200
13.117700 9.522200
13.138100 8.681700
13.158500 8.226700
13.178900 8.465500
13.199200 9.426600
13.219600 10.858900
13.240000 12.150900
13.260400 12.574300
13.280700 11.817100
13.301100 10.347600
13.321500 9.112200
13.341900 8.699600
13.362200 8.944800
13.382600 9.494600
13.403000 10.370400
13.423400 11.496200
13.443800 12.052100
13.464100 11.138000
13.484500 9.109100
13.504900 7.543600
13.525300 7.663200
13.545600 9.186300
13.566000 10.745900
13.586400 11.115300
13.606800 10.200400
13.627100 9.049500
13.647500 8.696500
13.667900 9.100800
13.688300 9.484200
13.708700 9.380600
13.729000 8.895400
13.749400 8.198400
13.769800 7.457600
13.790200 7.279900
13.810500 8.509500
13.830900 11.301300
13.851300 14.653800
13.871700 16.991300
13.892000 17.217600
13.912400 15.448300
13.932800 12.995300
13.953200 11.437200
13.973500 11.332200
13.993900 11.858800
14.014300 11.818600
14.034700 10.791900
14.055100 9.212100
14.075400 7.743000
14.095800 7.041700
14.116200 7.728900
14.136600 9.826400
14.156900 12.304200
14.177300 13.885500
14.197700 14.371400
14.218100 14.630600
14.238400 15.346800
14.258800 16.346400
14.279200 17.062100
14.299600 17.062400
14.320000 16.156200
14.340300 14.543700
14.360700 12.843300
14.381100 11.538200
14.401500 10.547500
14.421800 9.646300
14.442200 9.042700
14.462600 9.148800
14.483000 9.997000
14.503300 11.288400
14.523700 12.815800
14.544100 14.417900
14.564500 15.725800
14.584800 16.329900
14.605200 16.041000
14.625600 15.000700
14.646000 13.702200
14.666400 12.618500
14.686700 11.837900
14.707100 11.341700
14.727500 11.292100
14.747900 11.784100
14.768200 12.642500
14.788600 13.514800
14.809000 14.003400
14.829400 13.915300
14.849700 13.422600
14.870100 12.831400
14.890500 12.425900
14.910900 12.533900
14.931300 13.242500
14.951600 14.047900
14.972000 14.250700
14.992400 13.641900
15.012800 12.487400
15.033100 11.167300
15.053500 10.213900
15.073900 10.211900
15.094300 11.227700
15.114600 12.639000
15.135000 13.603800
15.155400 13.645400
15.175800 13.041300
15.196200 12.592100
15.216500 12.824600
15.236900 13.540200
15.257300 14.109600
15.277700 13.945500
15.298000 12.832100
15.318400 11.241000
15.338800 10.174000
15.359200 10.187800
15.379500 10.707900
15.399900 10.718700
15.420300 10.030500
15.440700 9.553600
15.461000 10.308000
15.481400 12.260500
15.501800 14.182300
15.522200 14.702600
15.542600 13.534000
15.562900 11.723700
15.583300 10.701700
15.603700 10.964600
15.624100 11.751500
15.644400 12.055100
15.664800 11.694900
15.685200 11.293100
15.705600 11.369500
15.725900 11.711100
15.746300 11.890400
15.766700 12.161600
15.787100 13.168600
15.807500 14.641200
15.827800 15.069600
15.848200 13.199600
15.868600 9.623300
15.889000 6.467400
15.909300 5.534900
15.929700 7.003700
15.950100 9.719600
15.970500 12.288300
15.990800 13.999800
16.011200 15.074300
16.031600 15.951100
16.052000 16.355600
16.072300 15.563400
16.092700 13.602900
16.113100 11.617400
16.133500 10.875200
16.153900 11.631600
16.174200 13.077800
16.194600 14.351200
16.215000 15.260100
16.235400 15.919400
16.255700 16.297300
16.276100 16.409200
16.296500 16.337600
16.316900 15.954900
16.337200 15.230900
16.357600 14.655100
16.378000 14.744700
16.398400 15.377000
16.418800 16.007300
16.439100 16.169700
16.459500 15.657500
16.479900 14.651900
16.500300 13.576400
16.520600 12.694500
16.541000 12.134800
16.561400 12.113300
16.581800 12.671200
16.602100 13.374700
16.622500 13.666700
16.642900 13.377200
16.663300 12.701900
16.683700 11.971600
16.704000 11.580100
16.724400 11.761200
16.744800 12.170700
16.765200 12.032400
16.785500 11.047000
16.805900 9.913400
16.826300 9.692700
16.846700 10.627500
16.867000 11.689700
16.887400 11.624000
16.907800 10.373200
16.928200 8.989500
16.948500 8.277600
16.968900 8.129900
16.989300 8.120000
17.009700 8.109100
17.030100 8.188400
17.050400 8.491400
17.070800 9.074300
17.091200 9.710200
17.111600 10.011400
17.131900 9.887600
17.152300 9.519700
17.172700 8.882900
17.193100 7.739400
17.213400 6.128700
17.233800 4.528400
17.254200 3.431500
17.274600 2.935900
17.295000 2.827800
17.315300 2.893200
17.335700 2.994400
17.356100 2.965500
17.376500 2.646400
17.396800 2.050200
17.417200 1.379200
17.437600 0.831400
17.458000 0.463100
17.478300 0.235000
17.498700 0.102100
17.519100 0.035600
17.539500 0.009500
17.559800 0.001900
17.580200 0.000300
17.600600 0.000000
17.621000 0.000000
17.641400 0.000000
17.661700 0.000000
17.682100 0.000000
17.702500 0.000000
17.722900 0.000000
17.743200 0.000000
17.763600 0.000000
17.784000 0.000000
17.804400 0.000000
17.824700 0.000000
17.845100 0.000000
17.865500 0.000000
17.885900 0.000000
17.906300 0.000000
17.926600 0.000000
17.947000 0.000000
17.967400 0.000000
17.987800 0.000000
18.008100 0.000000
18.028500 0.000000
18.048900 0.000000
18.069300 0.000000
18.089600 0.000000
18.110000 0.000000
18.130400 0.000000
18.150800 0.000000
18.171200 0.000000
18.191500 0.000000
18.211900 0.000000
18.232300 0.000000
18.252700 0.000000
18.273000 0.000000
18.293400 0.000000
18.313800 0.000000
18.334200 0.000000
18.354500 0.000000
18.374900 0.000000
18.395300 0.000000
18.415700 0.000000
18.436000 0.000000
18.456400 0.000000
18.476800 0.000000
18.497200 0.000000
18.517600 0.000000
18.537900 0.000000
18.558300 0.000000
18.578700 0.000000
18.599100 0.000000
18.619400 0.000000
18.639800 0.000000
18.660200 0.000000
18.680600 0.000000
18.700900 0.000000
18.721300 0.000000
18.741700 0.000000
18.762100 0.000000
18.782500 0.000000
18.802800 0.000000
18.823200 0.000000
18.843600 0.000000
18.864000 0.000000
18.884300 0.000000
18.904700 0.000000
18.925100 0.000000
18.945500 0.000000
18.965800 0.000000
18.986200 0.000000
19.006600 0.000000
19.027000 0.000000
19.047300 0.000000
19.067700 0.000000
19.088100 0.000000
19.108500 0.000000
19.128900 0.000000
19.149200 0.000000
19.169600 0.000000
19.190000 0.000000
19.210400 0.000000
19.230700 0.000000
19.251100 0.000000
19.271500 0.000000
19.291900 0.000000
e
