set title 'mp-601148 - Density of States'
set xlabel 'Energy (eV)'
set ylabel 'DOS (states/eV)'
set grid
set xrange [-10:10]
set yrange [0:2.492]
set xzeroaxis lt -1
set terminal png size 800,600
set output 'mp-601148_dos_gnuplot.png'
plot '-' using 1:2 with lines title 'DOS'
-12.743900 0.000000
-12.725700 0.000000
-12.707500 0.000000
-12.689300 0.000000
-12.671100 0.000000
-12.652900 0.000000
-12.634800 0.000000
-12.616600 0.000000
-12.598400 0.000000
-12.580200 0.000000
-12.562000 0.000000
-12.543800 0.000000
-12.525600 0.000000
-12.507500 0.000000
-12.489300 0.000000
-12.471100 0.000000
-12.452900 0.000000
-12.434700 0.000000
-12.416500 0.000000
-12.398400 0.000000
-12.380200 0.000000
-12.362000 0.000000
-12.343800 0.000000
-12.325600 0.000000
-12.307400 0.000000
-12.289300 0.000000
-12.271100 0.000000
-12.252900 0.000000
-12.234700 0.000000
-12.216500 0.000000
-12.198300 0.000000
-12.180100 0.000000
-12.162000 0.000000
-12.143800 0.000000
-12.125600 0.000000
-12.107400 0.000000
-12.089200 0.000000
-12.071000 0.000000
-12.052900 0.000000
-12.034700 0.000000
-12.016500 0.000000
-11.998300 0.000000
-11.980100 0.000000
-11.961900 0.000000
-11.943800 0.000000
-11.925600 0.000000
-11.907400 0.000000
-11.889200 0.000000
-11.871000 0.000000
-11.852800 0.000000
-11.834600 0.000000
-11.816500 0.000000
-11.798300 0.000000
-11.780100 0.000000
-11.761900 0.000000
-11.743700 0.000000
-11.725500 0.000000
-11.707400 0.000000
-11.689200 0.000000
-11.671000 0.000000
-11.652800 0.000000
-11.634600 0.000000
-11.616400 0.000000
-11.598200 0.000000
-11.580100 0.000000
-11.561900 0.000000
-11.543700 0.000000
-11.525500 0.000000
-11.507300 0.000000
-11.489100 0.000000
-11.471000 0.000000
-11.452800 0.000000
-11.434600 0.000000
-11.416400 0.000000
-11.398200 0.000000
-11.380000 0.000000
-11.361900 0.000000
-11.343700 0.000000
-11.325500 0.000000
-11.307300 0.000000
-11.289100 0.000000
-11.270900 0.000000
-11.252700 0.000000
-11.234600 0.000000
-11.216400 0.000000
-11.198200 0.000000
-11.180000 0.000000
-11.161800 0.000000
-11.143600 0.000000
-11.125500 0.000000
-11.107300 0.000000
-11.089100 0.001100
-11.070900 0.110100
-11.052700 0.228000
-11.034500 0.273000
-11.016400 0.337400
-10.998200 0.417400
-10.980000 0.499300
-10.961800 0.614200
-10.943600 0.665400
-10.925400 0.638900
-10.907200 0.659700
-10.889100 0.676900
-10.870900 0.678100
-10.852700 0.664100
-10.834500 0.668700
-10.816300 0.675100
-10.798100 0.680700
-10.780000 0.685100
-10.761800 0.687600
-10.743600 0.684400
-10.725400 0.691000
-10.707200 0.698600
-10.689000 0.701100
-10.670900 0.704500
-10.652700 0.709200
-10.634500 0.713800
-10.616300 0.716800
-10.598100 0.716600
-10.579900 0.718900
-10.561700 0.724800
-10.543600 0.731300
-10.525400 0.738300
-10.507200 0.743700
-10.489000 0.748800
-10.470800 0.754300
-10.452600 0.759500
-10.434500 0.764000
-10.416300 0.767200
-10.398100 0.771600
-10.379900 0.777900
-10.361700 0.784400
-10.343500 0.791200
-10.325300 0.798400
-10.307200 0.806100
-10.289000 0.814100
-10.270800 0.822300
-10.252600 0.830600
-10.234400 0.839100
-10.216200 0.848100
-10.198100 0.857100
-10.179900 0.866000
-10.161700 0.874800
-10.143500 0.883700
-10.125300 0.892700
-10.107100 0.901900
-10.089000 0.915900
-10.070800 0.931600
-10.052600 0.947900
-10.034400 0.967000
-10.016200 0.988300
-9.998000 1.005000
-9.979800 1.020600
-9.961700 1.035800
-9.943500 1.050500
-9.925300 1.064400
-9.907100 1.095300
-9.888900 1.137400
-9.870700 1.186900
-9.852600 1.246700
-9.834400 1.288200
-9.816200 1.325800
-9.798000 1.360800
-9.779800 1.458000
-9.761600 1.751100
-9.743500 2.138300
-9.725300 1.972800
-9.707100 1.517800
-9.688900 1.458500
-9.670700 1.375000
-9.652500 1.256000
-9.634300 1.153000
-9.616200 1.125300
-9.598000 1.097600
-9.579800 1.069900
-9.561600 1.036700
-9.543400 0.990000
-9.525200 0.936500
-9.507100 0.911100
-9.488900 0.893900
-9.470700 0.876800
-9.452500 0.859900
-9.434300 0.843000
-9.416100 0.825600
-9.397900 0.803800
-9.379800 0.775300
-9.361600 0.749300
-9.343400 0.738400
-9.325200 0.727400
-9.307000 0.715700
-9.288800 0.704000
-9.270700 0.692500
-9.252500 0.681000
-9.234300 0.669600
-9.216100 0.656700
-9.197900 0.640800
-9.179700 0.624100
-9.161600 0.614400
-9.143400 0.605800
-9.125200 0.597100
-9.107000 0.588300
-9.088800 0.579600
-9.070600 0.571100
-9.052400 0.562700
-9.034300 0.554200
-9.016100 0.545900
-8.997900 0.537700
-8.979700 0.529600
-8.961500 0.521200
-8.943300 0.512700
-8.925200 0.504500
-8.907000 0.496900
-8.888800 0.489600
-8.870600 0.482300
-8.852400 0.475000
-8.834200 0.467700
-8.816100 0.461100
-8.797900 0.459800
-8.779700 0.460500
-8.761500 0.455300
-8.743300 0.445000
-8.725100 0.435700
-8.706900 0.426300
-8.688800 0.416900
-8.670600 0.407600
-8.652400 0.398200
-8.634200 0.394700
-8.616000 0.410900
-8.597800 0.428800
-8.579700 0.413200
-8.561500 0.388800
-8.543300 0.364400
-8.525100 0.340000
-8.506900 0.352000
-8.488700 0.405700
-8.470600 0.442000
-8.452400 0.254100
-8.434200 0.066100
-8.416000 0.000000
-8.397800 0.000000
-8.379600 0.000000
-8.361400 0.000000
-8.343300 0.000000
-8.325100 0.000000
-8.306900 0.000000
-8.288700 0.000000
-8.270500 0.000000
-8.252300 0.000000
-8.234200 0.000000
-8.216000 0.000000
-8.197800 0.000000
-8.179600 0.000000
-8.161400 0.000000
-8.143200 0.000000
-8.125000 0.000000
-8.106900 0.000000
-8.088700 0.000000
-8.070500 0.000000
-8.052300 0.000000
-8.034100 0.000000
-8.015900 0.000000
-7.997800 0.000000
-7.979600 0.000000
-7.961400 0.000000
-7.943200 0.000000
-7.925000 0.000000
-7.906800 0.000000
-7.888700 0.000000
-7.870500 0.000000
-7.852300 0.000000
-7.834100 0.000000
-7.815900 0.000000
-7.797700 0.000000
-7.779500 0.000000
-7.761400 0.000000
-7.743200 0.000000
-7.725000 0.000000
-7.706800 0.000000
-7.688600 0.000000
-7.670400 0.000000
-7.652300 0.000000
-7.634100 0.000000
-7.615900 0.000000
-7.597700 0.000000
-7.579500 0.000000
-7.561300 0.000000
-7.543200 0.000000
-7.525000 0.000000
-7.506800 0.000000
-7.488600 0.000000
-7.470400 0.000000
-7.452200 0.000000
-7.434000 0.000000
-7.415900 0.000000
-7.397700 0.000000
-7.379500 0.000000
-7.361300 0.000000
-7.343100 0.000000
-7.324900 0.000000
-7.306800 0.000000
-7.288600 0.000000
-7.270400 0.000000
-7.252200 0.000000
-7.234000 0.000000
-7.215800 0.000000
-7.197600 0.000000
-7.179500 0.000000
-7.161300 0.000000
-7.143100 0.000000
-7.124900 0.000000
-7.106700 0.000000
-7.088500 0.000000
-7.070400 0.000000
-7.052200 0.000000
-7.034000 0.000000
-7.015800 0.000000
-6.997600 0.000000
-6.979400 0.000000
-6.961300 0.000000
-6.943100 0.000000
-6.924900 0.000000
-6.906700 0.000000
-6.888500 0.000000
-6.870300 0.000000
-6.852100 0.000000
-6.834000 0.000000
-6.815800 0.000000
-6.797600 0.000000
-6.779400 0.000000
-6.761200 0.000000
-6.743000 0.000000
-6.724900 0.000000
-6.706700 0.000000
-6.688500 0.000000
-6.670300 0.000000
-6.652100 0.000000
-6.633900 0.000000
-6.615800 0.000000
-6.597600 0.000000
-6.579400 0.000000
-6.561200 0.000000
-6.543000 0.000000
-6.524800 0.000000
-6.506600 0.000000
-6.488500 0.000000
-6.470300 0.000000
-6.452100 0.000000
-6.433900 0.000000
-6.415700 0.000000
-6.397500 0.000000
-6.379400 0.000000
-6.361200 0.000000
-6.343000 0.000000
-6.324800 0.000000
-6.306600 0.000000
-6.288400 0.000000
-6.270300 0.000000
-6.252100 0.000000
-6.233900 0.000000
-6.215700 0.000000
-6.197500 0.000000
-6.179300 0.000000
-6.161100 0.000000
-6.143000 0.000000
-6.124800 0.000000
-6.106600 0.000000
-6.088400 0.000000
-6.070200 0.000000
-6.052000 0.000000
-6.033900 0.000000
-6.015700 0.000000
-5.997500 0.000000
-5.979300 0.000000
-5.961100 0.000000
-5.942900 0.000000
-5.924700 0.000000
-5.906600 0.000000
-5.888400 0.000000
-5.870200 0.000000
-5.852000 0.000000
-5.833800 0.000000
-5.815600 0.000000
-5.797500 0.000000
-5.779300 0.000000
-5.761100 0.000000
-5.742900 0.000000
-5.724700 0.000000
-5.706500 0.000000
-5.688400 0.000000
-5.670200 0.000000
-5.652000 0.000000
-5.633800 0.000000
-5.615600 0.000000
-5.597400 0.000000
-5.579200 0.000000
-5.561100 0.000000
-5.542900 0.000000
-5.524700 0.000000
-5.506500 0.000000
-5.488300 0.000000
-5.470100 0.000000
-5.452000 0.000000
-5.433800 0.000000
-5.415600 0.000000
-5.397400 0.000000
-5.379200 0.000000
-5.361000 0.000000
-5.342900 0.000000
-5.324700 0.000000
-5.306500 0.000000
-5.288300 0.000000
-5.270100 0.000000
-5.251900 0.000000
-5.233700 0.000000
-5.215600 0.000000
-5.197400 0.000000
-5.179200 0.000000
-5.161000 0.000000
-5.142800 0.000000
-5.124600 0.000000
-5.106500 0.000000
-5.088300 0.000000
-5.070100 0.000000
-5.051900 0.000000
-5.033700 0.000000
-5.015500 0.000000
-4.997300 0.000000
-4.979200 0.000000
-4.961000 0.000000
-4.942800 0.000000
-4.924600 0.000000
-4.906400 0.000000
-4.888200 0.000000
-4.870100 0.000000
-4.851900 0.000000
-4.833700 0.000000
-4.815500 0.000000
-4.797300 0.000000
-4.779100 0.000000
-4.761000 0.000000
-4.742800 0.000000
-4.724600 0.000000
-4.706400 0.000000
-4.688200 0.000000
-4.670000 0.000000
-4.651800 0.000000
-4.633700 0.000000
-4.615500 0.000000
-4.597300 0.000000
-4.579100 0.000000
-4.560900 0.000000
-4.542700 0.000000
-4.524600 0.000000
-4.506400 0.000000
-4.488200 0.000000
-4.470000 0.000000
-4.451800 0.000000
-4.433600 0.000000
-4.415500 0.000000
-4.397300 0.000000
-4.379100 0.000000
-4.360900 0.000000
-4.342700 0.000000
-4.324500 0.000000
-4.306300 0.000000
-4.288200 0.000000
-4.270000 0.000000
-4.251800 0.000000
-4.233600 0.000000
-4.215400 0.000000
-4.197200 0.000000
-4.179100 0.000000
-4.160900 0.000000
-4.142700 0.000000
-4.124500 0.000000
-4.106300 0.000000
-4.088100 0.000000
-4.070000 0.000000
-4.051800 0.000000
-4.033600 0.000000
-4.015400 0.000000
-3.997200 0.000000
-3.979000 0.000000
-3.960800 0.000000
-3.942700 0.000000
-3.924500 0.000000
-3.906300 0.000000
-3.888100 0.000000
-3.869900 0.000000
-3.851700 0.000000
-3.833600 0.000000
-3.815400 0.000000
-3.797200 0.000000
-3.779000 0.000000
-3.760800 0.000000
-3.742600 0.000000
-3.724400 0.000000
-3.706300 0.000000
-3.688100 0.000000
-3.669900 0.000000
-3.651700 0.000000
-3.633500 0.000000
-3.615300 0.000000
-3.597200 0.000000
-3.579000 0.000000
-3.560800 0.000000
-3.542600 0.000000
-3.524400 0.000000
-3.506200 0.000000
-3.488100 0.000000
-3.469900 0.000000
-3.451700 0.000000
-3.433500 0.000000
-3.415300 0.000000
-3.397100 0.000000
-3.378900 0.000000
-3.360800 0.000000
-3.342600 0.000000
-3.324400 0.000000
-3.306200 0.000000
-3.288000 0.000000
-3.269800 0.000000
-3.251700 0.000000
-3.233500 0.000000
-3.215300 0.000000
-3.197100 0.000000
-3.178900 0.000000
-3.160700 0.000000
-3.142600 0.000000
-3.124400 0.000000
-3.106200 0.000000
-3.088000 0.000000
-3.069800 0.000000
-3.051600 0.000000
-3.033400 0.000000
-3.015300 0.000000
-2.997100 0.000000
-2.978900 0.000000
-2.960700 0.000000
-2.942500 0.000000
-2.924300 0.000000
-2.906200 0.000000
-2.888000 0.000000
-2.869800 0.000000
-2.851600 0.000000
-2.833400 0.000000
-2.815200 0.000000
-2.797000 0.000000
-2.778900 0.000000
-2.760700 0.000000
-2.742500 0.000000
-2.724300 0.000000
-2.706100 0.000000
-2.687900 0.000000
-2.669800 0.000000
-2.651600 0.000000
-2.633400 0.000000
-2.615200 0.000000
-2.597000 0.000000
-2.578800 0.000000
-2.560700 0.000000
-2.542500 0.000000
-2.524300 0.000000
-2.506100 0.000000
-2.487900 0.000000
-2.469700 0.000000
-2.451500 0.000000
-2.433400 0.112900
-2.415200 0.365200
-2.397000 0.467700
-2.378800 0.562800
-2.360600 0.657800
-2.342400 0.741900
-2.324300 0.711300
-2.306100 0.647700
-2.287900 0.615500
-2.269700 0.611300
-2.251500 0.607800
-2.233300 0.611300
-2.215200 0.613000
-2.197000 0.618700
-2.178800 0.624400
-2.160600 0.630200
-2.142400 0.635900
-2.124200 0.644600
-2.106000 0.657800
-2.087900 0.672400
-2.069700 0.681000
-2.051500 0.689400
-2.033300 0.697800
-2.015100 0.698200
-1.996900 0.689000
-1.978800 0.684200
-1.960600 0.678400
-1.942400 0.677400
-1.924200 0.679300
-1.906000 0.681600
-1.887800 0.683200
-1.869700 0.685900
-1.851500 0.688800
-1.833300 0.691700
-1.815100 0.694700
-1.796900 0.699300
-1.778700 0.705100
-1.760500 0.711400
-1.742400 0.717800
-1.724200 0.724400
-1.706000 0.731800
-1.687800 0.739200
-1.669600 0.746600
-1.651400 0.754400
-1.633300 0.762300
-1.615100 0.770300
-1.596900 0.778000
-1.578700 0.785700
-1.560500 0.793300
-1.542300 0.801400
-1.524100 0.815300
-1.506000 0.824200
-1.487800 0.833300
-1.469600 0.843000
-1.451400 0.851800
-1.433200 0.859200
-1.415000 0.866800
-1.396900 0.874400
-1.378700 0.901200
-1.360500 0.942500
-1.342300 0.984000
-1.324100 1.025400
-1.305900 1.340600
-1.287800 1.430300
-1.269600 1.508000
-1.251400 1.217800
-1.233200 0.979500
-1.215000 0.843600
-1.196800 0.788000
-1.178600 0.784100
-1.160500 0.832100
-1.142300 0.931500
-1.124100 1.055200
-1.105900 1.046100
-1.087700 0.870000
-1.069500 0.839400
-1.051400 0.809000
-1.033200 0.779100
-1.015000 0.760200
-0.996800 0.784700
-0.978600 0.793000
-0.960400 0.804900
-0.942300 0.822700
-0.924100 0.843800
-0.905900 0.866700
-0.887700 0.895800
-0.869500 0.947500
-0.851300 1.007000
-0.833100 0.913800
-0.815000 0.848600
-0.796800 0.863900
-0.778600 0.877400
-0.760400 0.886500
-0.742200 0.896600
-0.724000 0.888200
-0.705900 0.880000
-0.687700 0.872700
-0.669500 0.867600
-0.651300 0.865300
-0.633100 0.865000
-0.614900 0.865900
-0.596800 0.870200
-0.578600 0.878900
-0.560400 0.890900
-0.542200 0.908800
-0.524000 0.932000
-0.505800 0.955700
-0.487600 0.979600
-0.469500 1.003200
-0.451300 1.026900
-0.433100 0.970000
-0.414900 0.945900
-0.396700 0.951600
-0.378500 0.957600
-0.360400 0.957300
-0.342200 0.970200
-0.324000 0.967200
-0.305800 0.953900
-0.287600 0.941400
-0.269400 0.938900
-0.251200 0.921800
-0.233100 0.913200
-0.214900 0.896200
-0.196700 0.879300
-0.178500 0.860500
-0.160300 0.844100
-0.142100 0.838500
-0.124000 0.833100
-0.105800 0.839200
-0.087600 0.994300
-0.069400 0.993900
-0.051200 1.002900
-0.033000 1.033500
-0.014900 1.068600
0.003300 1.075700
0.021500 1.082700
0.039700 1.086800
0.057900 1.063700
0.076100 1.061300
0.094300 1.050800
0.112400 1.060100
0.130600 1.062600
0.148800 1.071400
0.167000 1.075800
0.185200 1.080100
0.203400 1.085700
0.221500 1.093700
0.239700 1.104600
0.257900 1.123300
0.276100 1.145700
0.294300 1.165900
0.312500 1.188600
0.330600 1.214900
0.348800 1.258500
0.367000 1.270900
0.385200 1.271800
0.403400 1.278300
0.421600 1.284000
0.439800 1.276400
0.457900 1.279500
0.476100 1.283600
0.494300 1.287000
0.512500 1.283600
0.530700 1.284400
0.548900 1.294500
0.567000 1.306700
0.585200 1.315700
0.603400 1.324000
0.621600 1.330900
0.639800 1.331800
0.658000 1.334400
0.676200 1.343900
0.694300 1.348700
0.712500 1.374200
0.730700 1.407800
0.748900 1.446800
0.767100 1.501300
0.785300 1.580200
0.803400 1.641900
0.821600 1.699200
0.839800 1.761900
0.858000 1.825600
0.876200 1.866500
0.894400 1.896400
0.912500 2.003800
0.930700 2.219600
0.948900 2.242400
0.967100 2.194700
0.985300 2.256600
1.003500 2.249600
1.021700 2.265600
1.039800 2.183300
1.058000 1.973400
1.076200 1.920000
1.094400 1.864700
1.112600 1.814800
1.130800 1.727900
1.148900 1.632000
1.167100 1.548500
1.185300 1.470000
1.203500 1.410200
1.221700 1.361400
1.239900 1.308600
1.258000 1.244200
1.276200 1.128100
1.294400 1.048200
1.312600 0.997400
1.330800 0.956600
1.349000 0.908900
1.367200 0.862000
1.385300 0.894100
1.403500 0.934100
1.421700 0.983900
1.439900 1.060500
1.458100 1.139600
1.476300 1.189900
1.494400 1.231100
1.512600 1.283200
1.530800 1.278200
1.549000 1.261500
1.567200 1.245100
1.585400 1.229000
1.603500 1.213200
1.621700 1.199000
1.639900 1.185600
1.658100 1.172700
1.676300 1.160600
1.694500 1.145500
1.712700 1.129800
1.730800 1.131500
1.749000 1.134500
1.767200 1.125400
1.785400 1.112500
1.803600 1.104900
1.821800 1.096200
1.839900 1.101700
1.858100 1.063600
1.876300 1.029500
1.894500 1.004500
1.912700 0.988700
1.930900 0.986200
1.949100 1.021300
1.967200 1.022300
1.985400 0.979400
2.003600 0.946300
2.021800 0.934000
2.040000 1.079600
2.058200 0.823600
2.076300 0.504600
2.094500 0.462000
2.112700 0.462200
2.130900 0.462500
2.149100 0.462700
2.167300 0.463000
2.185400 0.463300
2.203600 0.463600
2.221800 0.463900
2.240000 0.464200
2.258200 0.464600
2.276400 0.464900
2.294600 0.465300
2.312700 0.465600
2.330900 0.466000
2.349100 0.466300
2.367300 0.466700
2.385500 0.467000
2.403700 0.467400
2.421800 0.467800
2.440000 0.468200
2.458200 0.468600
2.476400 0.469100
2.494600 0.476800
2.512800 0.519600
2.530900 0.517700
2.549100 0.509200
2.567300 0.509600
2.585500 0.517700
2.603700 0.552300
2.621900 0.538300
2.640100 0.535500
2.658200 0.545800
2.676400 0.542900
2.694600 0.547700
2.712800 0.551800
2.731000 0.552600
2.749200 0.546500
2.767300 0.521200
2.785500 0.524700
2.803700 0.529000
2.821900 0.531100
2.840100 0.533000
2.858300 0.534900
2.876500 0.536800
2.894600 0.538600
2.912800 0.540400
2.931000 0.542200
2.949200 0.543900
2.967400 0.545700
2.985600 0.547500
3.003700 0.549300
3.021900 0.551000
3.040100 0.552800
3.058300 0.554500
3.076500 0.556300
3.094700 0.558000
3.112800 0.559700
3.131000 0.640000
3.149200 0.614600
3.167400 0.637900
3.185600 0.680800
3.203800 0.733000
3.222000 0.764000
3.240100 0.746000
3.258300 0.772000
3.276500 0.801600
3.294700 0.815300
3.312900 0.801100
3.331100 0.820200
3.349200 0.838900
3.367400 0.857300
3.385600 0.899300
3.403800 0.908900
3.422000 0.883100
3.440200 0.864400
3.458300 0.843600
3.476500 0.827100
3.494700 0.807500
3.512900 0.719000
3.531100 0.696900
3.549300 0.677400
3.567500 0.665900
3.585600 0.660300
3.603800 0.645200
3.622000 0.630600
3.640200 0.617000
3.658400 0.604800
3.676600 0.593300
3.694700 0.581900
3.712900 0.571100
3.731100 0.560600
3.749300 0.550500
3.767500 0.541100
3.785700 0.532600
3.803800 0.524400
3.822000 0.516400
3.840200 0.508600
3.858400 0.500900
3.876600 0.493200
3.894800 0.485500
3.913000 0.478300
3.931100 0.472000
3.949300 0.466300
3.967500 0.461500
3.985700 0.457200
4.003900 0.452600
4.022100 0.447600
4.040200 0.442400
4.058400 0.439400
4.076600 0.438500
4.094800 0.440800
4.113000 0.443200
4.131200 0.445700
4.149400 0.463500
4.167500 0.511100
4.185700 0.500600
4.203900 0.475000
4.222100 0.448800
4.240300 0.422600
4.258500 0.396400
4.276600 0.368700
4.294800 0.336600
4.313000 0.299100
4.331200 0.258900
4.349400 0.218600
4.367600 0.167500
4.385700 0.064600
4.403900 0.000000
4.422100 0.000000
4.440300 0.000000
4.458500 0.000000
4.476700 0.000000
4.494900 0.000000
4.513000 0.000000
4.531200 0.000000
4.549400 0.000000
4.567600 0.000000
4.585800 0.000000
4.604000 0.000000
4.622100 0.000000
4.640300 0.000000
4.658500 0.000000
4.676700 0.000000
4.694900 0.000000
4.713100 0.000000
4.731200 0.000000
4.749400 0.000000
4.767600 0.000000
4.785800 0.000000
4.804000 0.000000
4.822200 0.000000
4.840400 0.000000
4.858500 0.000000
4.876700 0.000000
4.894900 0.000000
4.913100 0.000000
4.931300 0.000000
4.949500 0.000000
4.967600 0.000000
4.985800 0.000000
5.004000 0.000000
5.022200 0.000000
5.040400 0.000000
5.058600 0.000000
5.076800 0.000000
5.094900 0.000000
5.113100 0.000000
5.131300 0.000000
5.149500 0.000000
5.167700 0.000000
5.185900 0.000000
5.204000 0.000000
5.222200 0.000000
5.240400 0.000000
5.258600 0.000000
5.276800 0.000000
5.295000 0.000000
5.313100 0.000000
5.331300 0.000000
5.349500 0.000000
5.367700 0.000000
5.385900 0.000000
5.404100 0.000000
5.422300 0.000000
5.440400 0.000000
5.458600 0.000000
5.476800 0.000000
5.495000 0.000000
5.513200 0.000000
5.531400 0.000000
5.549500 0.000000
5.567700 0.000000
5.585900 0.000000
5.604100 0.000000
5.622300 0.000000
5.640500 0.000000
5.658600 0.000000
5.676800 0.000000
5.695000 0.000000
5.713200 0.000000
5.731400 0.000000
5.749600 0.000000
5.767800 0.000000
5.785900 0.000000
5.804100 0.000000
5.822300 0.000000
5.840500 0.000000
5.858700 0.000000
5.876900 0.000000
5.895000 0.000000
5.913200 0.000000
5.931400 0.000000
5.949600 0.000000
5.967800 0.000000
5.986000 0.000000
6.004100 0.000000
6.022300 0.000000
6.040500 0.000000
6.058700 0.000000
6.076900 0.000000
6.095100 0.000000
6.113300 0.000000
6.131400 0.000000
6.149600 0.000000
6.167800 0.000000
6.186000 0.000000
6.204200 0.000000
6.222400 0.000000
6.240500 0.000000
6.258700 0.000000
6.276900 0.000000
6.295100 0.000000
6.313300 0.000000
6.331500 0.000000
6.349700 0.000000
6.367800 0.000000
6.386000 0.000000
6.404200 0.000000
6.422400 0.000000
6.440600 0.000000
6.458800 0.000000
6.476900 0.000000
6.495100 0.000000
6.513300 0.000000
6.531500 0.000000
6.549700 0.000000
6.567900 0.000000
6.586000 0.000000
6.604200 0.000000
6.622400 0.000000
6.640600 0.000000
6.658800 0.000000
6.677000 0.003500
6.695200 0.016100
6.713300 0.034400
6.731500 0.058300
6.749700 0.090500
6.767900 0.124700
6.786100 0.150800
6.804300 0.166800
6.822400 0.175200
6.840600 0.173900
6.858800 0.163200
6.877000 0.153500
6.895200 0.148300
6.913400 0.147600
6.931500 0.151400
6.949700 0.163600
6.967900 0.177400
6.986100 0.185700
7.004300 0.193900
7.022500 0.201500
7.040700 0.208600
7.058800 0.215600
7.077000 0.222000
7.095200 0.226900
7.113400 0.230600
7.131600 0.232900
7.149800 0.231400
7.167900 0.229700
7.186100 0.228400
7.204300 0.228700
7.222500 0.229800
7.240700 0.232200
7.258900 0.236100
7.277100 0.240300
7.295200 0.244700
7.313400 0.249400
7.331600 0.253600
7.349800 0.257900
7.368000 0.262100
7.386200 0.265700
7.404300 0.268700
7.422500 0.271400
7.440700 0.274800
7.458900 0.278600
7.477100 0.282500
7.495300 0.286400
7.513400 0.290400
7.531600 0.294300
7.549800 0.298800
7.568000 0.308900
7.586200 0.356800
7.604400 0.392900
7.622600 0.433900
7.640700 0.472300
7.658900 0.493100
7.677100 0.505900
7.695300 0.524200
7.713500 0.544500
7.731700 0.565700
7.749800 0.582300
7.768000 0.598400
7.786200 0.616500
7.804400 0.635100
7.822600 0.655000
7.840800 0.675600
7.858900 0.695900
7.877100 0.712800
7.895300 0.729200
7.913500 0.745800
7.931700 0.763000
7.949900 0.781600
7.968100 0.801800
7.986200 0.822600
8.004400 0.843200
8.022600 0.864800
8.040800 0.887400
8.059000 0.911800
8.077200 0.938000
8.095300 0.965900
8.113500 0.996700
8.131700 1.037400
8.149900 1.090300
8.168100 1.172000
8.186300 1.180500
8.204400 1.217800
8.222600 1.236000
8.240800 1.253200
8.259000 1.262900
8.277200 1.274900
8.295400 1.299000
8.313600 1.311600
8.331700 1.322000
8.349900 1.329300
8.368100 1.333600
8.386300 1.318400
8.404500 1.291100
8.422700 1.262000
8.440800 1.235500
8.459000 1.214200
8.477200 1.193000
8.495400 1.172100
8.513600 1.153500
8.531800 1.137400
8.550000 1.120800
8.568100 1.101700
8.586300 1.081200
8.604500 1.062000
8.622700 1.042500
8.640900 1.024200
8.659100 1.010800
8.677200 0.992700
8.695400 0.974600
8.713600 0.960700
8.731800 0.952400
8.750000 0.945200
8.768200 0.939800
8.786300 0.937400
8.804500 0.944500
8.822700 0.957000
8.840900 0.971300
8.859100 0.997700
8.877300 1.012900
8.895500 0.999700
8.913600 0.992500
8.931800 1.017800
8.950000 1.071700
8.968200 1.121000
8.986400 1.125000
9.004600 1.090400
9.022700 1.065600
9.040900 1.056100
9.059100 1.051600
9.077300 1.050300
9.095500 1.047100
9.113700 1.055600
9.131800 1.071200
9.150000 1.103600
9.168200 1.170700
9.186400 1.332800
9.204600 1.567400
9.222800 1.525500
9.241000 1.488600
9.259100 1.461500
9.277300 1.483800
9.295500 1.478900
9.313700 1.468100
9.331900 1.421000
9.350100 1.310200
9.368200 1.240900
9.386400 1.189100
9.404600 1.153700
9.422800 1.123600
9.441000 1.101600
9.459200 1.086300
9.477400 1.078800
9.495500 1.026100
9.513700 0.994900
9.531900 0.972800
9.550100 0.952000
9.568300 0.927100
9.586500 0.895300
9.604600 0.876200
9.622800 0.861400
9.641000 0.843200
9.659200 0.826300
9.677400 0.810100
9.695600 0.799100
9.713700 0.798100
9.731900 0.781300
9.750100 0.770800
9.768300 0.764100
9.786500 0.760300
9.804700 0.757800
9.822900 0.752400
9.841000 0.743200
9.859200 0.733300
9.877400 0.728400
9.895600 0.725200
9.913800 0.723700
9.932000 0.724200
9.950100 0.730100
9.968300 0.737600
9.986500 0.746600
10.004700 0.755600
10.022900 0.764400
10.041100 0.774400
10.059200 0.787900
10.077400 0.804600
10.095600 0.825600
10.113800 0.842300
10.132000 0.852000
10.150200 0.865800
10.168400 0.881500
10.186500 0.899100
10.204700 0.918600
10.222900 0.938900
10.241100 0.956200
10.259300 0.969200
10.277500 0.984000
10.295600 1.017600
10.313800 1.043400
10.332000 1.062600
10.350200 1.080500
10.368400 1.083600
10.386600 1.083100
10.404700 1.086400
10.422900 1.085800
10.441100 1.089100
10.459300 1.095700
10.477500 1.104600
10.495700 1.111300
10.513900 1.117700
10.532000 1.125400
10.550200 1.134600
10.568400 1.143900
10.586600 1.158000
10.604800 1.180200
10.623000 1.191500
10.641100 1.197500
10.659300 1.204500
10.677500 1.209400
10.695700 1.208200
10.713900 1.208500
10.732100 1.209800
10.750300 1.212800
10.768400 1.216000
10.786600 1.220500
10.804800 1.233500
10.823000 1.247000
10.841200 1.234400
10.859400 1.221000
10.877500 1.212500
10.895700 1.208900
10.913900 1.205800
10.932100 1.207200
10.950300 1.235400
10.968500 1.247600
10.986600 1.252200
11.004800 1.260400
11.023000 1.271700
11.041200 1.281700
11.059400 1.295700
11.077600 1.310100
11.095800 1.320300
11.113900 1.324600
11.132100 1.329000
11.150300 1.333200
11.168500 1.340700
11.186700 1.347800
11.204900 1.350300
11.223000 1.353400
11.241200 1.361500
11.259400 1.371500
11.277600 1.378400
11.295800 1.383700
11.314000 1.386900
11.332100 1.387900
11.350300 1.387200
11.368500 1.384300
11.386700 1.396800
11.404900 1.386400
11.423100 1.389100
11.441300 1.401100
11.459400 1.408000
11.477600 1.414600
11.495800 1.422400
11.514000 1.424800
11.532200 1.430200
11.550400 1.437900
11.568500 1.444400
11.586700 1.452000
11.604900 1.464100
11.623100 1.473300
11.641300 1.483900
11.659500 1.495600
11.677600 1.509900
11.695800 1.521900
11.714000 1.532400
11.732200 1.528300
11.750400 1.518200
11.768600 1.515700
11.786800 1.511700
11.804900 1.497300
11.823100 1.476900
11.841300 1.455300
11.859500 1.422900
11.877700 1.392800
11.895900 1.367100
11.914000 1.362300
11.932200 1.369400
11.950400 1.381500
11.968600 1.393600
11.986800 1.406600
12.005000 1.425800
12.023200 1.446700
12.041300 1.472400
12.059500 1.487300
12.077700 1.500100
12.095900 1.506500
12.114100 1.511400
12.132300 1.513600
12.150400 1.517500
12.168600 1.527000
12.186800 1.545900
12.205000 1.553400
12.223200 1.538300
12.241400 1.559600
12.259500 1.580300
12.277700 1.640500
12.295900 1.704300
12.314100 1.756300
12.332300 1.535300
12.350500 1.316300
12.368700 1.190700
12.386800 1.146700
12.405000 1.127700
12.423200 1.097100
12.441400 1.053900
12.459600 0.999900
12.477800 0.946100
12.495900 0.920800
12.514100 0.903900
12.532300 0.890500
12.550500 0.882800
12.568700 0.879700
12.586900 0.880100
12.605000 0.884000
12.623200 0.901700
12.641400 0.925400
12.659600 0.948400
12.677800 0.972600
12.696000 0.991800
12.714200 0.996500
12.732300 1.000000
12.750500 1.009900
12.768700 1.031900
12.786900 1.033100
12.805100 1.027600
12.823300 1.013400
12.841400 0.993300
12.859600 0.985200
12.877800 0.980600
12.896000 0.978300
12.914200 0.980500
12.932400 0.987700
12.950600 0.985900
12.968700 0.985100
12.986900 0.973700
13.005100 0.958400
13.023300 0.943700
13.041500 0.936700
13.059700 0.941200
13.077800 0.968800
13.096000 1.051000
13.114200 1.089500
13.132400 1.125800
13.150600 1.158900
13.168800 1.184000
13.186900 1.214100
13.205100 1.236100
13.223300 1.250700
13.241500 1.266300
13.259700 1.283700
13.277900 1.299300
13.296100 1.311500
13.314200 1.335400
13.332400 1.338600
13.350600 1.350000
13.368800 1.361400
13.387000 1.363900
13.405200 1.368600
13.423300 1.377300
13.441500 1.385800
13.459700 1.394700
13.477900 1.409900
13.496100 1.427600
13.514300 1.443900
13.532400 1.465700
13.550600 1.491700
13.568800 1.532100
13.587000 1.587700
13.605200 1.614700
13.623400 1.694800
13.641600 1.722100
13.659700 1.772600
13.677900 1.795100
13.696100 1.791600
13.714300 1.772100
13.732500 1.763800
13.750700 1.786400
13.768800 1.818700
13.787000 1.829100
13.805200 1.816500
13.823400 1.749000
13.841600 1.635400
13.859800 1.563100
13.877900 1.508400
13.896100 1.471000
13.914300 1.443500
13.932500 1.424700
13.950700 1.409900
13.968900 1.398100
13.987100 1.388600
14.005200 1.379700
14.023400 1.371100
14.041600 1.362800
14.059800 1.354000
14.078000 1.347300
14.096200 1.341300
14.114300 1.334100
14.132500 1.323500
14.150700 1.317300
14.168900 1.321500
14.187100 1.329200
14.205300 1.337700
14.223500 1.345300
14.241600 1.353200
14.259800 1.360700
14.278000 1.366200
14.296200 1.374500
14.314400 1.393400
14.332600 1.416100
14.350700 1.422400
14.368900 1.444600
14.387100 1.462900
14.405300 1.452400
14.423500 1.448400
14.441700 1.452400
14.459800 1.467700
14.478000 1.461700
14.496200 1.456200
14.514400 1.447700
14.532600 1.432700
14.550800 1.402900
14.569000 1.381000
14.587100 1.365800
14.605300 1.353400
14.623500 1.349300
14.641700 1.340200
14.659900 1.332600
14.678100 1.325600
14.696200 1.318100
14.714400 1.311000
14.732600 1.306400
14.750800 1.302600
14.769000 1.302000
14.787200 1.306100
14.805300 1.313100
14.823500 1.322800
14.841700 1.334700
14.859900 1.346600
14.878100 1.356100
14.896300 1.369700
14.914500 1.431900
14.932600 1.517800
14.950800 1.573600
14.969000 1.582000
14.987200 1.517000
15.005400 1.483200
15.023600 1.467200
15.041700 1.443900
15.059900 1.419300
15.078100 1.402900
15.096300 1.410200
15.114500 1.433300
15.132700 1.463200
15.150900 1.497600
15.169000 1.394600
15.187200 1.312700
15.205400 1.312000
15.223600 1.313900
15.241800 1.310900
15.260000 1.430000
15.278100 1.348600
15.296300 1.332000
15.314500 1.318800
15.332700 1.311500
15.350900 1.322500
15.369100 1.331500
15.387200 1.349700
15.405400 1.390800
15.423600 1.421700
15.441800 1.449000
15.460000 1.457100
15.478200 1.472900
15.496400 1.482100
15.514500 1.477800
15.532700 1.466700
15.550900 1.449000
15.569100 1.423000
15.587300 1.392800
15.605500 1.366000
15.623600 1.344800
15.641800 1.330600
15.660000 1.320000
15.678200 1.306300
15.696400 1.299000
15.714600 1.299300
15.732700 1.299400
15.750900 1.299300
15.769100 1.289700
15.787300 1.277200
15.805500 1.297100
15.823700 1.284000
15.841900 1.263200
15.860000 1.251500
15.878200 1.240000
15.896400 1.228000
15.914600 1.219300
15.932800 1.215100
15.951000 1.213500
15.969100 1.241300
15.987300 1.289500
16.005500 1.324400
16.023700 1.355600
16.041900 1.391400
16.060100 1.449400
16.078200 1.448600
16.096400 1.419600
16.114600 1.426300
16.132800 1.442400
16.151000 1.467100
16.169200 1.501000
16.187400 1.537900
16.205500 1.563300
16.223700 1.573600
16.241900 1.600800
16.260100 1.629700
16.278300 1.640100
16.296500 1.646000
16.314600 1.653200
16.332800 1.662700
16.351000 1.680300
16.369200 1.689500
16.387400 1.712300
16.405600 1.672000
16.423800 1.635000
16.441900 1.598700
16.460100 1.571700
16.478300 1.546800
16.496500 1.522300
16.514700 1.503700
16.532900 1.473300
16.551000 1.456500
16.569200 1.445600
16.587400 1.396500
16.605600 1.368000
16.623800 1.337600
16.642000 1.300800
16.660100 1.268400
16.678300 1.235100
16.696500 1.201100
16.714700 1.173100
16.732900 1.151100
16.751100 1.141100
16.769300 1.132900
16.787400 1.139100
16.805600 1.149300
16.823800 1.161100
16.842000 1.178600
16.860200 1.240200
16.878400 1.246100
16.896500 1.283200
16.914700 1.320900
16.932900 1.364400
16.951100 1.405500
16.969300 1.440100
16.987500 1.462000
17.005600 1.490500
17.023800 1.535200
17.042000 1.593300
17.060200 1.593800
17.078400 1.607300
17.096600 1.621300
17.114800 1.634300
17.132900 1.651500
17.151100 1.641600
17.169300 1.643400
17.187500 1.642500
17.205700 1.635700
17.223900 1.626400
17.242000 1.624400
17.260200 1.623300
17.278400 1.609700
17.296600 1.600400
17.314800 1.594500
17.333000 1.587300
17.351200 1.589200
17.369300 1.615500
17.387500 1.608700
17.405700 1.602200
17.423900 1.592500
17.442100 1.573800
17.460300 1.550300
17.478400 1.534100
17.496600 1.527900
17.514800 1.510900
17.533000 1.483200
17.551200 1.462600
17.569400 1.447400
17.587500 1.437800
17.605700 1.429900
17.623900 1.418000
17.642100 1.404500
17.660300 1.390500
17.678500 1.381600
17.696700 1.372800
17.714800 1.361200
17.733000 1.341000
17.751200 1.319300
17.769400 1.301100
17.787600 1.287600
17.805800 1.279500
17.823900 1.277800
17.842100 1.278300
17.860300 1.278800
17.878500 1.279000
17.896700 1.282200
17.914900 1.286800
17.933000 1.290900
17.951200 1.295700
17.969400 1.301800
17.987600 1.308200
18.005800 1.315100
18.024000 1.321400
18.042200 1.326900
18.060300 1.332000
18.078500 1.336000
18.096700 1.340200
18.114900 1.348200
18.133100 1.347100
18.151300 1.343700
18.169400 1.341300
18.187600 1.341100
18.205800 1.341700
18.224000 1.342800
18.242200 1.340800
18.260400 1.322700
18.278500 1.308100
18.296700 1.298200
18.314900 1.288200
18.333100 1.288000
18.351300 1.291300
18.369500 1.286600
18.387700 1.292000
18.405800 1.294900
18.424000 1.271000
18.442200 1.269800
18.460400 1.274600
18.478600 1.246700
18.496800 1.235400
18.514900 1.229000
18.533100 1.223800
18.551300 1.219800
18.569500 1.216300
18.587700 1.211600
18.605900 1.208500
18.624100 1.209000
18.642200 1.210900
18.660400 1.214100
18.678600 1.218900
18.696800 1.226600
18.715000 1.241800
18.733200 1.259700
18.751300 1.274300
18.769500 1.293300
18.787700 1.314800
18.805900 1.334400
18.824100 1.355000
18.842300 1.378000
18.860400 1.400000
18.878600 1.422400
18.896800 1.443900
18.915000 1.470900
18.933200 1.505400
18.951400 1.545200
18.969600 1.614700
18.987700 1.597200
19.005900 1.494600
19.024100 1.457800
19.042300 1.440600
19.060500 1.404800
19.078700 1.368700
19.096800 1.337800
19.115000 1.305000
19.133200 1.271400
19.151400 1.242800
19.169600 1.218200
19.187800 1.176400
19.205900 1.160900
19.224100 1.141900
19.242300 1.137900
19.260500 1.138700
19.278700 1.139800
19.296900 1.138600
19.315100 1.131800
19.333200 1.120800
19.351400 1.106000
19.369600 1.088300
19.387800 1.071600
19.406000 1.060300
19.424200 1.048600
19.442300 1.027400
19.460500 1.001800
19.478700 0.969200
19.496900 0.930400
19.515100 0.900600
19.533300 0.889500
19.551500 0.883400
19.569600 0.877200
19.587800 0.872000
19.606000 0.867500
19.624200 0.860700
19.642400 0.851700
19.660600 0.841400
19.678700 0.832100
19.696900 0.822900
19.715100 0.813300
19.733300 0.803300
19.751500 0.791900
19.769700 0.781000
19.787800 0.767600
19.806000 0.752900
19.824200 0.740600
19.842400 0.719000
19.860600 0.691600
19.878800 0.674400
19.897000 0.659700
19.915100 0.664800
19.933300 0.633500
19.951500 0.621600
19.969700 0.611000
19.987900 0.600900
20.006100 0.591300
20.024200 0.582300
20.042400 0.576100
20.060600 0.569700
20.078800 0.562200
20.097000 0.554900
20.115200 0.545000
20.133300 0.536500
20.151500 0.531200
20.169700 0.529000
20.187900 0.526900
20.206100 0.523800
20.224300 0.519000
20.242500 0.513800
20.260600 0.503000
20.278800 0.483500
20.297000 0.462700
20.315200 0.447900
20.333400 0.429100
20.351600 0.413000
20.369700 0.399300
20.387900 0.386600
20.406100 0.374200
20.424300 0.364300
20.442500 0.349300
20.460700 0.334500
20.478800 0.326800
20.497000 0.303200
20.515200 0.288300
20.533400 0.277900
20.551600 0.268800
20.569800 0.259200
20.588000 0.249500
20.606100 0.240700
20.624300 0.236000
20.642500 0.231600
20.660700 0.227400
20.678900 0.223500
20.697100 0.220000
20.715200 0.217000
20.733400 0.214300
20.751600 0.211800
20.769800 0.209500
20.788000 0.207200
20.806200 0.205700
20.824400 0.211300
20.842500 0.223300
20.860700 0.215300
20.878900 0.212200
20.897100 0.210300
20.915300 0.199600
20.933500 0.192000
20.951600 0.193900
20.969800 0.182500
20.988000 0.175100
21.006200 0.168700
21.024400 0.164400
21.042600 0.159900
21.060700 0.154600
21.078900 0.149600
21.097100 0.146700
21.115300 0.144200
21.133500 0.141600
21.151700 0.138700
21.169900 0.135500
21.188000 0.132200
21.206200 0.128800
21.224400 0.125700
21.242600 0.123600
21.260800 0.119800
21.279000 0.115700
21.297100 0.111500
21.315300 0.107300
21.333500 0.103300
21.351700 0.099500
21.369900 0.096200
21.388100 0.099800
21.406200 0.085600
21.424400 0.083300
21.442600 0.081800
21.460800 0.081100
21.479000 0.081200
21.497200 0.078600
21.515400 0.071700
21.533500 0.062400
21.551700 0.053400
21.569900 0.048000
21.588100 0.041500
21.606300 0.036600
21.624500 0.033300
21.642600 0.031300
21.660800 0.029500
21.679000 0.027800
21.697200 0.026100
21.715400 0.024100
21.733600 0.025700
21.751800 0.020900
21.769900 0.016200
21.788100 0.011400
21.806300 0.006500
21.824500 0.003100
21.842700 0.002300
21.860900 0.001700
21.879000 0.001200
21.897200 0.000800
21.915400 0.000400
21.933600 0.000200
21.951800 0.000100
21.970000 0.000000
21.988100 0.000000
22.006300 0.000000
22.024500 0.000000
22.042700 0.000000
22.060900 0.000000
22.079100 0.000000
22.097300 0.000000
22.115400 0.000000
22.133600 0.000000
22.151800 0.000000
22.170000 0.000000
22.188200 0.000000
22.206400 0.000000
22.224500 0.000000
22.242700 0.000000
22.260900 0.000000
22.279100 0.000000
22.297300 0.000000
22.315500 0.000000
22.333600 0.000000
22.351800 0.000000
22.370000 0.000000
22.388200 0.000000
22.406400 0.000000
22.424600 0.000000
22.442800 0.000000
22.460900 0.000000
22.479100 0.000000
22.497300 0.000000
22.515500 0.000000
22.533700 0.000000
22.551900 0.000000
22.570000 0.000000
22.588200 0.000000
22.606400 0.000000
22.624600 0.000000
22.642800 0.000000
22.661000 0.000000
22.679100 0.000000
22.697300 0.000000
22.715500 0.000000
22.733700 0.000000
22.751900 0.000000
22.770100 0.000000
22.788300 0.000000
22.806400 0.000000
22.824600 0.000000
22.842800 0.000000
22.861000 0.000000
22.879200 0.000000
22.897400 0.000000
22.915500 0.000000
22.933700 0.000000
22.951900 0.000000
22.970100 0.000000
22.988300 0.000000
23.006500 0.000000
23.024700 0.000000
23.042800 0.000000
23.061000 0.000000
23.079200 0.000000
23.097400 0.000000
23.115600 0.000000
23.133800 0.000000
23.151900 0.000000
23.170100 0.000000
23.188300 0.000000
23.206500 0.000000
23.224700 0.000000
23.242900 0.000000
23.261000 0.000000
23.279200 0.000000
23.297400 0.000000
23.315600 0.000000
23.333800 0.000000
23.352000 0.000000
23.370200 0.000000
23.388300 0.000000
23.406500 0.000000
23.424700 0.000000
23.442900 0.000000
23.461100 0.000000
23.479300 0.000000
23.497400 0.000000
23.515600 0.000000
23.533800 0.000000
23.552000 0.000000
23.570200 0.000000
23.588400 0.000000
23.606500 0.000000
23.624700 0.000000
e
