set title 'mp-1220285 - Density of States'
set xlabel 'Energy (eV)'
set ylabel 'DOS (states/eV)'
set grid
set xrange [-10:10]
set yrange [0:15.569]
set xzeroaxis lt -1
set terminal png size 800,600
set output 'mp-1220285_dos_gnuplot.png'
plot '-' using 1:2 with lines title 'DOS'
-27.550100 0.000000
-27.521000 0.000000
-27.492000 0.000000
-27.463000 0.000000
-27.434000 0.000000
-27.405000 0.000000
-27.376000 0.000000
-27.347000 0.000000
-27.318000 0.000000
-27.289000 0.000000
-27.260000 0.000000
-27.231000 0.000000
-27.202000 0.000000
-27.173000 0.000000
-27.144000 0.000000
-27.115000 0.000000
-27.086000 0.000000
-27.056900 0.000000
-27.027900 0.000000
-26.998900 0.000000
-26.969900 0.000000
-26.940900 0.000000
-26.911900 0.000000
-26.882900 0.000000
-26.853900 0.000000
-26.824900 0.000000
-26.795900 0.000000
-26.766900 0.000000
-26.737900 0.000000
-26.708900 0.000000
-26.679900 0.000000
-26.650900 0.000000
-26.621900 0.000000
-26.592800 0.000000
-26.563800 0.000000
-26.534800 0.000000
-26.505800 0.000000
-26.476800 0.000000
-26.447800 0.000000
-26.418800 0.000000
-26.389800 0.000000
-26.360800 0.000000
-26.331800 0.000000
-26.302800 0.000000
-26.273800 0.000000
-26.244800 0.000000
-26.215800 0.000000
-26.186800 0.000000
-26.157800 0.000000
-26.128700 0.000000
-26.099700 0.000000
-26.070700 0.000000
-26.041700 0.000000
-26.012700 0.000000
-25.983700 0.000000
-25.954700 0.000000
-25.925700 0.000000
-25.896700 0.000000
-25.867700 0.000000
-25.838700 0.000000
-25.809700 0.000000
-25.780700 0.000000
-25.751700 0.000000
-25.722700 0.000000
-25.693700 0.000000
-25.664600 0.000000
-25.635600 0.000000
-25.606600 0.000000
-25.577600 0.000000
-25.548600 0.000000
-25.519600 0.000000
-25.490600 0.000000
-25.461600 0.000000
-25.432600 0.000000
-25.403600 0.000000
-25.374600 0.000000
-25.345600 0.000000
-25.316600 0.000000
-25.287600 0.000000
-25.258600 0.000000
-25.229600 0.000000
-25.200500 0.000000
-25.171500 0.000000
-25.142500 0.000000
-25.113500 0.000000
-25.084500 0.000000
-25.055500 0.000000
-25.026500 0.000000
-24.997500 0.000000
-24.968500 0.000000
-24.939500 0.000000
-24.910500 8.674600
-24.881500 2.294200
-24.852500 2.706800
-24.823500 3.119400
-24.794500 3.290400
-24.765500 3.450400
-24.736400 3.899400
-24.707400 4.349400
-24.678400 5.653300
-24.649400 4.464000
-24.620400 1.820400
-24.591400 1.764500
-24.562400 1.708600
-24.533400 1.631900
-24.504400 1.516700
-24.475400 1.401400
-24.446400 1.291500
-24.417400 1.283800
-24.388400 1.276100
-24.359400 3.054100
-24.330400 5.890400
-24.301400 7.245900
-24.272300 5.355800
-24.243300 0.949100
-24.214300 3.859100
-24.185300 50.634500
-24.156300 13.089000
-24.127300 19.014800
-24.098300 22.705400
-24.069300 3.370900
-24.040300 3.358400
-24.011300 3.345900
-23.982300 3.064000
-23.953300 3.161800
-23.924300 3.282700
-23.895300 4.469300
-23.866300 5.592000
-23.837300 6.208900
-23.808200 4.914700
-23.779200 4.132100
-23.750200 3.739600
-23.721200 3.347000
-23.692200 3.152300
-23.663200 3.278900
-23.634200 2.920300
-23.605200 2.781400
-23.576200 3.019700
-23.547200 2.315600
-23.518200 2.177900
-23.489200 0.000000
-23.460200 0.000000
-23.431200 0.000000
-23.402200 0.000000
-23.373200 0.000000
-23.344100 0.000000
-23.315100 0.000000
-23.286100 0.000000
-23.257100 0.000000
-23.228100 0.000000
-23.199100 0.000000
-23.170100 0.000000
-23.141100 0.000000
-23.112100 0.000000
-23.083100 0.000000
-23.054100 0.000000
-23.025100 0.000000
-22.996100 0.000000
-22.967100 0.000000
-22.938100 0.000000
-22.909100 0.000000
-22.880100 0.000000
-22.851000 0.000000
-22.822000 0.000000
-22.793000 0.000000
-22.764000 0.000000
-22.735000 0.000000
-22.706000 0.000000
-22.677000 0.000000
-22.648000 0.000000
-22.619000 0.000000
-22.590000 0.000000
-22.561000 0.000000
-22.532000 0.000000
-22.503000 0.000000
-22.474000 0.000000
-22.445000 0.000000
-22.416000 0.000000
-22.386900 0.000000
-22.357900 0.000000
-22.328900 0.000000
-22.299900 0.000000
-22.270900 0.000000
-22.241900 0.000000
-22.212900 0.000000
-22.183900 0.000000
-22.154900 0.000000
-22.125900 0.000000
-22.096900 0.000000
-22.067900 0.000000
-22.038900 0.000000
-22.009900 0.000000
-21.980900 0.000000
-21.951900 0.000000
-21.922800 0.000000
-21.893800 0.000000
-21.864800 0.000000
-21.835800 0.000000
-21.806800 0.000000
-21.777800 0.000000
-21.748800 0.000000
-21.719800 0.000000
-21.690800 0.000000
-21.661800 0.000000
-21.632800 0.000000
-21.603800 0.000000
-21.574800 0.000000
-21.545800 0.000000
-21.516800 0.000000
-21.487800 0.000000
-21.458700 0.000000
-21.429700 0.000000
-21.400700 0.000000
-21.371700 0.000000
-21.342700 0.000000
-21.313700 0.000000
-21.284700 0.000000
-21.255700 0.000000
-21.226700 0.000000
-21.197700 0.000000
-21.168700 0.000000
-21.139700 0.000000
-21.110700 0.000000
-21.081700 0.000000
-21.052700 0.000000
-21.023700 0.000000
-20.994600 0.000000
-20.965600 0.000000
-20.936600 0.000000
-20.907600 0.000000
-20.878600 0.000000
-20.849600 0.000000
-20.820600 0.000000
-20.791600 0.000000
-20.762600 0.000000
-20.733600 0.000000
-20.704600 0.000000
-20.675600 0.000000
-20.646600 0.000000
-20.617600 0.000000
-20.588600 0.000000
-20.559600 0.000000
-20.530500 0.000000
-20.501500 0.000000
-20.472500 0.000000
-20.443500 0.000000
-20.414500 0.000000
-20.385500 0.000000
-20.356500 0.000000
-20.327500 0.000000
-20.298500 0.000000
-20.269500 0.000000
-20.240500 0.000000
-20.211500 0.000000
-20.182500 0.000000
-20.153500 0.000000
-20.124500 0.000000
-20.095500 0.000000
-20.066400 0.000000
-20.037400 0.000000
-20.008400 0.000000
-19.979400 0.000000
-19.950400 0.000000
-19.921400 0.000000
-19.892400 0.000000
-19.863400 0.000000
-19.834400 0.000000
-19.805400 0.000000
-19.776400 0.000000
-19.747400 0.000000
-19.718400 0.000000
-19.689400 0.000000
-19.660400 0.000000
-19.631400 0.000000
-19.602300 0.000000
-19.573300 0.000000
-19.544300 0.000000
-19.515300 0.000000
-19.486300 0.000000
-19.457300 0.000000
-19.428300 0.000000
-19.399300 0.000000
-19.370300 0.000000
-19.341300 0.000000
-19.312300 0.000000
-19.283300 0.000000
-19.254300 0.000000
-19.225300 0.000000
-19.196300 0.000000
-19.167300 0.000000
-19.138200 0.000000
-19.109200 0.000000
-19.080200 0.000000
-19.051200 0.000000
-19.022200 0.000000
-18.993200 0.000000
-18.964200 0.000000
-18.935200 0.000000
-18.906200 0.000000
-18.877200 0.000000
-18.848200 0.000000
-18.819200 0.000000
-18.790200 0.000000
-18.761200 0.000000
-18.732200 0.000000
-18.703200 0.000000
-18.674100 0.000000
-18.645100 0.000000
-18.616100 0.000000
-18.587100 0.000000
-18.558100 0.000000
-18.529100 0.000000
-18.500100 0.000000
-18.471100 0.000000
-18.442100 0.000000
-18.413100 0.000000
-18.384100 0.000000
-18.355100 0.000000
-18.326100 0.000000
-18.297100 0.000000
-18.268100 0.000000
-18.239100 0.000000
-18.210000 0.000000
-18.181000 0.000000
-18.152000 0.000000
-18.123000 0.000000
-18.094000 0.000000
-18.065000 0.000000
-18.036000 0.000000
-18.007000 0.000000
-17.978000 0.000000
-17.949000 0.000000
-17.920000 0.000000
-17.891000 0.000000
-17.862000 0.000000
-17.833000 0.000000
-17.804000 0.000000
-17.775000 0.000000
-17.745900 0.000000
-17.716900 0.000000
-17.687900 0.000000
-17.658900 0.000000
-17.629900 0.000000
-17.600900 0.000000
-17.571900 0.000000
-17.542900 0.000000
-17.513900 0.000000
-17.484900 0.000000
-17.455900 0.000000
-17.426900 0.000000
-17.397900 0.000000
-17.368900 0.000000
-17.339900 0.000000
-17.310900 0.000000
-17.281800 0.000000
-17.252800 0.000000
-17.223800 0.000000
-17.194800 0.000000
-17.165800 0.000000
-17.136800 0.000000
-17.107800 0.000000
-17.078800 0.000000
-17.049800 0.000000
-17.020800 0.000000
-16.991800 0.000000
-16.962800 0.000000
-16.933800 0.000000
-16.904800 0.000000
-16.875800 0.000000
-16.846800 0.000000
-16.817700 0.000000
-16.788700 0.000000
-16.759700 0.000000
-16.730700 0.000000
-16.701700 0.000000
-16.672700 0.000000
-16.643700 0.000000
-16.614700 0.000000
-16.585700 0.000000
-16.556700 0.000000
-16.527700 0.000000
-16.498700 0.000000
-16.469700 0.000000
-16.440700 0.000000
-16.411700 0.000000
-16.382700 0.000000
-16.353600 0.000000
-16.324600 0.000000
-16.295600 0.000000
-16.266600 0.000000
-16.237600 0.000000
-16.208600 0.000000
-16.179600 0.000000
-16.150600 0.000000
-16.121600 0.000000
-16.092600 0.000000
-16.063600 0.000000
-16.034600 0.000000
-16.005600 0.000000
-15.976600 0.000000
-15.947600 0.000000
-15.918600 0.000000
-15.889500 0.000000
-15.860500 0.000000
-15.831500 0.000000
-15.802500 0.000000
-15.773500 0.000000
-15.744500 0.000000
-15.715500 0.000000
-15.686500 0.000000
-15.657500 0.000000
-15.628500 0.000000
-15.599500 0.000000
-15.570500 0.000000
-15.541500 0.000000
-15.512500 0.000000
-15.483500 0.000000
-15.454500 0.000000
-15.425400 0.000000
-15.396400 0.000000
-15.367400 0.000000
-15.338400 0.000000
-15.309400 0.000000
-15.280400 0.000000
-15.251400 0.000000
-15.222400 0.000000
-15.193400 0.000000
-15.164400 0.000000
-15.135400 0.000000
-15.106400 0.000000
-15.077400 0.000000
-15.048400 0.000000
-15.019400 0.000000
-14.990400 0.000000
-14.961300 0.000000
-14.932300 0.000000
-14.903300 0.000000
-14.874300 0.000000
-14.845300 0.000000
-14.816300 0.000000
-14.787300 0.000000
-14.758300 0.000000
-14.729300 0.000000
-14.700300 0.000000
-14.671300 0.000000
-14.642300 0.000000
-14.613300 0.000000
-14.584300 0.000000
-14.555300 0.000000
-14.526300 0.000000
-14.497300 0.000000
-14.468200 0.000000
-14.439200 0.000000
-14.410200 0.000000
-14.381200 0.000000
-14.352200 0.000000
-14.323200 0.000000
-14.294200 0.000000
-14.265200 0.000000
-14.236200 0.000000
-14.207200 0.000000
-14.178200 0.000000
-14.149200 0.000000
-14.120200 0.000000
-14.091200 0.000000
-14.062200 0.000000
-14.033200 0.000000
-14.004100 0.000000
-13.975100 0.000000
-13.946100 0.000000
-13.917100 0.000000
-13.888100 0.000000
-13.859100 0.000000
-13.830100 0.000000
-13.801100 0.000000
-13.772100 0.000000
-13.743100 0.000000
-13.714100 0.000000
-13.685100 0.000000
-13.656100 0.000000
-13.627100 0.000000
-13.598100 0.000000
-13.569100 0.000000
-13.540000 0.000000
-13.511000 0.000000
-13.482000 0.000000
-13.453000 0.000000
-13.424000 0.000000
-13.395000 0.000000
-13.366000 0.000000
-13.337000 0.000000
-13.308000 0.000000
-13.279000 0.000000
-13.250000 0.000000
-13.221000 0.000000
-13.192000 0.000000
-13.163000 0.000000
-13.134000 0.000000
-13.105000 0.000000
-13.075900 0.000000
-13.046900 0.000000
-13.017900 0.000000
-12.988900 0.000000
-12.959900 0.000000
-12.930900 0.000000
-12.901900 0.000000
-12.872900 0.000000
-12.843900 0.000000
-12.814900 0.000000
-12.785900 0.000000
-12.756900 0.000000
-12.727900 0.000000
-12.698900 0.000000
-12.669900 0.000000
-12.640900 0.000000
-12.611800 0.000000
-12.582800 0.000000
-12.553800 0.000000
-12.524800 0.000000
-12.495800 0.000000
-12.466800 0.000000
-12.437800 0.000000
-12.408800 0.000000
-12.379800 0.000000
-12.350800 0.000000
-12.321800 0.000000
-12.292800 0.000000
-12.263800 0.000000
-12.234800 0.000000
-12.205800 0.000000
-12.176800 0.000000
-12.147700 0.000000
-12.118700 0.000000
-12.089700 0.000000
-12.060700 0.000000
-12.031700 0.000000
-12.002700 0.000000
-11.973700 0.000000
-11.944700 0.000000
-11.915700 0.000000
-11.886700 0.000000
-11.857700 0.000000
-11.828700 0.000000
-11.799700 0.000000
-11.770700 0.000000
-11.741700 0.000000
-11.712700 0.000000
-11.683600 0.000000
-11.654600 0.000000
-11.625600 0.000000
-11.596600 0.000000
-11.567600 0.000000
-11.538600 0.000000
-11.509600 0.000000
-11.480600 0.000000
-11.451600 0.000000
-11.422600 0.000000
-11.393600 0.000000
-11.364600 0.000000
-11.335600 0.000000
-11.306600 0.000000
-11.277600 0.000000
-11.248600 0.000000
-11.219500 0.000000
-11.190500 0.000000
-11.161500 0.000000
-11.132500 0.000000
-11.103500 0.000000
-11.074500 0.000000
-11.045500 0.000000
-11.016500 0.000000
-10.987500 0.000000
-10.958500 0.000000
-10.929500 0.000000
-10.900500 0.000000
-10.871500 0.000000
-10.842500 0.000000
-10.813500 0.000000
-10.784500 0.000000
-10.755400 0.000000
-10.726400 0.000000
-10.697400 0.000000
-10.668400 0.000000
-10.639400 0.000000
-10.610400 0.000000
-10.581400 0.000000
-10.552400 0.000000
-10.523400 0.000000
-10.494400 0.000000
-10.465400 0.000000
-10.436400 0.000000
-10.407400 0.000000
-10.378400 0.000000
-10.349400 0.000000
-10.320400 0.000000
-10.291300 0.000000
-10.262300 0.000000
-10.233300 0.000000
-10.204300 0.000000
-10.175300 0.000000
-10.146300 0.000000
-10.117300 0.000000
-10.088300 0.000000
-10.059300 0.000000
-10.030300 0.000000
-10.001300 0.000000
-9.972300 0.000000
-9.943300 0.000000
-9.914300 0.000000
-9.885300 0.000000
-9.856300 0.000000
-9.827200 0.000000
-9.798200 0.000000
-9.769200 0.000000
-9.740200 0.000000
-9.711200 0.000000
-9.682200 0.000000
-9.653200 0.000000
-9.624200 0.000000
-9.595200 0.000000
-9.566200 0.000000
-9.537200 0.000000
-9.508200 0.000000
-9.479200 0.000000
-9.450200 0.000000
-9.421200 0.000000
-9.392200 0.000000
-9.363100 0.000000
-9.334100 0.000000
-9.305100 0.000000
-9.276100 0.000000
-9.247100 0.000000
-9.218100 0.000000
-9.189100 0.000000
-9.160100 0.000000
-9.131100 0.000000
-9.102100 0.000000
-9.073100 0.000000
-9.044100 0.000000
-9.015100 0.000000
-8.986100 0.000000
-8.957100 0.000000
-8.928100 0.000000
-8.899000 0.000000
-8.870000 0.000000
-8.841000 0.000000
-8.812000 0.000000
-8.783000 0.000000
-8.754000 0.000000
-8.725000 0.000000
-8.696000 0.000000
-8.667000 0.000000
-8.638000 0.000000
-8.609000 0.000000
-8.580000 0.000000
-8.551000 0.000000
-8.522000 0.000000
-8.493000 0.000000
-8.464000 0.000000
-8.434900 0.000000
-8.405900 0.000000
-8.376900 0.000000
-8.347900 0.000000
-8.318900 0.000000
-8.289900 0.000000
-8.260900 0.000000
-8.231900 0.000000
-8.202900 0.000000
-8.173900 0.000000
-8.144900 0.000000
-8.115900 0.000000
-8.086900 0.000000
-8.057900 0.000000
-8.028900 0.000000
-7.999900 0.000000
-7.970800 0.000000
-7.941800 0.000000
-7.912800 0.000000
-7.883800 0.000000
-7.854800 0.000000
-7.825800 0.000000
-7.796800 0.000000
-7.767800 0.000000
-7.738800 0.000000
-7.709800 0.000000
-7.680800 0.000000
-7.651800 0.000000
-7.622800 0.000000
-7.593800 0.000000
-7.564800 0.000000
-7.535800 0.000000
-7.506700 0.000000
-7.477700 0.000000
-7.448700 0.000000
-7.419700 0.000000
-7.390700 0.000000
-7.361700 0.000000
-7.332700 0.000000
-7.303700 0.000000
-7.274700 0.000000
-7.245700 0.000000
-7.216700 0.000000
-7.187700 0.000000
-7.158700 0.000000
-7.129700 0.000000
-7.100700 0.000000
-7.071700 0.000000
-7.042600 0.000000
-7.013600 0.000000
-6.984600 0.000000
-6.955600 0.000000
-6.926600 0.000000
-6.897600 0.000000
-6.868600 0.000000
-6.839600 0.000000
-6.810600 0.000000
-6.781600 0.000000
-6.752600 0.000000
-6.723600 0.000000
-6.694600 0.000000
-6.665600 0.000000
-6.636600 0.000000
-6.607600 0.000000
-6.578500 0.000000
-6.549500 0.000000
-6.520500 0.000000
-6.491500 0.000000
-6.462500 0.000000
-6.433500 0.000000
-6.404500 0.000000
-6.375500 0.000000
-6.346500 0.000000
-6.317500 0.000000
-6.288500 0.000000
-6.259500 0.000000
-6.230500 0.000000
-6.201500 0.000000
-6.172500 0.000000
-6.143500 0.000000
-6.114500 0.000000
-6.085400 0.000000
-6.056400 0.000000
-6.027400 0.000000
-5.998400 0.000000
-5.969400 0.000000
-5.940400 0.000000
-5.911400 0.000000
-5.882400 0.000000
-5.853400 0.000000
-5.824400 0.000000
-5.795400 0.000000
-5.766400 0.000000
-5.737400 0.000000
-5.708400 0.000000
-5.679400 0.000000
-5.650400 0.000000
-5.621300 0.000000
-5.592300 0.000000
-5.563300 0.000000
-5.534300 0.000000
-5.505300 0.000000
-5.476300 0.000000
-5.447300 0.000000
-5.418300 0.000000
-5.389300 0.000000
-5.360300 0.000000
-5.331300 0.000000
-5.302300 0.000000
-5.273300 0.000000
-5.244300 0.000000
-5.215300 0.000000
-5.186300 0.000000
-5.157200 0.000000
-5.128200 0.000000
-5.099200 0.000000
-5.070200 0.000000
-5.041200 0.000000
-5.012200 0.000000
-4.983200 0.000000
-4.954200 0.000000
-4.925200 0.000000
-4.896200 0.000000
-4.867200 0.000000
-4.838200 0.000000
-4.809200 0.000000
-4.780200 0.000000
-4.751200 0.000000
-4.722200 0.000000
-4.693100 0.000000
-4.664100 0.000000
-4.635100 0.000000
-4.606100 0.000000
-4.577100 0.000000
-4.548100 0.000000
-4.519100 0.000000
-4.490100 0.000000
-4.461100 0.000000
-4.432100 0.000000
-4.403100 0.000000
-4.374100 0.000000
-4.345100 0.000000
-4.316100 0.000000
-4.287100 0.000000
-4.258100 0.000000
-4.229000 0.000000
-4.200000 0.000000
-4.171000 0.000000
-4.142000 0.000000
-4.113000 0.000000
-4.084000 0.000000
-4.055000 0.000000
-4.026000 0.000000
-3.997000 0.000000
-3.968000 0.000000
-3.939000 0.000000
-3.910000 0.000000
-3.881000 0.000000
-3.852000 0.000000
-3.823000 0.000000
-3.794000 0.000000
-3.764900 0.000000
-3.735900 0.000000
-3.706900 0.000000
-3.677900 0.000000
-3.648900 0.000000
-3.619900 0.000000
-3.590900 0.000000
-3.561900 0.000000
-3.532900 0.000000
-3.503900 0.000000
-3.474900 0.000000
-3.445900 0.000000
-3.416900 0.000000
-3.387900 0.000000
-3.358900 0.000000
-3.329900 0.000000
-3.300800 0.000000
-3.271800 0.000000
-3.242800 0.000000
-3.213800 0.000000
-3.184800 0.000000
-3.155800 0.000000
-3.126800 0.000000
-3.097800 0.000000
-3.068800 0.000000
-3.039800 0.000000
-3.010800 0.000000
-2.981800 0.000000
-2.952800 0.000000
-2.923800 0.000000
-2.894800 0.000000
-2.865800 0.000000
-2.836700 0.000000
-2.807700 0.000000
-2.778700 0.000000
-2.749700 0.000000
-2.720700 0.000000
-2.691700 0.000000
-2.662700 0.000000
-2.633700 0.000000
-2.604700 0.000000
-2.575700 0.000000
-2.546700 0.000000
-2.517700 0.000000
-2.488700 0.000000
-2.459700 0.000000
-2.430700 0.000000
-2.401700 0.000000
-2.372600 0.000000
-2.343600 0.003400
-2.314600 0.014900
-2.285600 0.031100
-2.256600 0.051200
-2.227600 0.074600
-2.198600 0.101200
-2.169600 0.131600
-2.140600 0.167300
-2.111600 0.204700
-2.082600 0.242100
-2.053600 0.224100
-2.024600 0.227600
-1.995600 0.231900
-1.966600 0.234300
-1.937600 0.233700
-1.908500 0.228500
-1.879500 0.204400
-1.850500 0.208300
-1.821500 0.212200
-1.792500 0.216100
-1.763500 0.223100
-1.734500 0.233500
-1.705500 0.246200
-1.676500 0.261000
-1.647500 0.277300
-1.618500 0.295100
-1.589500 0.314300
-1.560500 0.335100
-1.531500 0.356700
-1.502500 0.366800
-1.473500 0.369000
-1.444400 0.376500
-1.415400 0.384300
-1.386400 0.391800
-1.357400 0.399000
-1.328400 0.406900
-1.299400 0.415600
-1.270400 0.427900
-1.241400 0.442500
-1.212400 0.456600
-1.183400 0.469900
-1.154400 0.482500
-1.125400 0.494700
-1.096400 0.504500
-1.067400 0.511000
-1.038400 0.514300
-1.009400 0.500400
-0.980300 0.507200
-0.951300 0.513900
-0.922300 0.520200
-0.893300 0.526100
-0.864300 0.531900
-0.835300 0.537400
-0.806300 0.542600
-0.777300 0.547700
-0.748300 0.552600
-0.719300 0.557700
-0.690300 0.563500
-0.661300 0.573100
-0.632300 0.586600
-0.603300 0.602100
-0.574300 0.618200
-0.545300 0.637400
-0.516200 0.658700
-0.487200 0.681900
-0.458200 0.709000
-0.429200 0.737400
-0.400200 0.744300
-0.371200 0.762400
-0.342200 0.782300
-0.313200 0.805100
-0.284200 0.831300
-0.255200 0.860900
-0.226200 0.889800
-0.197200 0.917500
-0.168200 0.944700
-0.139200 0.970500
-0.110200 0.993900
-0.081200 1.014300
-0.052100 1.031200
-0.023100 1.034800
0.005900 1.043300
0.034900 1.065000
0.063900 1.087300
0.092900 1.110400
0.121900 1.134200
0.150900 1.159100
0.179900 1.189100
0.208900 1.237100
0.237900 1.305900
0.266900 1.381700
0.295900 1.464200
0.324900 1.705900
0.353900 1.965000
0.382900 2.378900
0.412000 2.722100
0.441000 2.919000
0.470000 3.062200
0.499000 3.122800
0.528000 3.087900
0.557000 2.992000
0.586000 2.757300
0.615000 2.907700
0.644000 3.120000
0.673000 3.246800
0.702000 3.440700
0.731000 3.759300
0.760000 3.996600
0.789000 4.117000
0.818000 4.510400
0.847000 4.473900
0.876100 4.597500
0.905100 5.156100
0.934100 5.243000
0.963100 5.233500
0.992100 5.333900
1.021100 5.437600
1.050100 5.528500
1.079100 5.573300
1.108100 5.579900
1.137100 5.765800
1.166100 5.890200
1.195100 5.897400
1.224100 6.027600
1.253100 6.154000
1.282100 6.304900
1.311100 6.494300
1.340200 6.787100
1.369200 6.939200
1.398200 6.896500
1.427200 7.115100
1.456200 7.370300
1.485200 7.703700
1.514200 7.330100
1.543200 7.085500
1.572200 6.540400
1.601200 6.090400
1.630200 5.939600
1.659200 6.067200
1.688200 6.449900
1.717200 7.041000
1.746200 6.648600
1.775200 6.417100
1.804200 6.474300
1.833300 6.764200
1.862300 7.451000
1.891300 7.449900
1.920300 7.911500
1.949300 8.073700
1.978300 7.955600
2.007300 7.369100
2.036300 6.706300
2.065300 6.634600
2.094300 5.670200
2.123300 5.807000
2.152300 5.208400
2.181300 5.309200
2.210300 5.952700
2.239300 8.025000
2.268300 8.546500
2.297400 5.838700
2.326400 4.786700
2.355400 4.562200
2.384400 4.483300
2.413400 4.560300
2.442400 4.752100
2.471400 4.116200
2.500400 4.559800
2.529400 6.209200
2.558400 8.238600
2.587400 9.138000
2.616400 8.340100
2.645400 8.285100
2.674400 8.831700
2.703400 7.226700
2.732400 5.970100
2.761500 5.828200
2.790500 6.116200
2.819500 6.866300
2.848500 7.569800
2.877500 8.217700
2.906500 8.023200
2.935500 7.623800
2.964500 7.609200
2.993500 7.646100
3.022500 7.869200
3.051500 8.308500
3.080500 8.448700
3.109500 8.385900
3.138500 8.703500
3.167500 8.412000
3.196500 8.209600
3.225600 8.167000
3.254600 8.009300
3.283600 7.606100
3.312600 7.186200
3.341600 7.093100
3.370600 7.451200
3.399600 7.830900
3.428600 7.022500
3.457600 7.262000
3.486600 7.084800
3.515600 7.045500
3.544600 8.128000
3.573600 9.496300
3.602600 9.652300
3.631600 8.698500
3.660600 8.794800
3.689700 9.144700
3.718700 10.710900
3.747700 9.279100
3.776700 9.480700
3.805700 7.512900
3.834700 6.907300
3.863700 6.908200
3.892700 7.392500
3.921700 8.060500
3.950700 8.687100
3.979700 9.104700
4.008700 10.479800
4.037700 9.392800
4.066700 10.529000
4.095700 8.951000
4.124700 7.391100
4.153800 8.661400
4.182800 10.460800
4.211800 11.434000
4.240800 8.386500
4.269800 7.292300
4.298800 6.204100
4.327800 5.150900
4.356800 4.596100
4.385800 5.376700
4.414800 5.984800
4.443800 6.070200
4.472800 6.586300
4.501800 6.237300
4.530800 6.026300
4.559800 5.611200
4.588800 5.504100
4.617900 5.265200
4.646900 6.430900
4.675900 6.970700
4.704900 7.196300
4.733900 8.496800
4.762900 8.738100
4.791900 8.809900
4.820900 9.587800
4.849900 9.615200
4.878900 8.550800
4.907900 9.340700
4.936900 7.549700
4.965900 6.633300
4.994900 8.144500
5.023900 14.153900
5.052900 7.337500
5.082000 6.616800
5.111000 5.987700
5.140000 6.103100
5.169000 6.431900
5.198000 7.122300
5.227000 7.149000
5.256000 6.686800
5.285000 6.131200
5.314000 6.082800
5.343000 5.708500
5.372000 4.646900
5.401000 4.498700
5.430000 4.870400
5.459000 5.870500
5.488000 6.241900
5.517000 5.907900
5.546100 6.639100
5.575100 6.187500
5.604100 6.138200
5.633100 6.343600
5.662100 7.164600
5.691100 7.838500
5.720100 7.370800
5.749100 6.565500
5.778100 6.281300
5.807100 6.625500
5.836100 5.649300
5.865100 5.711800
5.894100 5.876300
5.923100 5.989600
5.952100 6.120300
5.981100 5.958300
6.010200 5.866000
6.039200 5.822900
6.068200 5.663200
6.097200 5.513300
6.126200 5.488600
6.155200 5.451200
6.184200 5.361200
6.213200 5.347600
6.242200 5.508500
6.271200 5.596600
6.300200 5.664800
6.329200 5.914100
6.358200 6.645600
6.387200 7.872400
6.416200 7.035400
6.445200 6.687000
6.474300 7.241300
6.503300 6.834600
6.532300 5.829300
6.561300 7.254700
6.590300 7.307500
6.619300 6.057100
6.648300 5.680900
6.677300 5.447000
6.706300 5.967100
6.735300 6.264400
6.764300 6.152200
6.793300 7.153800
6.822300 6.833300
6.851300 6.722200
6.880300 6.470000
6.909300 6.026900
6.938400 4.938900
6.967400 4.361400
6.996400 3.953800
7.025400 3.622800
7.054400 3.288800
7.083400 2.930100
7.112400 3.190400
7.141400 3.473600
7.170400 3.803500
7.199400 4.456400
7.228400 4.281900
7.257400 4.051200
7.286400 3.761700
7.315400 3.757400
7.344400 3.714500
7.373400 3.679600
7.402500 5.275700
7.431500 6.043300
7.460500 5.329700
7.489500 4.722900
7.518500 3.896200
7.547500 2.483700
7.576500 2.513200
7.605500 2.797700
7.634500 3.164400
7.663500 3.274300
7.692500 3.675000
7.721500 2.737200
7.750500 2.757600
7.779500 3.619900
7.808500 3.184000
7.837500 3.253700
7.866600 3.307100
7.895600 3.289500
7.924600 3.270400
7.953600 3.253700
7.982600 3.245900
8.011600 3.228700
8.040600 3.218400
8.069600 3.185800
8.098600 3.151800
8.127600 3.129300
8.156600 3.124600
8.185600 3.094600
8.214600 3.045000
8.243600 3.248700
8.272600 3.683600
8.301600 2.947000
8.330700 2.580600
8.359700 2.476500
8.388700 2.474400
8.417700 2.662600
8.446700 2.561300
8.475700 2.436500
8.504700 2.329200
8.533700 2.124200
8.562700 2.018800
8.591700 1.941200
8.620700 1.886300
8.649700 1.845700
8.678700 1.819600
8.707700 1.823600
8.736700 1.847100
8.765700 1.878500
8.794800 1.915700
8.823800 2.062300
8.852800 2.141400
8.881800 2.217700
8.910800 2.428200
8.939800 2.277800
8.968800 2.120600
8.997800 1.959100
9.026800 1.846700
9.055800 1.836400
9.084800 1.856000
9.113800 1.872800
9.142800 1.879300
9.171800 1.976700
9.200800 2.089200
9.229800 2.233200
9.258900 2.514400
9.287900 2.874700
9.316900 3.122500
9.345900 2.689500
9.374900 2.651600
9.403900 2.672700
9.432900 2.712800
9.461900 2.756200
9.490900 2.787600
9.519900 2.817100
9.548900 2.873400
9.577900 3.346400
9.606900 3.883200
9.635900 2.829800
9.664900 2.608100
9.693900 2.465900
9.723000 2.211100
9.752000 2.104300
9.781000 2.106900
9.810000 1.973300
9.839000 1.853400
9.868000 1.730900
9.897000 1.666500
9.926000 1.623600
9.955000 1.643400
9.984000 1.871800
10.013000 2.230400
10.042000 2.640800
10.071000 2.620600
10.100000 2.434600
10.129000 2.762900
10.158000 3.242000
10.187000 3.452200
10.216100 3.129500
10.245100 2.981200
10.274100 3.285800
10.303100 2.231300
10.332100 2.296400
10.361100 2.023400
10.390100 2.054200
10.419100 2.090700
10.448100 2.084400
10.477100 2.060700
10.506100 2.038900
10.535100 2.023800
10.564100 2.017100
10.593100 2.015600
10.622100 2.014300
10.651100 2.008700
10.680200 1.994200
10.709200 2.000900
10.738200 1.996000
10.767200 1.989700
10.796200 1.970200
10.825200 1.938000
10.854200 1.924500
10.883200 1.921600
10.912200 1.919800
10.941200 1.918600
10.970200 1.964200
10.999200 1.987800
11.028200 2.021900
11.057200 1.991100
11.086200 1.896300
11.115200 1.809600
11.144300 1.742400
11.173300 1.681900
11.202300 1.659700
11.231300 1.681300
11.260300 1.605200
11.289300 1.543200
11.318300 1.508800
11.347300 1.478100
11.376300 1.436800
11.405300 1.382800
11.434300 1.340800
11.463300 1.348000
11.492300 1.399200
11.521300 1.459200
11.550300 1.521800
11.579300 1.497300
11.608400 1.330800
11.637400 1.288900
11.666400 1.285000
11.695400 1.281400
11.724400 1.278100
11.753400 1.274900
11.782400 1.263600
11.811400 1.255500
11.840400 1.250700
11.869400 1.343900
11.898400 1.703000
11.927400 2.304500
11.956400 3.217000
11.985400 3.541600
12.014400 3.684500
12.043400 2.916700
12.072500 2.540200
12.101500 1.847800
12.130500 1.729500
12.159500 1.659600
12.188500 1.598000
12.217500 1.579200
12.246500 1.592300
12.275500 1.695900
12.304500 1.721900
12.333500 1.557800
12.362500 1.563600
12.391500 1.602200
12.420500 1.595800
12.449500 1.573700
12.478500 1.554000
12.507500 1.536800
12.536600 1.514100
12.565600 1.483200
12.594600 1.455100
12.623600 1.429800
12.652600 1.409700
12.681600 1.392300
12.710600 1.360400
12.739600 1.319300
12.768600 1.380100
12.797600 1.526300
12.826600 1.429700
12.855600 1.490800
12.884600 1.597800
12.913600 1.704500
12.942600 1.650600
12.971600 1.646700
13.000700 1.646600
13.029700 1.632800
13.058700 1.607800
13.087700 1.571000
13.116700 1.522400
13.145700 1.429200
13.174700 1.348100
13.203700 1.269500
13.232700 2.037000
13.261700 1.749900
13.290700 1.593000
13.319700 1.560000
13.348700 1.548800
13.377700 1.542600
13.406700 1.541600
13.435700 1.636600
13.464800 1.721100
13.493800 1.642000
13.522800 1.518500
13.551800 1.476300
13.580800 1.518200
13.609800 1.611900
13.638800 1.706900
13.667800 1.775300
13.696800 1.820400
13.725800 1.808300
13.754800 1.841300
13.783800 1.839500
13.812800 1.796100
13.841800 1.717100
13.870800 1.620900
13.899800 1.585300
13.928900 1.533100
13.957900 1.566700
13.986900 1.624100
14.015900 1.698000
14.044900 1.750700
14.073900 1.792700
14.102900 1.841700
14.131900 1.878200
14.160900 1.879900
14.189900 1.905000
14.218900 1.967300
14.247900 2.017900
14.276900 2.029200
14.305900 2.083000
14.334900 1.941100
14.363900 1.914200
14.393000 1.827700
14.422000 1.663400
14.451000 1.692300
14.480000 1.681400
14.509000 1.664000
14.538000 1.643200
14.567000 1.615700
14.596000 1.574500
14.625000 1.496100
14.654000 1.418100
14.683000 1.368900
14.712000 1.310400
14.741000 1.272500
14.770000 1.256700
14.799000 1.246100
14.828000 1.238200
14.857100 1.236200
14.886100 1.471300
14.915100 1.716700
14.944100 2.017100
14.973100 2.131800
15.002100 1.884000
15.031100 1.931200
15.060100 1.961500
15.089100 1.940300
15.118100 1.861000
15.147100 1.692200
15.176100 1.544200
15.205100 1.464500
15.234100 1.405300
15.263100 1.360000
15.292100 1.322300
15.321200 1.288200
15.350200 1.256900
15.379200 1.228100
15.408200 1.202500
15.437200 1.183200
15.466200 1.171500
15.495200 1.164900
15.524200 1.195700
15.553200 1.245300
15.582200 1.295100
15.611200 1.358900
15.640200 1.455600
15.669200 1.494200
15.698200 1.511900
15.727200 1.541500
15.756200 1.569000
15.785300 1.593400
15.814300 1.615800
15.843300 1.637500
15.872300 1.657500
15.901300 1.665100
15.930300 1.660500
15.959300 1.646600
15.988300 1.624000
16.017300 1.589700
16.046300 1.503400
16.075300 1.331100
16.104300 1.200100
16.133300 1.191700
16.162300 1.188900
16.191300 1.187200
16.220300 1.195100
16.249400 1.310400
16.278400 1.526500
16.307400 1.400300
16.336400 1.426700
16.365400 1.461000
16.394400 1.490700
16.423400 1.523400
16.452400 1.559900
16.481400 1.586300
16.510400 1.576500
16.539400 1.553000
16.568400 1.540900
16.597400 1.531700
16.626400 1.513700
16.655400 1.484500
16.684400 1.462400
16.713500 1.448700
16.742500 1.442700
16.771500 1.437100
16.800500 1.431700
16.829500 1.427900
16.858500 1.430700
16.887500 1.527200
16.916500 1.658200
16.945500 1.783800
16.974500 1.859400
17.003500 1.785900
17.032500 1.832100
17.061500 1.898500
17.090500 1.971900
17.119500 1.983500
17.148500 1.945200
17.177600 1.918000
17.206600 1.925200
17.235600 1.954000
17.264600 1.967000
17.293600 1.955700
17.322600 1.906500
17.351600 1.824100
17.380600 1.769900
17.409600 1.739100
17.438600 1.712100
17.467600 1.688900
17.496600 1.669200
17.525600 1.653200
17.554600 1.638700
17.583600 1.627900
17.612600 1.623600
17.641700 1.622600
17.670700 1.625600
17.699700 1.633100
17.728700 1.651200
17.757700 1.693500
17.786700 1.722400
17.815700 1.747600
17.844700 1.771000
17.873700 1.807000
17.902700 1.856600
17.931700 1.917200
17.960700 1.988100
17.989700 2.020000
18.018700 2.025400
18.047700 1.988900
18.076700 1.894500
18.105800 1.795300
18.134800 1.694400
18.163800 1.603500
18.192800 1.537600
18.221800 1.512100
18.250800 1.491700
18.279800 1.472700
18.308800 1.465800
18.337800 1.468600
18.366800 1.475800
18.395800 1.526000
18.424800 1.623500
18.453800 1.761500
18.482800 1.959000
18.511800 2.217500
18.540800 2.455900
18.569800 2.547700
18.598900 2.413100
18.627900 2.323500
18.656900 2.247900
18.685900 2.301000
18.714900 2.330300
18.743900 2.371800
18.772900 2.441300
18.801900 2.504600
18.830900 2.603100
18.859900 2.542500
18.888900 2.560600
18.917900 2.795200
18.946900 2.726800
18.975900 2.575000
19.004900 2.526400
19.033900 2.539100
19.063000 2.552600
19.092000 2.581200
19.121000 2.675300
19.150000 2.603300
19.179000 2.534000
19.208000 2.490500
19.237000 2.470500
19.266000 2.464900
19.295000 2.423200
19.324000 2.362300
19.353000 2.306200
19.382000 2.268100
19.411000 2.282500
19.440000 2.355700
19.469000 2.478400
19.498000 2.576200
19.527100 2.676000
19.556100 2.629200
19.585100 2.590300
19.614100 2.583500
19.643100 2.432200
19.672100 2.384800
19.701100 2.364000
19.730100 2.359100
19.759100 2.382100
19.788100 2.435600
19.817100 2.480700
19.846100 2.625800
19.875100 2.684700
19.904100 2.688400
19.933100 2.590000
19.962100 2.509500
19.991200 2.448000
20.020200 2.377000
20.049200 2.329600
20.078200 2.303100
20.107200 2.287000
20.136200 2.275000
20.165200 2.263200
20.194200 2.251600
20.223200 2.240300
20.252200 2.229200
20.281200 2.236100
20.310200 2.247400
20.339200 2.279100
20.368200 2.341400
20.397200 2.467800
20.426200 2.658600
20.455300 2.621100
20.484300 2.748600
20.513300 2.872300
20.542300 2.939300
20.571300 2.926500
20.600300 2.893700
20.629300 2.883500
20.658300 2.854200
20.687300 2.745900
20.716300 2.689300
20.745300 2.633700
20.774300 2.586300
20.803300 2.578000
20.832300 2.630500
20.861300 2.708500
20.890300 2.789000
20.919400 2.877300
20.948400 2.890600
20.977400 2.833700
21.006400 2.829400
21.035400 2.841000
21.064400 2.847200
21.093400 2.849300
21.122400 2.858400
21.151400 2.899400
21.180400 2.941100
21.209400 2.999700
21.238400 3.038000
21.267400 3.070800
21.296400 3.087000
21.325400 3.086600
21.354400 3.061500
21.383500 2.991500
21.412500 2.889600
21.441500 2.778200
21.470500 2.694600
21.499500 2.637900
21.528500 2.619100
21.557500 2.665900
21.586500 2.816400
21.615500 2.919900
21.644500 2.976900
21.673500 3.079200
21.702500 3.191100
21.731500 3.317000
21.760500 3.459100
21.789500 3.674600
21.818500 3.837700
21.847600 3.826300
21.876600 3.783100
21.905600 3.746300
21.934600 3.630900
21.963600 3.505100
21.992600 3.505400
22.021600 3.603900
22.050600 3.771000
22.079600 4.000100
22.108600 4.203500
22.137600 4.246800
22.166600 4.132100
22.195600 3.681600
22.224600 3.561300
22.253600 3.551900
22.282600 3.616500
22.311700 3.673600
22.340700 3.696600
22.369700 3.709900
22.398700 3.686100
22.427700 3.634600
22.456700 3.698800
22.485700 3.674400
22.514700 3.618100
22.543700 3.546700
22.572700 3.566100
22.601700 3.506600
22.630700 3.425700
22.659700 3.398000
22.688700 3.354300
22.717700 3.352700
22.746700 3.308700
22.775800 3.226200
22.804800 3.192900
22.833800 3.197900
22.862800 3.213600
22.891800 3.261100
22.920800 3.313500
22.949800 3.268800
22.978800 3.163000
23.007800 3.042100
23.036800 2.924800
23.065800 2.948000
23.094800 2.845300
23.123800 2.788500
23.152800 2.763700
23.181800 2.952300
23.210800 3.188100
23.239900 3.354500
23.268900 3.524700
23.297900 3.406100
23.326900 3.405000
23.355900 3.428000
23.384900 3.492500
23.413900 3.365500
23.442900 3.342300
23.471900 3.426100
23.500900 3.425800
23.529900 3.464200
23.558900 3.521400
23.587900 3.597700
23.616900 3.684500
23.645900 3.578200
23.674900 3.475900
23.704000 3.410200
23.733000 3.269200
23.762000 3.226600
23.791000 3.161100
23.820000 3.153300
23.849000 3.158800
23.878000 3.192000
23.907000 3.313300
23.936000 3.632500
23.965000 3.544800
23.994000 3.504400
24.023000 3.469700
24.052000 3.441100
24.081000 3.405800
24.110000 3.369400
24.139000 3.176900
24.168100 3.014300
24.197100 2.918000
24.226100 2.849500
24.255100 2.781600
24.284100 2.822600
24.313100 2.816400
24.342100 2.839000
24.371100 2.865800
24.400100 2.898800
24.429100 2.896700
24.458100 2.927000
24.487100 3.001000
24.516100 3.155700
24.545100 3.200900
24.574100 3.177800
24.603100 3.012100
24.632200 2.747200
24.661200 2.542800
24.690200 2.493000
24.719200 2.260100
24.748200 2.137100
24.777200 2.040200
24.806200 1.965000
24.835200 1.918900
24.864200 1.877900
24.893200 1.851400
24.922200 1.835400
24.951200 1.833500
24.980200 1.831400
25.009200 1.834800
25.038200 1.839500
25.067200 1.841600
25.096300 1.833400
25.125300 1.824300
25.154300 1.811300
25.183300 1.794600
25.212300 1.774700
25.241300 1.764300
25.270300 1.752300
25.299300 1.734400
25.328300 1.706700
25.357300 1.683000
25.386300 1.671800
25.415300 1.662300
25.444300 1.673600
25.473300 1.690400
25.502300 1.707700
25.531300 1.721500
25.560400 1.744800
25.589400 1.783000
25.618400 1.832800
25.647400 1.812800
25.676400 1.780400
25.705400 1.777200
25.734400 1.810100
25.763400 1.753900
25.792400 1.662100
25.821400 1.530600
25.850400 1.454800
25.879400 1.376500
25.908400 1.301900
25.937400 1.231800
25.966400 1.176100
25.995400 1.161500
26.024500 1.152200
26.053500 1.155700
26.082500 1.176600
26.111500 1.184100
26.140500 1.185200
26.169500 1.187700
26.198500 1.190000
26.227500 1.186600
26.256500 1.176800
26.285500 1.161000
26.314500 1.173400
26.343500 1.170300
26.372500 1.154000
26.401500 1.122100
26.430500 1.068100
26.459500 0.996600
26.488600 0.985500
26.517600 1.074400
26.546600 0.820000
26.575600 0.703500
26.604600 0.623200
26.633600 0.575300
26.662600 0.545700
26.691600 0.520300
26.720600 0.534000
26.749600 0.551600
26.778600 0.588000
26.807600 0.651300
26.836600 0.537400
26.865600 0.306800
26.894600 0.222900
26.923600 0.183800
26.952600 0.167400
26.981700 0.157700
27.010700 0.148900
27.039700 0.141000
27.068700 0.133500
27.097700 0.125900
27.126700 0.118000
27.155700 0.109500
27.184700 0.101400
27.213700 0.093400
27.242700 0.085300
27.271700 0.077200
27.300700 0.069100
27.329700 0.060900
27.358700 0.052800
27.387700 0.044800
27.416700 0.038000
27.445800 0.032200
27.474800 0.027500
27.503800 0.023200
27.532800 0.019100
27.561800 0.015300
27.590800 0.011700
27.619800 0.008800
27.648800 0.006400
27.677800 0.004400
27.706800 0.002900
27.735800 0.001600
27.764800 0.000700
27.793800 0.000200
27.822800 0.000000
27.851800 0.000000
27.880800 0.000000
27.909900 0.000000
27.938900 0.000000
27.967900 0.000000
27.996900 0.000000
28.025900 0.000000
28.054900 0.000000
28.083900 0.000000
28.112900 0.000000
28.141900 0.000000
28.170900 0.000000
28.199900 0.000000
28.228900 0.000000
28.257900 0.000000
28.286900 0.000000
28.315900 0.000000
28.344900 0.000000
28.374000 0.000000
28.403000 0.000000
28.432000 0.000000
28.461000 0.000000
28.490000 0.000000
28.519000 0.000000
28.548000 0.000000
28.577000 0.000000
28.606000 0.000000
28.635000 0.000000
28.664000 0.000000
28.693000 0.000000
28.722000 0.000000
28.751000 0.000000
28.780000 0.000000
28.809000 0.000000
28.838100 0.000000
28.867100 0.000000
28.896100 0.000000
28.925100 0.000000
28.954100 0.000000
28.983100 0.000000
29.012100 0.000000
29.041100 0.000000
29.070100 0.000000
29.099100 0.000000
29.128100 0.000000
29.157100 0.000000
29.186100 0.000000
29.215100 0.000000
29.244100 0.000000
29.273100 0.000000
29.302200 0.000000
29.331200 0.000000
29.360200 0.000000
29.389200 0.000000
29.418200 0.000000
29.447200 0.000000
29.476200 0.000000
29.505200 0.000000
29.534200 0.000000
29.563200 0.000000
29.592200 0.000000
29.621200 0.000000
29.650200 0.000000
29.679200 0.000000
29.708200 0.000000
29.737200 0.000000
29.766300 0.000000
29.795300 0.000000
29.824300 0.000000
29.853300 0.000000
29.882300 0.000000
29.911300 0.000000
29.940300 0.000000
29.969300 0.000000
29.998300 0.000000
30.027300 0.000000
30.056300 0.000000
30.085300 0.000000
30.114300 0.000000
30.143300 0.000000
30.172300 0.000000
30.201300 0.000000
30.230400 0.000000
30.259400 0.000000
30.288400 0.000000
30.317400 0.000000
30.346400 0.000000
30.375400 0.000000
30.404400 0.000000
30.433400 0.000000
30.462400 0.000000
e
