set title 'mp-1226221 - Density of States'
set xlabel 'Energy (eV)'
set ylabel 'DOS (states/eV)'
set grid
set xrange [-10:10]
set yrange [0:3.099]
set xzeroaxis lt -1
set terminal png size 800,600
set output 'mp-1226221_dos_gnuplot.png'
plot '-' using 1:2 with lines title 'DOS'
-43.497000 0.000000
-43.444800 0.000000
-43.392600 0.000000
-43.340400 0.000000
-43.288300 0.000000
-43.236100 0.000000
-43.183900 0.000000
-43.131700 0.000000
-43.079600 0.000000
-43.027400 0.000000
-42.975200 0.000000
-42.923000 0.000000
-42.870900 0.000000
-42.818700 0.000000
-42.766500 0.000000
-42.714300 0.000000
-42.662200 0.000000
-42.610000 0.000000
-42.557800 0.000000
-42.505600 0.000000
-42.453500 0.000000
-42.401300 0.000000
-42.349100 0.000000
-42.296900 0.000000
-42.244800 0.000000
-42.192600 0.000000
-42.140400 0.000000
-42.088200 0.000000
-42.036100 0.000000
-41.983900 0.000000
-41.931700 0.000000
-41.879500 0.000000
-41.827400 0.000000
-41.775200 0.000000
-41.723000 0.000000
-41.670800 0.000000
-41.618700 0.000000
-41.566500 0.000000
-41.514300 0.000000
-41.462100 0.000000
-41.410000 0.000000
-41.357800 0.000000
-41.305600 0.000000
-41.253400 0.000000
-41.201300 0.000000
-41.149100 0.000000
-41.096900 0.000000
-41.044700 0.000000
-40.992600 0.000000
-40.940400 0.000000
-40.888200 0.000000
-40.836000 0.000000
-40.783900 0.000000
-40.731700 0.000000
-40.679500 0.000000
-40.627300 0.000000
-40.575200 0.000000
-40.523000 0.000000
-40.470800 0.000000
-40.418600 0.000000
-40.366500 0.000000
-40.314300 0.000000
-40.262100 0.000000
-40.209900 0.000000
-40.157800 0.000000
-40.105600 0.000000
-40.053400 0.000000
-40.001200 0.000000
-39.949100 0.000000
-39.896900 0.000000
-39.844700 0.000000
-39.792500 0.000000
-39.740400 0.000000
-39.688200 0.000000
-39.636000 0.000000
-39.583800 0.000000
-39.531700 0.000000
-39.479500 0.000000
-39.427300 0.000000
-39.375100 0.000000
-39.323000 0.000000
-39.270800 0.000000
-39.218600 0.000000
-39.166400 0.000000
-39.114300 0.000000
-39.062100 0.000000
-39.009900 0.000000
-38.957700 0.000000
-38.905600 0.000000
-38.853400 0.000000
-38.801200 0.000000
-38.749000 12.219100
-38.696900 36.621000
-38.644700 28.812500
-38.592500 0.000000
-38.540300 0.000000
-38.488200 0.000000
-38.436000 0.000000
-38.383800 0.000000
-38.331600 0.000000
-38.279500 0.000000
-38.227300 0.000000
-38.175100 0.000000
-38.122900 0.000000
-38.070800 0.000000
-38.018600 0.000000
-37.966400 0.000000
-37.914200 0.000000
-37.862100 0.000000
-37.809900 0.000000
-37.757700 0.000000
-37.705500 0.000000
-37.653400 0.000000
-37.601200 0.000000
-37.549000 0.000000
-37.496800 0.000000
-37.444700 0.000000
-37.392500 0.000000
-37.340300 0.000000
-37.288100 0.000000
-37.236000 0.000000
-37.183800 0.000000
-37.131600 0.000000
-37.079400 0.000000
-37.027300 0.000000
-36.975100 0.000000
-36.922900 0.000000
-36.870700 0.000000
-36.818600 0.000000
-36.766400 0.000000
-36.714200 0.000000
-36.662000 0.000000
-36.609900 0.000000
-36.557700 0.000000
-36.505500 0.000000
-36.453300 0.000000
-36.401200 0.000000
-36.349000 0.000000
-36.296800 0.000000
-36.244600 0.000000
-36.192500 0.000000
-36.140300 0.000000
-36.088100 0.000000
-36.035900 0.000000
-35.983800 0.000000
-35.931600 0.000000
-35.879400 0.000000
-35.827200 0.000000
-35.775100 0.000000
-35.722900 0.000000
-35.670700 0.000000
-35.618500 0.000000
-35.566400 0.000000
-35.514200 0.000000
-35.462000 0.000000
-35.409800 0.000000
-35.357700 0.000000
-35.305500 0.000000
-35.253300 0.000000
-35.201100 0.000000
-35.149000 0.000000
-35.096800 0.000000
-35.044600 0.000000
-34.992400 0.000000
-34.940300 0.000000
-34.888100 0.000000
-34.835900 0.000000
-34.783700 0.000000
-34.731600 0.000000
-34.679400 0.000000
-34.627200 0.000000
-34.575000 0.000000
-34.522900 0.000000
-34.470700 0.000000
-34.418500 0.000000
-34.366300 0.000000
-34.314200 0.000000
-34.262000 0.000000
-34.209800 0.000000
-34.157600 0.000000
-34.105500 0.000000
-34.053300 0.000000
-34.001100 0.000000
-33.948900 0.000000
-33.896800 0.000000
-33.844600 0.000000
-33.792400 0.000000
-33.740200 0.000000
-33.688100 0.000000
-33.635900 0.000000
-33.583700 0.000000
-33.531500 0.000000
-33.479400 0.000000
-33.427200 0.000000
-33.375000 0.000000
-33.322800 0.000000
-33.270700 0.000000
-33.218500 0.000000
-33.166300 0.000000
-33.114100 0.000000
-33.062000 0.000000
-33.009800 0.000000
-32.957600 0.000000
-32.905400 0.000000
-32.853300 0.000000
-32.801100 0.000000
-32.748900 0.000000
-32.696700 0.000000
-32.644600 0.000000
-32.592400 0.000000
-32.540200 0.000000
-32.488000 0.000000
-32.435900 0.000000
-32.383700 0.000000
-32.331500 0.000000
-32.279300 0.000000
-32.227200 0.000000
-32.175000 0.000000
-32.122800 0.000000
-32.070600 0.000000
-32.018500 0.000000
-31.966300 0.000000
-31.914100 0.000000
-31.861900 0.000000
-31.809800 0.000000
-31.757600 0.000000
-31.705400 0.000000
-31.653200 0.000000
-31.601100 0.000000
-31.548900 0.000000
-31.496700 0.000000
-31.444500 0.000000
-31.392400 0.000000
-31.340200 0.000000
-31.288000 0.000000
-31.235800 0.000000
-31.183700 0.000000
-31.131500 0.000000
-31.079300 0.000000
-31.027100 0.000000
-30.975000 0.000000
-30.922800 0.000000
-30.870600 0.000000
-30.818400 0.000000
-30.766300 0.000000
-30.714100 0.000000
-30.661900 0.000000
-30.609700 0.000000
-30.557500 0.000000
-30.505400 0.000000
-30.453200 0.000000
-30.401000 0.000000
-30.348800 0.000000
-30.296700 0.000000
-30.244500 0.000000
-30.192300 0.000000
-30.140100 0.000000
-30.088000 0.000000
-30.035800 0.000000
-29.983600 0.000000
-29.931400 0.000000
-29.879300 0.000000
-29.827100 0.000000
-29.774900 0.000000
-29.722700 0.000000
-29.670600 0.000000
-29.618400 0.000000
-29.566200 0.000000
-29.514000 0.000000
-29.461900 0.000000
-29.409700 0.000000
-29.357500 0.000000
-29.305300 0.000000
-29.253200 0.000000
-29.201000 0.000000
-29.148800 0.000000
-29.096600 0.000000
-29.044500 0.000000
-28.992300 0.000000
-28.940100 0.000000
-28.887900 0.000000
-28.835800 0.000000
-28.783600 0.000000
-28.731400 0.000000
-28.679200 0.000000
-28.627100 0.000000
-28.574900 0.000000
-28.522700 0.000000
-28.470500 0.000000
-28.418400 0.000000
-28.366200 0.000000
-28.314000 0.000000
-28.261800 0.000000
-28.209700 0.000000
-28.157500 0.000000
-28.105300 0.000000
-28.053100 0.000000
-28.001000 0.000000
-27.948800 0.000000
-27.896600 0.000000
-27.844400 0.000000
-27.792300 0.000000
-27.740100 0.000000
-27.687900 0.000000
-27.635700 0.000000
-27.583600 0.000000
-27.531400 0.000000
-27.479200 0.000000
-27.427000 0.000000
-27.374900 0.000000
-27.322700 0.000000
-27.270500 0.000000
-27.218300 0.000000
-27.166200 0.000000
-27.114000 0.000000
-27.061800 0.000000
-27.009600 0.000000
-26.957500 0.000000
-26.905300 0.000000
-26.853100 0.000000
-26.800900 0.000000
-26.748800 0.000000
-26.696600 0.000000
-26.644400 0.000000
-26.592200 0.000000
-26.540100 0.000000
-26.487900 0.000000
-26.435700 0.000000
-26.383500 0.000000
-26.331400 0.000000
-26.279200 0.000000
-26.227000 0.000000
-26.174800 0.000000
-26.122700 0.000000
-26.070500 0.000000
-26.018300 0.000000
-25.966100 0.000000
-25.914000 0.000000
-25.861800 0.000000
-25.809600 0.000000
-25.757400 0.000000
-25.705300 0.000000
-25.653100 0.000000
-25.600900 0.000000
-25.548700 0.000000
-25.496600 0.000000
-25.444400 0.000000
-25.392200 0.000000
-25.340000 0.000000
-25.287900 0.000000
-25.235700 0.000000
-25.183500 0.000000
-25.131300 0.000000
-25.079200 0.000000
-25.027000 0.000000
-24.974800 0.000000
-24.922600 0.000000
-24.870500 0.000000
-24.818300 0.000000
-24.766100 0.000000
-24.713900 0.000000
-24.661800 0.000000
-24.609600 0.000000
-24.557400 0.000000
-24.505200 0.000000
-24.453100 0.000000
-24.400900 0.000000
-24.348700 0.000000
-24.296500 0.000000
-24.244400 0.000000
-24.192200 0.000000
-24.140000 0.000000
-24.087800 0.000000
-24.035700 0.000000
-23.983500 0.000000
-23.931300 0.000000
-23.879100 0.000000
-23.827000 0.000000
-23.774800 0.000000
-23.722600 0.000000
-23.670400 0.000000
-23.618300 0.000000
-23.566100 0.000000
-23.513900 0.000000
-23.461700 0.000000
-23.409600 0.000000
-23.357400 0.000000
-23.305200 0.000000
-23.253000 0.000000
-23.200900 0.000000
-23.148700 0.000000
-23.096500 0.000000
-23.044300 0.000000
-22.992200 0.000000
-22.940000 0.000000
-22.887800 0.000000
-22.835600 0.000000
-22.783500 0.000000
-22.731300 0.000000
-22.679100 0.000000
-22.626900 0.000000
-22.574800 0.000000
-22.522600 0.000000
-22.470400 0.000000
-22.418200 0.000000
-22.366100 0.000000
-22.313900 0.000000
-22.261700 0.000000
-22.209500 0.000000
-22.157400 0.000000
-22.105200 0.000000
-22.053000 0.000000
-22.000800 0.000000
-21.948700 0.000000
-21.896500 0.000000
-21.844300 0.000000
-21.792100 0.000000
-21.740000 0.000000
-21.687800 0.000000
-21.635600 0.000000
-21.583400 0.000000
-21.531300 0.000000
-21.479100 0.000000
-21.426900 0.000000
-21.374700 0.000000
-21.322600 0.000000
-21.270400 0.000000
-21.218200 0.000000
-21.166000 0.000000
-21.113900 0.000000
-21.061700 0.000000
-21.009500 0.000000
-20.957300 0.000000
-20.905200 0.000000
-20.853000 0.000000
-20.800800 0.000000
-20.748600 0.000000
-20.696500 0.000000
-20.644300 0.000000
-20.592100 0.000000
-20.539900 0.000000
-20.487800 0.000000
-20.435600 0.000000
-20.383400 0.000000
-20.331200 0.000000
-20.279100 0.000000
-20.226900 0.000000
-20.174700 0.000000
-20.122500 0.000000
-20.070400 0.000000
-20.018200 0.000000
-19.966000 0.000000
-19.913800 0.000000
-19.861700 0.000000
-19.809500 0.000000
-19.757300 0.000000
-19.705100 0.000000
-19.653000 0.000000
-19.600800 0.000000
-19.548600 0.000000
-19.496400 0.000000
-19.444300 0.000000
-19.392100 0.000000
-19.339900 0.000000
-19.287700 0.000000
-19.235600 0.000000
-19.183400 0.000000
-19.131200 0.000000
-19.079000 0.000000
-19.026900 0.000000
-18.974700 0.000000
-18.922500 0.000000
-18.870300 0.000000
-18.818200 0.000000
-18.766000 0.000000
-18.713800 0.000000
-18.661600 0.000000
-18.609500 0.000000
-18.557300 0.000000
-18.505100 0.000000
-18.452900 0.000000
-18.400800 0.000000
-18.348600 0.000000
-18.296400 0.000000
-18.244200 0.000000
-18.192100 0.000000
-18.139900 0.000000
-18.087700 0.000000
-18.035500 0.000000
-17.983400 0.000000
-17.931200 0.000000
-17.879000 0.000000
-17.826800 0.000000
-17.774700 0.000000
-17.722500 0.000000
-17.670300 0.000000
-17.618100 0.000000
-17.566000 0.000000
-17.513800 0.000000
-17.461600 0.000000
-17.409400 0.000000
-17.357300 0.000000
-17.305100 0.000000
-17.252900 0.000000
-17.200700 0.000000
-17.148600 0.000000
-17.096400 0.000000
-17.044200 0.000000
-16.992000 0.000000
-16.939900 0.000000
-16.887700 0.000000
-16.835500 0.000000
-16.783300 0.000000
-16.731200 0.000000
-16.679000 0.000000
-16.626800 0.000000
-16.574600 0.000000
-16.522500 0.000000
-16.470300 0.000000
-16.418100 0.000000
-16.365900 0.000000
-16.313800 0.000000
-16.261600 0.000000
-16.209400 0.000000
-16.157200 0.000000
-16.105100 0.000000
-16.052900 0.000000
-16.000700 0.000000
-15.948500 0.000000
-15.896400 0.000000
-15.844200 0.000000
-15.792000 0.000000
-15.739800 0.000000
-15.687700 0.000000
-15.635500 0.000000
-15.583300 0.000000
-15.531100 0.000000
-15.479000 0.000000
-15.426800 0.000000
-15.374600 0.000000
-15.322400 0.000000
-15.270300 0.000000
-15.218100 0.000000
-15.165900 0.000000
-15.113700 0.000000
-15.061600 0.000000
-15.009400 0.000000
-14.957200 0.000000
-14.905000 0.000000
-14.852900 0.000000
-14.800700 0.000000
-14.748500 0.000000
-14.696300 0.000000
-14.644200 0.000000
-14.592000 0.000000
-14.539800 0.000000
-14.487600 0.000000
-14.435500 0.000000
-14.383300 0.000000
-14.331100 0.000000
-14.278900 0.000000
-14.226800 0.000000
-14.174600 0.000000
-14.122400 0.000000
-14.070200 0.000000
-14.018100 0.000000
-13.965900 0.000000
-13.913700 0.000000
-13.861500 0.000000
-13.809400 0.000000
-13.757200 0.000000
-13.705000 0.000000
-13.652800 0.000000
-13.600700 0.000000
-13.548500 0.000000
-13.496300 0.000000
-13.444100 0.000000
-13.392000 0.000000
-13.339800 0.000000
-13.287600 0.000000
-13.235400 0.000000
-13.183300 0.000000
-13.131100 0.000000
-13.078900 0.000000
-13.026700 0.000000
-12.974600 0.000000
-12.922400 0.000000
-12.870200 0.000000
-12.818000 0.000000
-12.765900 0.000000
-12.713700 0.000000
-12.661500 0.000000
-12.609300 0.000000
-12.557200 0.000000
-12.505000 0.000000
-12.452800 0.000000
-12.400600 0.000000
-12.348500 0.000000
-12.296300 0.000000
-12.244100 0.000000
-12.191900 0.000000
-12.139800 0.000000
-12.087600 0.000000
-12.035400 0.000000
-11.983200 0.000000
-11.931100 0.000000
-11.878900 0.000000
-11.826700 0.000000
-11.774500 0.000000
-11.722400 0.000000
-11.670200 0.000000
-11.618000 0.000000
-11.565800 0.000000
-11.513700 0.000000
-11.461500 0.000000
-11.409300 0.000000
-11.357100 0.000000
-11.305000 0.000000
-11.252800 0.000000
-11.200600 0.000000
-11.148400 0.000000
-11.096300 0.000000
-11.044100 0.000000
-10.991900 0.000000
-10.939700 0.000000
-10.887600 0.000000
-10.835400 0.000000
-10.783200 0.000000
-10.731000 0.000000
-10.678900 0.000000
-10.626700 0.000000
-10.574500 0.000000
-10.522300 0.000000
-10.470200 0.000000
-10.418000 0.000000
-10.365800 0.000000
-10.313600 0.000000
-10.261500 0.000000
-10.209300 0.000000
-10.157100 0.000000
-10.104900 0.000000
-10.052800 0.000000
-10.000600 0.000000
-9.948400 0.000000
-9.896200 0.000000
-9.844100 0.000000
-9.791900 0.000000
-9.739700 0.000000
-9.687500 0.000000
-9.635400 0.000000
-9.583200 0.000000
-9.531000 0.000000
-9.478800 0.000000
-9.426700 0.000000
-9.374500 0.000000
-9.322300 0.000000
-9.270100 0.000000
-9.218000 0.000000
-9.165800 0.000000
-9.113600 0.000000
-9.061400 0.000000
-9.009300 0.000000
-8.957100 0.000000
-8.904900 0.000000
-8.852700 0.000000
-8.800600 0.000000
-8.748400 0.000000
-8.696200 0.000000
-8.644000 0.000000
-8.591900 0.000000
-8.539700 0.000000
-8.487500 0.000000
-8.435300 0.000000
-8.383200 0.000000
-8.331000 0.000000
-8.278800 0.000000
-8.226600 0.000000
-8.174500 0.000000
-8.122300 0.000000
-8.070100 0.000000
-8.017900 0.000000
-7.965800 0.000000
-7.913600 0.000000
-7.861400 0.000000
-7.809200 0.000000
-7.757100 0.000000
-7.704900 0.000000
-7.652700 0.000000
-7.600500 0.000000
-7.548400 0.000000
-7.496200 0.000000
-7.444000 0.000000
-7.391800 0.000000
-7.339700 0.000000
-7.287500 0.000000
-7.235300 0.000000
-7.183100 0.000000
-7.131000 0.000000
-7.078800 0.000000
-7.026600 0.000000
-6.974400 0.000000
-6.922300 0.000000
-6.870100 0.000000
-6.817900 0.000000
-6.765700 0.000000
-6.713600 0.000000
-6.661400 0.000000
-6.609200 0.000000
-6.557000 0.000000
-6.504900 0.000000
-6.452700 0.000000
-6.400500 0.000000
-6.348300 0.000000
-6.296200 0.000000
-6.244000 0.000000
-6.191800 0.000000
-6.139600 0.000000
-6.087500 0.000000
-6.035300 0.000000
-5.983100 0.000000
-5.930900 0.000000
-5.878800 0.000000
-5.826600 0.000000
-5.774400 0.000000
-5.722200 0.000000
-5.670100 0.000000
-5.617900 0.000000
-5.565700 0.000000
-5.513500 0.000000
-5.461400 0.000000
-5.409200 0.000000
-5.357000 0.000000
-5.304800 0.000000
-5.252700 0.000000
-5.200500 0.000000
-5.148300 0.000000
-5.096100 0.000000
-5.044000 0.000000
-4.991800 0.000000
-4.939600 0.000000
-4.887400 0.000000
-4.835300 0.000000
-4.783100 0.000000
-4.730900 0.000000
-4.678700 0.000000
-4.626600 0.000000
-4.574400 0.000000
-4.522200 0.000000
-4.470000 0.000000
-4.417900 0.000000
-4.365700 0.000000
-4.313500 0.000000
-4.261300 0.000000
-4.209200 0.000000
-4.157000 0.000000
-4.104800 0.000000
-4.052600 0.000000
-4.000500 0.000000
-3.948300 0.000000
-3.896100 0.000000
-3.843900 0.000000
-3.791800 0.000000
-3.739600 0.000000
-3.687400 0.000000
-3.635200 0.004200
-3.583100 0.018500
-3.530900 0.030300
-3.478700 0.034600
-3.426500 0.039600
-3.374400 0.045800
-3.322200 0.051600
-3.270000 0.057300
-3.217800 0.061500
-3.165700 0.065100
-3.113500 0.068800
-3.061300 0.073100
-3.009100 0.077600
-2.957000 0.082300
-2.904800 0.087200
-2.852600 0.092400
-2.800400 0.097200
-2.748300 0.101800
-2.696100 0.106800
-2.643900 0.112900
-2.591700 0.119900
-2.539600 0.128400
-2.487400 0.140800
-2.435200 0.146400
-2.383000 0.143700
-2.330900 0.147300
-2.278700 0.150800
-2.226500 0.153800
-2.174300 0.156300
-2.122200 0.158200
-2.070000 0.160800
-2.017800 0.164800
-1.965600 0.169500
-1.913500 0.174600
-1.861300 0.180200
-1.809100 0.186500
-1.756900 0.193200
-1.704800 0.200200
-1.652600 0.208400
-1.600400 0.217800
-1.548200 0.232800
-1.496100 0.259200
-1.443900 0.304900
-1.391700 0.584200
-1.339500 0.726100
-1.287400 0.698000
-1.235200 0.740700
-1.183000 0.838600
-1.130800 1.007900
-1.078700 0.973900
-1.026500 0.767600
-0.974300 0.810800
-0.922100 0.970700
-0.870000 1.072800
-0.817800 1.197600
-0.765600 1.334900
-0.713400 1.628600
-0.661300 1.481500
-0.609100 1.523900
-0.556900 1.641500
-0.504700 1.898700
-0.452600 2.277100
-0.400400 2.587600
-0.348200 2.230000
-0.296000 1.859500
-0.243900 1.417200
-0.191700 1.066200
-0.139500 0.431300
-0.087300 0.597600
-0.035200 1.725000
0.017000 1.933000
0.069200 2.077200
0.121400 2.086700
0.173500 2.493800
0.225700 2.817000
0.277900 2.246500
0.330100 2.566100
0.382200 2.285000
0.434400 2.434000
0.486600 2.578800
0.538800 1.968000
0.590900 1.610900
0.643100 1.519200
0.695300 1.737800
0.747500 1.955600
0.799600 1.870400
0.851800 1.564700
0.904000 1.577600
0.956200 1.547800
1.008300 1.635100
1.060500 2.031300
1.112700 2.455600
1.164900 1.957200
1.217000 1.643100
1.269200 1.311500
1.321400 1.112600
1.373600 1.698100
1.425700 0.976100
1.477900 0.969900
1.530100 1.161400
1.582300 0.988600
1.634400 0.842600
1.686600 0.606900
1.738800 0.673000
1.791000 0.571500
1.843100 0.560400
1.895300 0.538200
1.947500 0.529800
1.999700 0.531200
2.051800 0.526000
2.104000 0.522000
2.156200 0.520800
2.208400 0.513300
2.260500 0.520000
2.312700 0.531900
2.364900 0.546400
2.417100 0.570200
2.469200 0.597700
2.521400 0.686600
2.573600 0.788400
2.625800 0.928400
2.677900 1.010400
2.730100 0.967900
2.782300 0.975700
2.834500 0.997100
2.886600 0.996500
2.938800 1.026100
2.991000 1.032100
3.043200 1.064000
3.095300 1.129200
3.147500 1.213500
3.199700 1.338500
3.251900 1.503600
3.304000 1.568800
3.356200 1.577300
3.408400 1.745100
3.460600 1.718700
3.512700 1.601000
3.564900 1.529700
3.617100 1.577800
3.669300 2.441100
3.721400 2.601500
3.773600 2.659700
3.825800 2.544500
3.878000 1.667600
3.930100 1.257300
3.982300 1.485600
4.034500 1.879000
4.086700 2.192200
4.138800 2.550900
4.191000 1.878500
4.243200 1.871100
4.295400 1.812100
4.347500 1.935300
4.399700 2.370400
4.451900 2.248300
4.504100 1.985500
4.556200 1.972700
4.608400 1.957200
4.660600 2.263900
4.712800 2.584100
4.764900 2.250900
4.817100 2.327900
4.869300 2.163600
4.921500 2.001600
4.973600 1.911100
5.025800 1.800100
5.078000 1.753000
5.130200 1.747300
5.182300 1.725200
5.234500 1.794100
5.286700 2.016400
5.338900 1.560800
5.391000 1.031000
5.443200 0.935700
5.495400 0.859900
5.547600 0.828400
5.599700 0.878500
5.651900 0.812000
5.704100 0.708900
5.756300 0.631100
5.808400 0.579100
5.860600 0.550500
5.912800 0.530400
5.965000 0.509400
6.017100 0.488300
6.069300 0.471500
6.121500 0.471900
6.173700 0.455200
6.225800 0.391800
6.278000 0.371900
6.330200 0.360400
6.382400 0.354200
6.434500 0.349600
6.486700 0.345800
6.538900 0.342700
6.591100 0.340100
6.643200 0.337500
6.695400 0.334000
6.747600 0.330000
6.799800 0.329600
6.851900 0.329700
6.904100 0.323800
6.956300 0.315300
7.008500 0.308200
7.060600 0.299100
7.112800 0.295400
7.165000 0.293800
7.217200 0.295000
7.269300 0.299700
7.321500 0.305400
7.373700 0.308900
7.425900 0.310500
7.478000 0.310300
7.530200 0.303800
7.582400 0.293700
7.634600 0.292200
7.686700 0.292600
7.738900 0.284400
7.791100 0.317400
7.843300 0.280000
7.895400 0.267400
7.947600 0.260100
7.999800 0.255300
8.052000 0.247200
8.104100 0.249400
8.156300 0.252200
8.208500 0.254600
8.260700 0.254900
8.312800 0.255200
8.365000 0.254800
8.417200 0.255800
8.469400 0.259300
8.521500 0.263400
8.573700 0.272600
8.625900 0.278100
8.678100 0.277400
8.730200 0.270700
8.782400 0.260400
8.834600 0.245700
8.886800 0.248800
8.938900 0.271500
8.991100 0.301000
9.043300 0.304800
9.095500 0.328400
9.147600 0.365200
9.199800 0.380800
9.252000 0.366700
9.304200 0.363700
9.356300 0.375100
9.408500 0.377200
9.460700 0.355600
9.512900 0.351900
9.565000 0.337000
9.617200 0.331600
9.669400 0.331600
9.721600 0.330400
9.773700 0.325800
9.825900 0.319100
9.878100 0.310600
9.930300 0.301400
9.982400 0.291200
10.034600 0.281000
10.086800 0.257900
10.139000 0.252100
10.191100 0.246600
10.243300 0.239700
10.295500 0.229800
10.347700 0.221000
10.399800 0.216400
10.452000 0.220900
10.504200 0.226000
10.556400 0.232300
10.608500 0.240500
10.660700 0.245100
10.712900 0.248600
10.765100 0.250000
10.817200 0.251900
10.869400 0.307200
10.921600 0.331900
10.973800 0.333400
11.025900 0.318300
11.078100 0.326800
11.130300 0.338000
11.182500 0.350800
11.234600 0.358600
11.286800 0.363100
11.339000 0.371800
11.391200 0.377200
11.443300 0.380100
11.495500 0.383200
11.547700 0.373600
11.599900 0.365400
11.652000 0.349800
11.704200 0.337200
11.756400 0.317200
11.808600 0.298300
11.860700 0.279400
11.912900 0.259300
11.965100 0.243600
12.017300 0.232500
12.069400 0.225300
12.121600 0.222100
12.173800 0.220600
12.226000 0.221600
12.278100 0.225400
12.330300 0.232200
12.382500 0.239900
12.434700 0.253800
12.486800 0.269300
12.539000 0.303400
12.591200 0.338700
12.643400 0.372100
12.695500 0.391900
12.747700 0.387600
12.799900 0.381100
12.852100 0.403100
12.904200 0.418600
12.956400 0.406900
13.008600 0.400300
13.060800 0.409900
13.112900 0.443100
13.165100 0.467100
13.217300 0.503000
13.269500 0.509900
13.321600 0.496500
13.373800 0.481000
13.426000 0.463700
13.478200 0.447900
13.530300 0.438000
13.582500 0.433100
13.634700 0.431900
13.686900 0.432000
13.739000 0.436300
13.791200 0.442200
13.843400 0.442900
13.895600 0.442700
13.947700 0.442700
13.999900 0.442600
14.052100 0.440000
14.104300 0.434700
14.156400 0.428300
14.208600 0.423300
14.260800 0.420200
14.313000 0.417400
14.365100 0.415600
14.417300 0.414200
14.469500 0.412200
14.521700 0.426800
14.573800 0.441800
14.626000 0.459500
14.678200 0.474900
14.730400 0.488500
14.782500 0.495100
14.834700 0.499500
14.886900 0.502100
14.939100 0.501200
14.991200 0.497600
15.043400 0.492400
15.095600 0.489400
15.147800 0.485300
15.199900 0.479700
15.252100 0.478000
15.304300 0.480600
15.356500 0.484300
15.408600 0.488100
15.460800 0.490900
15.513000 0.498700
15.565200 0.499300
15.617300 0.498400
15.669500 0.496200
15.721700 0.495600
15.773900 0.495600
15.826000 0.496900
15.878200 0.498000
15.930400 0.498900
15.982600 0.500600
16.034700 0.501500
16.086900 0.498900
16.139100 0.494600
16.191300 0.493300
16.243400 0.494900
16.295600 0.497100
16.347800 0.499200
16.400000 0.501100
16.452100 0.502600
16.504300 0.505700
16.556500 0.508700
16.608700 0.510300
16.660800 0.510500
16.713000 0.513200
16.765200 0.517500
16.817400 0.517300
16.869500 0.514100
16.921700 0.514400
16.973900 0.513300
17.026100 0.512200
17.078200 0.514600
17.130400 0.521300
17.182600 0.530600
17.234800 0.539000
17.286900 0.545900
17.339100 0.550700
17.391300 0.553200
17.443500 0.549400
17.495600 0.543200
17.547800 0.541200
17.600000 0.538300
17.652200 0.533100
17.704300 0.527900
17.756500 0.519100
17.808700 0.514600
17.860900 0.510700
17.913000 0.506600
17.965200 0.502500
18.017400 0.497500
18.069600 0.492000
18.121700 0.486100
18.173900 0.480700
18.226100 0.476100
18.278300 0.472100
18.330400 0.472900
18.382600 0.475500
18.434800 0.475400
18.487000 0.473300
18.539100 0.466300
18.591300 0.453900
18.643500 0.435500
18.695700 0.427700
18.747800 0.439200
18.800000 0.456400
18.852200 0.470100
18.904400 0.477900
18.956500 0.477400
19.008700 0.470700
19.060900 0.472500
19.113100 0.469700
19.165200 0.470800
19.217400 0.478800
19.269600 0.487100
19.321800 0.492000
19.373900 0.496500
19.426100 0.501100
19.478300 0.535300
19.530500 0.516300
19.582600 0.525600
19.634800 0.506600
19.687000 0.497300
19.739200 0.496400
19.791300 0.494500
19.843500 0.493300
19.895700 0.495500
19.947900 0.500600
20.000000 0.507700
20.052200 0.512900
20.104400 0.518000
20.156600 0.528400
20.208700 0.531800
20.260900 0.534600
20.313100 0.537800
20.365300 0.539800
20.417400 0.547400
20.469600 0.555500
20.521800 0.558500
20.574000 0.565500
20.626100 0.575300
20.678300 0.600900
20.730500 0.591600
20.782700 0.598500
20.834800 0.555800
20.887000 0.544100
20.939200 0.532300
20.991400 0.525800
21.043500 0.536700
21.095700 0.542600
21.147900 0.540100
21.200100 0.526900
21.252200 0.507600
21.304400 0.473800
21.356600 0.465800
21.408800 0.462800
21.460900 0.463300
21.513100 0.470100
21.565300 0.490900
21.617500 0.508900
21.669600 0.519000
21.721800 0.541600
21.774000 0.602000
21.826200 0.676800
21.878300 0.725500
21.930500 0.786500
21.982700 0.840400
22.034900 0.847200
22.087000 0.801000
22.139200 0.694300
22.191400 0.620000
22.243600 0.595400
22.295700 0.590400
22.347900 0.551700
22.400100 0.553100
22.452300 0.560700
22.504400 0.561900
22.556600 0.578200
22.608800 0.591000
22.661000 0.582600
22.713100 0.617200
22.765300 0.618600
22.817500 0.647400
22.869700 0.619600
22.921800 0.617300
22.974000 0.628600
23.026200 0.640900
23.078400 0.647500
23.130500 0.628900
23.182700 0.631000
23.234900 0.632900
23.287100 0.637400
23.339200 0.635000
23.391400 0.635700
23.443600 0.681400
23.495800 0.708600
23.547900 0.716900
23.600100 0.719800
23.652300 0.733300
23.704500 0.730600
23.756600 0.707700
23.808800 0.721500
23.861000 0.780700
23.913200 0.794200
23.965300 0.783400
24.017500 0.744800
24.069700 0.706200
24.121900 0.695500
24.174000 0.694000
24.226200 0.679200
24.278400 0.662600
24.330600 0.650100
24.382700 0.646600
24.434900 0.641800
24.487100 0.638200
24.539300 0.632300
24.591400 0.642200
24.643600 0.608400
24.695800 0.598800
24.748000 0.595800
24.800100 0.594000
24.852300 0.582900
24.904500 0.573900
24.956700 0.568300
25.008800 0.557900
25.061000 0.549600
25.113200 0.540900
25.165400 0.531700
25.217500 0.527700
25.269700 0.525400
25.321900 0.518300
25.374100 0.497800
25.426200 0.492700
25.478400 0.489700
25.530600 0.496600
25.582800 0.506700
25.634900 0.478700
25.687100 0.467500
25.739300 0.455400
25.791500 0.440000
25.843600 0.421900
25.895800 0.399100
25.948000 0.379000
26.000200 0.371100
26.052300 0.376400
26.104500 0.381200
26.156700 0.377500
26.208900 0.371300
26.261000 0.366200
26.313200 0.370900
26.365400 0.379200
26.417600 0.393200
26.469700 0.424600
26.521900 0.448600
26.574100 0.463200
26.626300 0.460500
26.678400 0.464300
26.730600 0.450500
26.782800 0.453900
26.835000 0.447000
26.887100 0.454500
26.939300 0.465400
26.991500 0.462200
27.043700 0.456000
27.095800 0.460500
27.148000 0.473300
27.200200 0.493300
27.252400 0.505900
27.304500 0.512700
27.356700 0.509000
27.408900 0.520100
27.461100 0.552300
27.513200 0.567700
27.565400 0.561700
27.617600 0.565300
27.669800 0.577500
27.721900 0.602700
27.774100 0.594000
27.826300 0.602400
27.878500 0.593500
27.930600 0.578000
27.982800 0.583200
28.035000 0.589100
28.087200 0.588200
28.139300 0.601400
28.191500 0.618700
28.243700 0.637900
28.295900 0.614800
28.348000 0.618600
28.400200 0.633400
28.452400 0.649600
28.504600 0.664400
28.556700 0.688200
28.608900 0.710400
28.661100 0.759300
28.713300 0.777000
28.765400 0.760700
28.817600 0.766900
28.869800 0.734700
28.922000 0.705800
28.974100 0.678200
29.026300 0.669600
29.078500 0.661200
29.130700 0.649400
29.182800 0.631200
29.235000 0.623800
29.287200 0.620500
29.339400 0.624400
29.391500 0.624700
29.443700 0.615900
29.495900 0.603900
29.548100 0.603500
29.600200 0.599400
29.652400 0.596800
29.704600 0.595900
29.756800 0.599600
29.808900 0.630000
29.861100 0.653600
29.913300 0.639400
29.965500 0.640500
30.017600 0.653600
30.069800 0.691000
30.122000 0.723200
30.174200 0.729100
30.226300 0.723500
30.278500 0.725500
30.330700 0.742000
30.382900 0.740900
30.435000 0.751600
30.487200 0.788300
30.539400 0.791800
30.591600 0.776000
30.643700 0.756100
30.695900 0.739900
30.748100 0.725700
30.800300 0.713500
30.852400 0.714500
30.904600 0.716800
30.956800 0.721300
31.009000 0.728400
31.061100 0.747400
31.113300 0.764400
31.165500 0.759800
31.217700 0.771700
31.269800 0.791100
31.322000 0.798400
31.374200 0.785200
31.426400 0.766700
31.478500 0.765600
31.530700 0.768300
31.582900 0.764100
31.635100 0.765200
31.687200 0.764200
31.739400 0.754100
31.791600 0.755200
31.843800 0.763200
31.895900 0.761400
31.948100 0.757200
32.000300 0.768900
32.052500 0.780900
32.104600 0.807900
32.156800 0.798400
32.209000 0.812900
32.261200 0.814300
32.313300 0.818300
32.365500 0.810100
32.417700 0.821000
32.469900 0.789000
32.522000 0.761300
32.574200 0.751600
32.626400 0.751300
32.678600 0.748200
32.730700 0.756300
32.782900 0.754600
32.835100 0.743800
32.887300 0.738200
32.939400 0.732800
32.991600 0.725600
33.043800 0.720600
33.096000 0.719000
33.148100 0.715600
33.200300 0.717700
33.252500 0.708100
33.304700 0.701900
33.356800 0.699000
33.409000 0.703900
33.461200 0.712000
33.513400 0.722600
33.565500 0.730000
33.617700 0.698800
33.669900 0.682400
33.722100 0.681000
33.774200 0.683700
33.826400 0.695500
33.878600 0.699700
33.930800 0.696800
33.982900 0.698600
34.035100 0.702200
34.087300 0.704200
34.139500 0.700300
34.191600 0.702200
34.243800 0.698700
34.296000 0.696000
34.348200 0.705300
34.400300 0.724600
34.452500 0.730700
34.504700 0.719400
34.556900 0.718200
34.609000 0.722000
34.661200 0.712500
34.713400 0.711500
34.765600 0.717400
34.817700 0.728200
34.869900 0.760800
34.922100 0.776900
34.974300 0.761200
35.026400 0.746400
35.078600 0.732000
35.130800 0.731800
35.183000 0.732100
35.235100 0.727200
35.287300 0.738800
35.339500 0.758700
35.391700 0.762500
35.443800 0.767300
35.496000 0.774900
35.548200 0.810900
35.600400 0.817200
35.652500 0.820800
35.704700 0.830300
35.756900 0.825600
35.809100 0.820700
35.861200 0.804300
35.913400 0.811000
35.965600 0.822400
36.017800 0.850600
36.069900 0.879700
36.122100 0.937100
36.174300 1.002600
36.226500 1.110100
36.278600 1.155300
36.330800 1.130200
36.383000 1.151400
36.435200 1.212200
36.487300 1.323100
36.539500 1.328700
36.591700 1.376000
36.643900 1.386300
36.696000 1.324500
36.748200 1.245800
36.800400 1.238500
36.852600 1.202500
36.904700 1.143900
36.956900 1.140200
37.009100 1.159200
37.061300 1.151900
37.113400 1.161900
37.165600 1.220400
37.217800 1.196500
37.270000 1.144400
37.322100 1.085600
37.374300 1.027900
37.426500 0.939100
37.478700 0.875100
37.530800 0.869400
37.583000 0.838700
37.635200 0.792400
37.687400 0.799000
37.739500 0.774500
37.791700 0.761600
37.843900 0.800600
37.896100 0.827800
37.948200 0.836600
38.000400 0.851300
38.052600 0.863300
38.104800 0.903500
38.156900 0.917100
38.209100 0.893300
38.261300 0.938500
38.313500 0.964000
38.365600 0.982400
38.417800 0.972800
38.470000 0.953800
38.522200 0.964900
38.574300 0.991100
38.626500 1.064600
38.678700 1.115900
38.730900 1.075800
38.783000 1.079600
38.835200 1.002200
38.887400 0.973200
38.939600 0.966700
38.991700 0.952500
39.043900 0.941600
39.096100 0.898200
39.148300 0.863300
39.200400 0.840500
39.252600 0.831800
39.304800 0.817100
39.357000 0.819000
39.409100 0.847000
39.461300 0.851700
39.513500 0.847800
39.565700 0.861400
39.617800 0.907800
39.670000 0.967000
39.722200 0.996600
39.774400 1.002600
39.826500 0.993700
39.878700 0.991300
39.930900 1.033000
39.983100 0.948300
40.035200 0.904300
40.087400 0.893400
40.139600 0.882900
40.191800 0.867800
40.243900 0.837800
40.296100 0.814300
40.348300 0.761300
40.400500 0.748700
40.452600 0.731800
40.504800 0.735500
40.557000 0.750500
40.609200 0.787300
40.661300 0.818200
40.713500 0.831100
40.765700 0.836400
40.817900 0.858200
40.870000 0.893600
40.922200 0.909100
40.974400 0.933300
41.026600 0.924000
41.078700 0.931300
41.130900 0.937000
41.183100 0.933600
41.235300 0.940800
41.287400 0.934100
41.339600 0.943500
41.391800 1.011600
41.444000 0.997800
41.496100 0.992700
41.548300 0.993300
41.600500 0.972600
41.652700 0.949600
41.704800 0.943300
41.757000 0.944600
41.809200 0.970700
41.861400 1.071700
41.913500 1.030100
41.965700 0.975700
42.017900 0.955200
42.070100 0.954400
42.122200 0.962300
42.174400 0.978400
42.226600 0.988300
42.278800 1.007000
42.330900 1.008200
42.383100 0.975000
42.435300 0.958400
42.487500 0.955100
42.539600 0.970200
42.591800 0.963300
42.644000 0.912300
42.696200 0.906600
42.748300 0.910900
42.800500 0.943600
42.852700 0.927600
42.904900 0.923000
42.957000 0.928800
43.009200 0.935500
43.061400 0.955000
43.113600 0.965100
43.165700 0.961000
43.217900 0.963700
43.270100 0.993100
43.322300 1.075900
43.374400 1.108700
43.426600 1.066200
43.478800 1.020200
43.531000 1.076800
43.583100 1.116300
43.635300 1.104900
43.687500 1.105500
43.739700 1.120200
43.791800 1.117400
43.844000 1.110200
43.896200 1.085100
43.948400 1.036100
44.000500 1.021900
44.052700 1.018600
44.104900 1.049900
44.157100 1.057300
44.209200 1.137300
44.261400 1.104900
44.313600 1.137300
44.365800 1.187300
44.417900 1.235700
44.470100 1.295600
44.522300 1.390800
44.574500 1.560500
44.626600 1.516800
44.678800 1.384800
44.731000 1.360600
44.783200 1.371000
44.835300 1.277200
44.887500 1.199600
44.939700 1.038600
44.991900 1.039800
45.044000 1.271900
45.096200 1.338800
45.148400 1.339000
45.200600 1.374000
45.252700 1.698000
45.304900 2.061600
45.357100 2.527100
45.409300 1.877600
45.461400 1.612000
45.513600 1.468100
45.565800 1.303500
45.618000 1.134200
45.670100 1.142300
45.722300 1.210800
45.774500 1.620900
45.826700 1.306000
45.878800 1.123600
45.931000 1.050400
45.983200 1.002900
46.035400 1.039600
46.087500 1.147700
46.139700 1.272000
46.191900 1.365900
46.244100 1.358900
46.296200 1.401200
46.348400 1.488600
46.400600 1.503100
46.452800 1.492400
46.504900 1.366500
46.557100 1.325000
46.609300 1.288300
46.661500 1.234400
46.713600 1.171100
46.765800 1.106700
46.818000 1.078500
46.870200 1.111400
46.922300 1.124000
46.974500 1.153300
47.026700 1.188800
47.078900 1.236500
47.131000 1.248200
47.183200 1.231900
47.235400 1.191300
47.287600 1.148700
47.339700 1.100600
47.391900 1.068900
47.444100 0.977200
47.496300 0.875700
47.548400 0.839900
47.600600 0.898700
47.652800 0.944400
47.705000 0.965700
47.757100 1.006600
47.809300 1.072700
47.861500 1.125400
47.913700 1.206600
47.965800 1.243700
48.018000 1.258100
48.070200 1.246900
48.122400 1.197300
48.174500 1.098000
48.226700 1.043300
48.278900 0.977900
48.331100 0.851900
48.383200 0.818200
48.435400 0.791800
48.487600 0.820300
48.539800 0.785300
48.591900 0.776200
48.644100 0.808700
48.696300 0.811500
48.748500 0.825400
48.800600 0.826600
48.852800 0.840500
48.905000 0.866900
48.957200 0.888600
49.009300 0.899800
49.061500 0.931500
49.113700 0.963300
49.165900 0.989900
49.218000 1.032700
49.270200 1.069000
49.322400 1.048900
49.374600 1.008500
49.426700 0.968200
49.478900 0.944500
49.531100 0.889900
49.583300 0.871200
49.635400 0.878500
49.687600 0.906000
49.739800 0.906300
49.792000 0.943700
49.844100 0.976200
49.896300 0.997300
49.948500 1.002200
50.000700 1.018400
50.052800 1.028500
50.105000 1.066000
50.157200 1.115600
50.209400 1.141100
50.261500 1.130200
50.313700 1.074200
50.365900 0.995700
50.418100 0.931400
50.470200 0.861800
50.522400 0.823400
50.574600 0.800900
50.626800 0.810400
50.678900 0.807000
50.731100 0.803600
50.783300 0.851600
50.835500 0.888700
50.887600 0.956800
50.939800 0.939700
50.992000 0.968500
51.044200 0.970900
51.096300 0.946500
51.148500 0.931700
51.200700 0.925300
51.252900 0.922100
51.305000 0.950000
51.357200 0.968300
51.409400 0.970900
51.461600 0.962000
51.513700 0.932700
51.565900 0.877400
51.618100 0.841600
51.670300 0.875100
51.722400 0.866700
51.774600 0.884600
51.826800 0.940000
51.879000 0.978600
51.931100 1.041100
51.983300 1.004100
52.035500 0.948700
52.087700 0.919500
52.139800 0.910400
52.192000 0.917100
52.244200 0.904900
52.296400 0.859500
52.348500 0.814300
52.400700 0.771800
52.452900 0.727600
52.505100 0.697400
52.557200 0.676300
52.609400 0.664100
52.661600 0.667600
52.713800 0.683800
52.765900 0.693700
52.818100 0.703600
52.870300 0.698500
52.922500 0.697500
52.974600 0.693600
53.026800 0.701800
53.079000 0.704500
53.131200 0.703100
53.183300 0.722900
53.235500 0.718600
53.287700 0.688900
53.339900 0.648900
53.392000 0.579000
53.444200 0.548200
53.496400 0.523700
53.548600 0.509100
53.600700 0.496100
53.652900 0.488300
53.705100 0.465600
53.757300 0.444400
53.809400 0.423600
53.861600 0.415000
53.913800 0.366300
53.966000 0.325400
54.018100 0.317500
54.070300 0.317400
54.122500 0.322100
54.174700 0.309000
54.226800 0.291200
54.279000 0.294500
54.331200 0.309200
54.383400 0.315000
54.435500 0.311300
54.487700 0.322300
54.539900 0.303300
54.592100 0.280300
54.644200 0.267200
54.696400 0.255000
54.748600 0.247600
54.800800 0.261900
54.852900 0.236500
54.905100 0.219100
54.957300 0.211000
55.009500 0.211900
55.061600 0.163100
55.113800 0.122600
55.166000 0.086600
55.218200 0.042500
55.270300 0.036800
55.322500 0.033200
55.374700 0.030200
55.426900 0.028000
55.479000 0.026500
55.531200 0.025600
55.583400 0.024900
55.635600 0.024400
55.687700 0.024200
55.739900 0.024200
55.792100 0.025300
55.844300 0.026700
55.896400 0.027200
55.948600 0.021500
56.000800 0.009100
56.053000 0.000900
56.105100 0.000000
56.157300 0.000000
56.209500 0.000000
56.261700 0.000000
56.313800 0.000000
56.366000 0.000000
56.418200 0.000000
56.470400 0.000000
56.522500 0.000000
56.574700 0.000000
56.626900 0.000000
56.679100 0.000000
56.731200 0.000000
56.783400 0.000000
56.835600 0.000000
56.887800 0.000000
56.939900 0.000000
56.992100 0.000000
57.044300 0.000000
57.096500 0.000000
57.148600 0.000000
57.200800 0.000000
57.253000 0.000000
57.305200 0.000000
57.357300 0.000000
57.409500 0.000000
57.461700 0.000000
57.513900 0.000000
57.566000 0.000000
57.618200 0.000000
57.670400 0.000000
57.722600 0.000000
57.774700 0.000000
57.826900 0.000000
57.879100 0.000000
57.931300 0.000000
57.983400 0.000000
58.035600 0.000000
58.087800 0.000000
58.140000 0.000000
58.192100 0.000000
58.244300 0.000000
58.296500 0.000000
58.348700 0.000000
58.400800 0.000000
58.453000 0.000000
58.505200 0.000000
58.557400 0.000000
58.609500 0.000000
58.661700 0.000000
58.713900 0.000000
58.766100 0.000000
58.818200 0.000000
58.870400 0.000000
58.922600 0.000000
58.974800 0.000000
59.026900 0.000000
59.079100 0.000000
59.131300 0.000000
59.183500 0.000000
59.235600 0.000000
59.287800 0.000000
59.340000 0.000000
59.392200 0.000000
59.444300 0.000000
59.496500 0.000000
59.548700 0.000000
59.600900 0.000000
59.653000 0.000000
59.705200 0.000000
59.757400 0.000000
59.809600 0.000000
59.861700 0.000000
59.913900 0.000000
59.966100 0.000000
60.018300 0.000000
60.070400 0.000000
60.122600 0.000000
60.174800 0.000000
60.227000 0.000000
60.279100 0.000000
60.331300 0.000000
60.383500 0.000000
60.435700 0.000000
60.487800 0.000000
60.540000 0.000000
60.592200 0.000000
60.644400 0.000000
60.696500 0.000000
60.748700 0.000000
60.800900 0.000000
60.853100 0.000000
e
