set title 'mp-1184011 - Density of States'
set xlabel 'Energy (eV)'
set ylabel 'DOS (states/eV)'
set grid
set xrange [-10:10]
set yrange [0:21.735]
set xzeroaxis lt -1
set terminal png size 800,600
set output 'mp-1184011_dos_gnuplot.png'
plot '-' using 1:2 with lines title 'DOS'
-69.985400 0.000000
-69.920700 0.000000
-69.855900 0.000000
-69.791200 0.000000
-69.726500 0.000000
-69.661700 0.000000
-69.597000 0.000000
-69.532300 0.000000
-69.467500 0.000000
-69.402800 0.000000
-69.338100 0.000000
-69.273300 0.000000
-69.208600 0.000000
-69.143900 0.000000
-69.079100 0.000000
-69.014400 0.000000
-68.949700 0.000000
-68.884900 0.000000
-68.820200 0.000000
-68.755500 0.000000
-68.690700 0.000000
-68.626000 0.000000
-68.561300 0.000000
-68.496500 0.000000
-68.431800 0.000000
-68.367100 0.000000
-68.302300 0.000000
-68.237600 0.000000
-68.172800 0.000000
-68.108100 0.000000
-68.043400 0.000000
-67.978600 0.000000
-67.913900 0.000000
-67.849200 0.000000
-67.784400 0.000000
-67.719700 0.000000
-67.655000 0.000000
-67.590200 0.000000
-67.525500 0.000000
-67.460800 0.000000
-67.396000 0.000000
-67.331300 0.000000
-67.266600 0.000000
-67.201800 0.000000
-67.137100 0.000000
-67.072400 0.000000
-67.007600 0.000000
-66.942900 0.000000
-66.878200 0.000000
-66.813400 0.000000
-66.748700 0.000000
-66.684000 0.000000
-66.619200 0.000000
-66.554500 0.000000
-66.489800 0.000000
-66.425000 0.000000
-66.360300 0.000000
-66.295600 0.000000
-66.230800 0.000000
-66.166100 0.000000
-66.101400 0.000000
-66.036600 0.000000
-65.971900 0.000000
-65.907200 0.000000
-65.842400 0.000000
-65.777700 0.000000
-65.713000 0.000000
-65.648200 0.000000
-65.583500 0.000000
-65.518800 0.000000
-65.454000 0.000000
-65.389300 0.000000
-65.324600 0.000000
-65.259800 0.000000
-65.195100 0.000000
-65.130400 0.000000
-65.065600 0.000000
-65.000900 0.000000
-64.936200 0.000000
-64.871400 0.000000
-64.806700 0.000000
-64.742000 0.000000
-64.677200 0.000000
-64.612500 0.000000
-64.547800 0.000000
-64.483000 0.000000
-64.418300 0.000000
-64.353600 0.000000
-64.288800 0.000000
-64.224100 0.000000
-64.159400 0.000000
-64.094600 320.253900
-64.029900 0.000000
-63.965200 203.077900
-63.900400 0.000000
-63.835700 0.000000
-63.771000 0.000000
-63.706200 0.000000
-63.641500 0.000000
-63.576800 0.000000
-63.512000 0.000000
-63.447300 0.000000
-63.382600 0.000000
-63.317800 0.000000
-63.253100 0.000000
-63.188400 0.000000
-63.123600 0.000000
-63.058900 0.000000
-62.994200 0.000000
-62.929400 0.000000
-62.864700 0.000000
-62.800000 0.000000
-62.735200 0.000000
-62.670500 0.000000
-62.605800 0.000000
-62.541000 0.000000
-62.476300 0.000000
-62.411500 0.000000
-62.346800 0.000000
-62.282100 0.000000
-62.217300 0.000000
-62.152600 0.000000
-62.087900 0.000000
-62.023100 0.000000
-61.958400 0.000000
-61.893700 0.000000
-61.828900 0.000000
-61.764200 0.000000
-61.699500 0.000000
-61.634700 0.000000
-61.570000 0.000000
-61.505300 0.000000
-61.440500 0.000000
-61.375800 0.000000
-61.311100 0.000000
-61.246300 0.000000
-61.181600 0.000000
-61.116900 0.000000
-61.052100 0.000000
-60.987400 0.000000
-60.922700 0.000000
-60.857900 0.000000
-60.793200 0.000000
-60.728500 0.000000
-60.663700 0.000000
-60.599000 0.000000
-60.534300 0.000000
-60.469500 0.000000
-60.404800 0.000000
-60.340100 0.000000
-60.275300 0.000000
-60.210600 0.000000
-60.145900 0.000000
-60.081100 0.000000
-60.016400 0.000000
-59.951700 0.000000
-59.886900 0.000000
-59.822200 0.000000
-59.757500 0.000000
-59.692700 0.000000
-59.628000 0.000000
-59.563300 0.000000
-59.498500 0.000000
-59.433800 0.000000
-59.369100 0.000000
-59.304300 0.000000
-59.239600 0.000000
-59.174900 0.000000
-59.110100 0.000000
-59.045400 0.000000
-58.980700 0.000000
-58.915900 0.000000
-58.851200 0.000000
-58.786500 0.000000
-58.721700 0.000000
-58.657000 0.000000
-58.592300 0.000000
-58.527500 0.000000
-58.462800 0.000000
-58.398100 0.000000
-58.333300 0.000000
-58.268600 0.000000
-58.203900 0.000000
-58.139100 0.000000
-58.074400 0.000000
-58.009700 0.000000
-57.944900 0.000000
-57.880200 0.000000
-57.815500 0.000000
-57.750700 0.000000
-57.686000 0.000000
-57.621300 0.000000
-57.556500 0.000000
-57.491800 0.000000
-57.427100 0.000000
-57.362300 0.000000
-57.297600 0.000000
-57.232900 0.000000
-57.168100 0.000000
-57.103400 0.000000
-57.038700 0.000000
-56.973900 0.000000
-56.909200 0.000000
-56.844500 0.000000
-56.779700 0.000000
-56.715000 0.000000
-56.650200 0.000000
-56.585500 0.000000
-56.520800 0.000000
-56.456000 0.000000
-56.391300 0.000000
-56.326600 0.000000
-56.261800 0.000000
-56.197100 0.000000
-56.132400 0.000000
-56.067600 0.000000
-56.002900 0.000000
-55.938200 0.000000
-55.873400 0.000000
-55.808700 0.000000
-55.744000 0.000000
-55.679200 0.000000
-55.614500 0.000000
-55.549800 0.000000
-55.485000 0.000000
-55.420300 0.000000
-55.355600 0.000000
-55.290800 0.000000
-55.226100 0.000000
-55.161400 0.000000
-55.096600 0.000000
-55.031900 0.000000
-54.967200 0.000000
-54.902400 0.000000
-54.837700 0.000000
-54.773000 0.000000
-54.708200 0.000000
-54.643500 0.000000
-54.578800 0.000000
-54.514000 0.000000
-54.449300 0.000000
-54.384600 0.000000
-54.319800 0.000000
-54.255100 0.000000
-54.190400 0.000000
-54.125600 0.000000
-54.060900 0.000000
-53.996200 0.000000
-53.931400 0.000000
-53.866700 0.000000
-53.802000 0.000000
-53.737200 0.000000
-53.672500 0.000000
-53.607800 0.000000
-53.543000 0.000000
-53.478300 0.000000
-53.413600 0.000000
-53.348800 0.000000
-53.284100 0.000000
-53.219400 0.000000
-53.154600 0.000000
-53.089900 0.000000
-53.025200 0.000000
-52.960400 0.000000
-52.895700 0.000000
-52.831000 0.000000
-52.766200 0.000000
-52.701500 0.000000
-52.636800 0.000000
-52.572000 0.000000
-52.507300 0.000000
-52.442600 0.000000
-52.377800 0.000000
-52.313100 0.000000
-52.248400 0.000000
-52.183600 0.000000
-52.118900 0.000000
-52.054200 0.000000
-51.989400 0.000000
-51.924700 0.000000
-51.860000 0.000000
-51.795200 0.000000
-51.730500 0.000000
-51.665800 0.000000
-51.601000 0.000000
-51.536300 0.000000
-51.471600 0.000000
-51.406800 0.000000
-51.342100 0.000000
-51.277400 0.000000
-51.212600 0.000000
-51.147900 0.000000
-51.083200 0.000000
-51.018400 0.000000
-50.953700 0.000000
-50.889000 0.000000
-50.824200 0.000000
-50.759500 0.000000
-50.694700 0.000000
-50.630000 0.000000
-50.565300 0.000000
-50.500500 0.000000
-50.435800 0.000000
-50.371100 0.000000
-50.306300 0.000000
-50.241600 0.000000
-50.176900 0.000000
-50.112100 0.000000
-50.047400 0.000000
-49.982700 0.000000
-49.917900 0.000000
-49.853200 0.000000
-49.788500 0.000000
-49.723700 0.000000
-49.659000 0.000000
-49.594300 0.000000
-49.529500 0.000000
-49.464800 0.000000
-49.400100 0.000000
-49.335300 0.000000
-49.270600 0.000000
-49.205900 0.000000
-49.141100 0.000000
-49.076400 0.000000
-49.011700 0.000000
-48.946900 0.000000
-48.882200 0.000000
-48.817500 0.000000
-48.752700 0.000000
-48.688000 0.000000
-48.623300 0.000000
-48.558500 0.000000
-48.493800 0.000000
-48.429100 0.000000
-48.364300 0.000000
-48.299600 0.000000
-48.234900 0.000000
-48.170100 0.000000
-48.105400 0.000000
-48.040700 0.000000
-47.975900 0.000000
-47.911200 0.000000
-47.846500 0.000000
-47.781700 0.000000
-47.717000 0.000000
-47.652300 0.000000
-47.587500 0.000000
-47.522800 0.000000
-47.458100 0.000000
-47.393300 0.000000
-47.328600 0.000000
-47.263900 0.000000
-47.199100 0.000000
-47.134400 0.000000
-47.069700 0.000000
-47.004900 0.000000
-46.940200 0.000000
-46.875500 0.000000
-46.810700 0.000000
-46.746000 0.000000
-46.681300 0.000000
-46.616500 0.000000
-46.551800 0.000000
-46.487100 0.000000
-46.422300 0.000000
-46.357600 0.000000
-46.292900 0.000000
-46.228100 0.000000
-46.163400 0.000000
-46.098700 0.000000
-46.033900 0.000000
-45.969200 0.000000
-45.904500 0.000000
-45.839700 0.000000
-45.775000 0.000000
-45.710300 0.000000
-45.645500 0.000000
-45.580800 0.000000
-45.516100 0.000000
-45.451300 0.000000
-45.386600 0.000000
-45.321900 0.000000
-45.257100 0.000000
-45.192400 0.000000
-45.127700 0.000000
-45.062900 0.000000
-44.998200 0.000000
-44.933400 0.000000
-44.868700 0.000000
-44.804000 0.000000
-44.739200 0.000000
-44.674500 0.000000
-44.609800 0.000000
-44.545000 0.000000
-44.480300 0.000000
-44.415600 0.000000
-44.350800 0.000000
-44.286100 0.000000
-44.221400 0.000000
-44.156600 0.000000
-44.091900 0.000000
-44.027200 0.000000
-43.962400 0.000000
-43.897700 0.000000
-43.833000 0.000000
-43.768200 0.000000
-43.703500 0.000000
-43.638800 0.000000
-43.574000 0.000000
-43.509300 0.000000
-43.444600 0.000000
-43.379800 0.000000
-43.315100 0.000000
-43.250400 0.000000
-43.185600 0.000000
-43.120900 0.000000
-43.056200 0.000000
-42.991400 0.000000
-42.926700 0.000000
-42.862000 0.000000
-42.797200 0.000000
-42.732500 0.000000
-42.667800 0.000000
-42.603000 0.000000
-42.538300 0.000000
-42.473600 0.000000
-42.408800 0.000000
-42.344100 0.000000
-42.279400 0.000000
-42.214600 0.000000
-42.149900 0.000000
-42.085200 0.000000
-42.020400 0.000000
-41.955700 0.000000
-41.891000 0.000000
-41.826200 0.000000
-41.761500 0.000000
-41.696800 0.000000
-41.632000 0.000000
-41.567300 0.000000
-41.502600 0.000000
-41.437800 0.000000
-41.373100 0.000000
-41.308400 0.000000
-41.243600 0.000000
-41.178900 0.000000
-41.114200 0.000000
-41.049400 0.000000
-40.984700 0.000000
-40.920000 0.000000
-40.855200 0.000000
-40.790500 0.000000
-40.725800 0.000000
-40.661000 0.000000
-40.596300 0.000000
-40.531600 0.000000
-40.466800 0.000000
-40.402100 0.000000
-40.337400 0.000000
-40.272600 0.000000
-40.207900 0.000000
-40.143200 0.000000
-40.078400 0.000000
-40.013700 0.000000
-39.949000 0.000000
-39.884200 0.000000
-39.819500 0.000000
-39.754800 0.000000
-39.690000 0.000000
-39.625300 0.000000
-39.560600 0.000000
-39.495800 0.000000
-39.431100 0.000000
-39.366400 0.000000
-39.301600 0.000000
-39.236900 0.000000
-39.172100 0.000000
-39.107400 0.000000
-39.042700 0.000000
-38.977900 0.000000
-38.913200 0.000000
-38.848500 0.000000
-38.783700 0.000000
-38.719000 0.000000
-38.654300 0.000000
-38.589500 0.000000
-38.524800 0.000000
-38.460100 0.000000
-38.395300 0.000000
-38.330600 0.000000
-38.265900 0.000000
-38.201100 0.000000
-38.136400 0.000000
-38.071700 0.000000
-38.006900 0.000000
-37.942200 0.000000
-37.877500 0.000000
-37.812700 0.000000
-37.748000 0.000000
-37.683300 0.000000
-37.618500 0.000000
-37.553800 0.000000
-37.489100 0.000000
-37.424300 0.000000
-37.359600 0.000000
-37.294900 0.000000
-37.230100 0.000000
-37.165400 0.000000
-37.100700 0.000000
-37.035900 0.000000
-36.971200 0.000000
-36.906500 0.000000
-36.841700 0.000000
-36.777000 0.000000
-36.712300 0.000000
-36.647500 0.000000
-36.582800 0.000000
-36.518100 0.000000
-36.453300 0.000000
-36.388600 0.000000
-36.323900 0.000000
-36.259100 0.000000
-36.194400 0.000000
-36.129700 0.000000
-36.064900 0.000000
-36.000200 0.000000
-35.935500 0.000000
-35.870700 0.000000
-35.806000 0.000000
-35.741300 0.000000
-35.676500 0.000000
-35.611800 0.000000
-35.547100 0.000000
-35.482300 0.000000
-35.417600 0.000000
-35.352900 0.000000
-35.288100 0.000000
-35.223400 0.000000
-35.158700 0.000000
-35.093900 0.000000
-35.029200 0.000000
-34.964500 0.000000
-34.899700 0.000000
-34.835000 0.000000
-34.770300 0.000000
-34.705500 0.000000
-34.640800 0.000000
-34.576100 0.000000
-34.511300 0.000000
-34.446600 0.000000
-34.381900 0.000000
-34.317100 0.000000
-34.252400 0.000000
-34.187700 0.000000
-34.122900 0.000000
-34.058200 0.000000
-33.993500 0.000000
-33.928700 0.000000
-33.864000 0.000000
-33.799300 0.000000
-33.734500 0.000000
-33.669800 0.000000
-33.605100 0.000000
-33.540300 0.000000
-33.475600 0.000000
-33.410800 0.000000
-33.346100 0.000000
-33.281400 0.000000
-33.216600 0.000000
-33.151900 0.000000
-33.087200 0.000000
-33.022400 0.000000
-32.957700 0.000000
-32.893000 0.000000
-32.828200 0.000000
-32.763500 0.000000
-32.698800 0.000000
-32.634000 0.000000
-32.569300 0.000000
-32.504600 0.000000
-32.439800 0.000000
-32.375100 0.000000
-32.310400 0.000000
-32.245600 0.000000
-32.180900 0.000000
-32.116200 0.000000
-32.051400 0.000000
-31.986700 0.000000
-31.922000 0.000000
-31.857200 0.000000
-31.792500 0.000000
-31.727800 0.000000
-31.663000 0.000000
-31.598300 0.000000
-31.533600 0.000000
-31.468800 0.000000
-31.404100 0.000000
-31.339400 0.000000
-31.274600 0.000000
-31.209900 0.000000
-31.145200 0.000000
-31.080400 0.000000
-31.015700 0.000000
-30.951000 0.000000
-30.886200 0.000000
-30.821500 0.000000
-30.756800 0.000000
-30.692000 0.000000
-30.627300 0.000000
-30.562600 0.000000
-30.497800 0.000000
-30.433100 0.000000
-30.368400 0.000000
-30.303600 0.000000
-30.238900 0.000000
-30.174200 0.000000
-30.109400 0.000000
-30.044700 0.000000
-29.980000 0.000000
-29.915200 0.000000
-29.850500 0.000000
-29.785800 0.000000
-29.721000 0.000000
-29.656300 0.000000
-29.591600 0.000000
-29.526800 0.000000
-29.462100 0.000000
-29.397400 0.000000
-29.332600 0.000000
-29.267900 0.000000
-29.203200 0.000000
-29.138400 0.000000
-29.073700 0.000000
-29.009000 0.000000
-28.944200 0.000000
-28.879500 0.000000
-28.814800 0.000000
-28.750000 0.000000
-28.685300 0.000000
-28.620600 0.000000
-28.555800 0.000000
-28.491100 0.000000
-28.426400 0.000000
-28.361600 0.000000
-28.296900 0.000000
-28.232200 0.000000
-28.167400 0.000000
-28.102700 0.000000
-28.038000 0.000000
-27.973200 0.000000
-27.908500 0.000000
-27.843800 0.000000
-27.779000 0.000000
-27.714300 0.000000
-27.649600 0.000000
-27.584800 0.000000
-27.520100 0.000000
-27.455300 0.000000
-27.390600 0.000000
-27.325900 0.000000
-27.261100 0.000000
-27.196400 0.000000
-27.131700 0.000000
-27.066900 0.000000
-27.002200 0.000000
-26.937500 0.000000
-26.872700 0.000000
-26.808000 0.000000
-26.743300 0.000000
-26.678500 0.000000
-26.613800 0.000000
-26.549100 0.000000
-26.484300 0.000000
-26.419600 0.000000
-26.354900 0.000000
-26.290100 0.000000
-26.225400 0.000000
-26.160700 0.000000
-26.095900 0.000000
-26.031200 0.000000
-25.966500 0.000000
-25.901700 0.000000
-25.837000 0.000000
-25.772300 0.000000
-25.707500 0.000000
-25.642800 0.000000
-25.578100 0.000000
-25.513300 0.000000
-25.448600 0.000000
-25.383900 0.000000
-25.319100 0.000000
-25.254400 0.000000
-25.189700 0.000000
-25.124900 0.000000
-25.060200 0.000000
-24.995500 0.000000
-24.930700 0.000000
-24.866000 0.000000
-24.801300 0.000000
-24.736500 0.000000
-24.671800 0.000000
-24.607100 0.000000
-24.542300 0.000000
-24.477600 0.000000
-24.412900 0.000000
-24.348100 0.000000
-24.283400 0.000000
-24.218700 0.000000
-24.153900 0.000000
-24.089200 0.000000
-24.024500 0.000000
-23.959700 0.000000
-23.895000 0.000000
-23.830300 0.000000
-23.765500 0.000000
-23.700800 0.000000
-23.636100 0.000000
-23.571300 0.000000
-23.506600 0.000000
-23.441900 0.000000
-23.377100 0.000000
-23.312400 0.000000
-23.247700 0.000000
-23.182900 0.000000
-23.118200 0.000000
-23.053500 0.000000
-22.988700 0.000000
-22.924000 0.000000
-22.859300 0.000000
-22.794500 0.000000
-22.729800 0.000000
-22.665100 0.000000
-22.600300 0.000000
-22.535600 0.000000
-22.470900 0.000000
-22.406100 0.000000
-22.341400 0.000000
-22.276700 0.000000
-22.211900 0.000000
-22.147200 0.000000
-22.082500 0.000000
-22.017700 0.000000
-21.953000 0.000000
-21.888300 0.000000
-21.823500 0.000000
-21.758800 0.000000
-21.694000 0.000000
-21.629300 0.000000
-21.564600 0.000000
-21.499800 0.000000
-21.435100 0.000000
-21.370400 0.000000
-21.305600 0.000000
-21.240900 0.000000
-21.176200 0.000000
-21.111400 0.000000
-21.046700 0.000000
-20.982000 0.000000
-20.917200 0.000000
-20.852500 0.000000
-20.787800 0.000000
-20.723000 0.000000
-20.658300 0.000000
-20.593600 0.000000
-20.528800 0.000000
-20.464100 0.000000
-20.399400 0.000000
-20.334600 0.000000
-20.269900 0.000000
-20.205200 0.000000
-20.140400 0.000000
-20.075700 0.000000
-20.011000 0.000000
-19.946200 0.000000
-19.881500 0.000000
-19.816800 0.000000
-19.752000 0.000000
-19.687300 0.000000
-19.622600 0.000000
-19.557800 0.000000
-19.493100 0.000000
-19.428400 0.000000
-19.363600 0.000000
-19.298900 0.000000
-19.234200 0.000000
-19.169400 0.000000
-19.104700 0.000000
-19.040000 0.000000
-18.975200 0.000000
-18.910500 0.000000
-18.845800 0.000000
-18.781000 0.000000
-18.716300 0.000000
-18.651600 0.000000
-18.586800 0.000000
-18.522100 0.000000
-18.457400 0.000000
-18.392600 0.000000
-18.327900 0.000000
-18.263200 0.000000
-18.198400 0.000000
-18.133700 0.000000
-18.069000 0.000000
-18.004200 0.000000
-17.939500 0.000000
-17.874800 0.000000
-17.810000 0.000000
-17.745300 0.000000
-17.680600 0.000000
-17.615800 0.000000
-17.551100 0.000000
-17.486400 0.000000
-17.421600 0.000000
-17.356900 0.000000
-17.292200 0.000000
-17.227400 0.000000
-17.162700 0.000000
-17.098000 0.000000
-17.033200 0.000000
-16.968500 0.000000
-16.903800 0.000000
-16.839000 0.000000
-16.774300 0.000000
-16.709600 0.000000
-16.644800 0.000000
-16.580100 0.000000
-16.515400 0.000000
-16.450600 0.000000
-16.385900 0.000000
-16.321200 0.000000
-16.256400 0.000000
-16.191700 0.000000
-16.127000 0.000000
-16.062200 0.000000
-15.997500 0.000000
-15.932700 0.000000
-15.868000 0.000000
-15.803300 0.000000
-15.738500 0.000000
-15.673800 0.000000
-15.609100 0.000000
-15.544300 0.000000
-15.479600 0.000000
-15.414900 0.000000
-15.350100 0.000000
-15.285400 0.000000
-15.220700 0.000000
-15.155900 0.000000
-15.091200 0.000000
-15.026500 0.000000
-14.961700 0.000000
-14.897000 0.000000
-14.832300 0.000000
-14.767500 0.000000
-14.702800 0.000000
-14.638100 0.000000
-14.573300 0.000000
-14.508600 0.000000
-14.443900 0.000000
-14.379100 0.000000
-14.314400 0.000000
-14.249700 0.000000
-14.184900 0.000000
-14.120200 0.000000
-14.055500 0.000000
-13.990700 0.000000
-13.926000 0.000000
-13.861300 0.000000
-13.796500 0.000000
-13.731800 0.000000
-13.667100 0.000000
-13.602300 0.000000
-13.537600 0.000000
-13.472900 0.000000
-13.408100 0.000000
-13.343400 0.000000
-13.278700 0.000000
-13.213900 0.000000
-13.149200 0.000000
-13.084500 0.000000
-13.019700 0.000000
-12.955000 0.000000
-12.890300 0.000000
-12.825500 0.000000
-12.760800 0.000000
-12.696100 0.000000
-12.631300 0.000000
-12.566600 0.000000
-12.501900 0.000000
-12.437100 0.000000
-12.372400 0.000000
-12.307700 0.000000
-12.242900 0.000000
-12.178200 0.000000
-12.113500 0.000000
-12.048700 0.000000
-11.984000 0.000000
-11.919300 0.000000
-11.854500 0.000000
-11.789800 0.000000
-11.725100 0.000000
-11.660300 0.000000
-11.595600 0.000000
-11.530900 0.000000
-11.466100 0.000000
-11.401400 0.000000
-11.336700 0.000000
-11.271900 0.000000
-11.207200 0.000000
-11.142500 0.000000
-11.077700 0.000000
-11.013000 0.000000
-10.948300 0.000000
-10.883500 0.000000
-10.818800 0.000000
-10.754100 0.000000
-10.689300 0.000000
-10.624600 0.000000
-10.559900 0.000000
-10.495100 0.000000
-10.430400 0.000000
-10.365700 0.000000
-10.300900 0.000000
-10.236200 0.000000
-10.171400 0.000000
-10.106700 0.000000
-10.042000 0.000000
-9.977200 0.000000
-9.912500 0.000000
-9.847800 0.000000
-9.783000 0.000000
-9.718300 0.000000
-9.653600 0.000000
-9.588800 0.000000
-9.524100 0.000000
-9.459400 0.000000
-9.394600 0.000000
-9.329900 0.000000
-9.265200 0.000000
-9.200400 0.000000
-9.135700 0.000000
-9.071000 0.000000
-9.006200 0.000000
-8.941500 0.000000
-8.876800 0.000000
-8.812000 0.000000
-8.747300 0.000000
-8.682600 0.000000
-8.617800 0.000000
-8.553100 0.000000
-8.488400 0.000000
-8.423600 0.000000
-8.358900 0.000000
-8.294200 0.000000
-8.229400 0.000000
-8.164700 0.000000
-8.100000 0.000000
-8.035200 0.000000
-7.970500 0.000000
-7.905800 0.000000
-7.841000 0.000000
-7.776300 0.000000
-7.711600 0.000000
-7.646800 0.000000
-7.582100 0.000000
-7.517400 0.000000
-7.452600 0.000000
-7.387900 0.000000
-7.323200 0.000000
-7.258400 0.000000
-7.193700 0.000000
-7.129000 0.000000
-7.064200 0.000000
-6.999500 0.000000
-6.934800 0.000000
-6.870000 0.000000
-6.805300 0.000000
-6.740600 0.000000
-6.675800 0.000000
-6.611100 0.000000
-6.546400 0.000000
-6.481600 0.000000
-6.416900 0.000000
-6.352200 0.000000
-6.287400 0.000000
-6.222700 0.000000
-6.158000 0.000000
-6.093200 0.000000
-6.028500 0.000000
-5.963800 0.000000
-5.899000 0.000000
-5.834300 0.000000
-5.769600 0.000000
-5.704800 0.000000
-5.640100 0.000000
-5.575400 0.000000
-5.510600 0.000000
-5.445900 0.000000
-5.381200 0.000000
-5.316400 0.000000
-5.251700 0.000000
-5.187000 0.000000
-5.122200 0.000000
-5.057500 0.000000
-4.992800 0.000000
-4.928000 0.000000
-4.863300 0.000000
-4.798600 0.000000
-4.733800 0.000000
-4.669100 0.000000
-4.604400 0.000000
-4.539600 0.000000
-4.474900 0.000000
-4.410200 0.000000
-4.345400 0.000000
-4.280700 0.000000
-4.215900 0.000000
-4.151200 0.000000
-4.086500 0.000000
-4.021700 0.000000
-3.957000 0.000000
-3.892300 0.000000
-3.827500 0.000000
-3.762800 0.000000
-3.698100 0.000000
-3.633300 0.000000
-3.568600 0.000000
-3.503900 0.000000
-3.439100 0.000000
-3.374400 0.000000
-3.309700 0.000000
-3.244900 0.000000
-3.180200 0.000000
-3.115500 0.005300
-3.050700 0.078200
-2.986000 0.108000
-2.921300 0.139400
-2.856500 0.168700
-2.791800 0.184100
-2.727100 0.205300
-2.662300 0.223500
-2.597600 0.240100
-2.532900 0.261400
-2.468100 0.278800
-2.403400 0.294000
-2.338700 0.307700
-2.273900 0.322200
-2.209200 0.339500
-2.144500 0.357800
-2.079700 0.377000
-2.015000 0.392300
-1.950300 0.407700
-1.885500 0.424500
-1.820800 0.443000
-1.756100 0.462200
-1.691300 0.482200
-1.626600 0.502900
-1.561900 0.525500
-1.497100 0.552000
-1.432400 0.578900
-1.367700 0.608200
-1.302900 0.639300
-1.238200 0.673100
-1.173500 0.711700
-1.108700 0.765800
-1.044000 0.838100
-0.979300 0.914700
-0.914500 0.971500
-0.849800 1.036300
-0.785100 1.141300
-0.720300 1.371600
-0.655600 1.646400
-0.590900 1.851800
-0.526100 2.564100
-0.461400 5.337800
-0.396700 2.918900
-0.331900 2.996400
-0.267200 4.609100
-0.202500 5.621800
-0.137700 6.251400
-0.073000 6.828400
-0.008300 7.469100
0.056500 7.830700
0.121200 6.463100
0.185900 9.995100
0.250700 5.180400
0.315400 9.445600
0.380100 13.737200
0.444900 14.874100
0.509600 18.567300
0.574300 9.002600
0.639100 3.694300
0.703800 2.906100
0.768500 2.597600
0.833300 2.406100
0.898000 2.291500
0.962700 2.245200
1.027500 2.159900
1.092200 1.796100
1.156900 1.929100
1.221700 2.371500
1.286400 2.330000
1.351100 1.665600
1.415900 0.784100
1.480600 0.966000
1.545400 3.121600
1.610100 3.683600
1.674800 4.950800
1.739600 4.216800
1.804300 3.685600
1.869000 2.578200
1.933800 2.021600
1.998500 2.046700
2.063200 2.283800
2.128000 2.787300
2.192700 5.020500
2.257400 10.355800
2.322200 14.362600
2.386900 12.728100
2.451600 13.916100
2.516400 14.355800
2.581100 15.022000
2.645800 16.393500
2.710600 17.014200
2.775300 16.106200
2.840000 13.412200
2.904800 14.633900
2.969500 12.597500
3.034200 13.794700
3.099000 13.989300
3.163700 12.084700
3.228400 10.414600
3.293200 9.938500
3.357900 10.495800
3.422600 12.554200
3.487400 18.250100
3.552100 14.129600
3.616800 15.853900
3.681600 17.900600
3.746300 16.832900
3.811000 19.156400
3.875800 17.206400
3.940500 19.759400
4.005200 15.412600
4.070000 5.531500
4.134700 2.786800
4.199400 1.851600
4.264200 1.845600
4.328900 1.656800
4.393600 1.523200
4.458400 1.511400
4.523100 1.458800
4.587800 1.424100
4.652600 1.355800
4.717300 1.288800
4.782000 1.299600
4.846800 1.316100
4.911500 1.324500
4.976200 1.387000
5.041000 1.391300
5.105700 1.335400
5.170400 1.374400
5.235200 1.308500
5.299900 1.212800
5.364600 1.186700
5.429400 1.174500
5.494100 1.153200
5.558800 1.149000
5.623600 1.150200
5.688300 1.151800
5.753000 1.180600
5.817800 1.220400
5.882500 1.206000
5.947200 1.184000
6.012000 1.138100
6.076700 1.127000
6.141400 1.127500
6.206200 1.126000
6.270900 1.118000
6.335600 1.115000
6.400400 1.119600
6.465100 1.127800
6.529800 1.128700
6.594600 1.110600
6.659300 1.093100
6.724000 1.091400
6.788800 1.092100
6.853500 1.091700
6.918200 1.086000
6.983000 1.078100
7.047700 1.076500
7.112400 1.081700
7.177200 1.105800
7.241900 1.119800
7.306700 1.134300
7.371400 1.143100
7.436100 1.159200
7.500900 1.160300
7.565600 1.134000
7.630300 1.099400
7.695100 1.045300
7.759800 0.978900
7.824500 0.934500
7.889300 0.877900
7.954000 0.814200
8.018700 0.777800
8.083500 0.721400
8.148200 0.669600
8.212900 0.636800
8.277700 0.616900
8.342400 0.609100
8.407100 0.622300
8.471900 0.656300
8.536600 0.694600
8.601300 0.739800
8.666100 0.763300
8.730800 0.794900
8.795500 0.827400
8.860300 0.876600
8.925000 0.851300
8.989700 0.812100
9.054500 0.779000
9.119200 0.744100
9.183900 0.743300
9.248700 0.777700
9.313400 0.881400
9.378100 0.987500
9.442900 1.097800
9.507600 1.142800
9.572300 1.348400
9.637100 1.379400
9.701800 1.321000
9.766500 1.193500
9.831300 1.106600
9.896000 1.082700
9.960700 1.062500
10.025500 1.095600
10.090200 1.116100
10.154900 1.148400
10.219700 1.135400
10.284400 1.144700
10.349100 1.125000
10.413900 1.117700
10.478600 1.122100
10.543300 1.127400
10.608100 1.153200
10.672800 1.157600
10.737500 1.181300
10.802300 1.199200
10.867000 1.198600
10.931700 1.178500
10.996500 1.162200
11.061200 1.152200
11.125900 1.130100
11.190700 1.107800
11.255400 1.101700
11.320100 1.094800
11.384900 1.095300
11.449600 1.080600
11.514300 1.073700
11.579100 1.070600
11.643800 1.062900
11.708500 1.069300
11.773300 1.061200
11.838000 1.049300
11.902700 1.046500
11.967500 1.045100
12.032200 1.034900
12.096900 1.035100
12.161700 1.030200
12.226400 1.003600
12.291100 0.980300
12.355900 0.974100
12.420600 1.000000
12.485300 1.047800
12.550100 1.118400
12.614800 1.246700
12.679500 1.313600
12.744300 1.337000
12.809000 1.367100
12.873700 1.412500
12.938500 1.483300
13.003200 1.525600
13.068000 1.639000
13.132700 1.614300
13.197400 1.642000
13.262200 1.679300
13.326900 1.673000
13.391600 1.669900
13.456400 1.565400
13.521100 1.474400
13.585800 1.415200
13.650600 1.379000
13.715300 1.331800
13.780000 1.328200
13.844800 1.329900
13.909500 1.350600
13.974200 1.357200
14.039000 1.376000
14.103700 1.406600
14.168400 1.453000
14.233200 1.519700
14.297900 1.589900
14.362600 1.504400
14.427400 1.469500
14.492100 1.459500
14.556800 1.498600
14.621600 1.576500
14.686300 1.557200
14.751000 1.534500
14.815800 1.577900
14.880500 1.637800
14.945200 1.662400
15.010000 1.677400
15.074700 1.633700
15.139400 1.584800
15.204200 1.501300
15.268900 1.492400
15.333600 1.478200
15.398400 1.486700
15.463100 1.467300
15.527800 1.594500
15.592600 1.623700
15.657300 1.617900
15.722000 1.589600
15.786800 1.560500
15.851500 1.561600
15.916200 1.579700
15.981000 1.557300
16.045700 1.585100
16.110400 1.581000
16.175200 1.593600
16.239900 1.555800
16.304600 1.635600
16.369400 1.624100
16.434100 1.619500
16.498800 1.671900
16.563600 1.650300
16.628300 1.668800
16.693000 1.681100
16.757800 1.698600
16.822500 1.724800
16.887200 1.718900
16.952000 1.734200
17.016700 1.766900
17.081400 1.797600
17.146200 1.824300
17.210900 1.828800
17.275600 1.831200
17.340400 1.840700
17.405100 1.857600
17.469800 1.888900
17.534600 1.858500
17.599300 1.837200
17.664000 1.851700
17.728800 1.808200
17.793500 1.870300
17.858200 2.081800
17.923000 2.061100
17.987700 1.951500
18.052400 2.004000
18.117200 2.043500
18.181900 2.040300
18.246600 2.157900
18.311400 1.875500
18.376100 1.861100
18.440800 1.849600
18.505600 1.842000
18.570300 1.826800
18.635000 1.733500
18.699800 1.730300
18.764500 1.778700
18.829200 1.639200
18.894000 1.537700
18.958700 1.641000
19.023500 1.572500
19.088200 1.544200
19.152900 1.571600
19.217700 1.622100
19.282400 1.681100
19.347100 1.692800
19.411900 1.695000
19.476600 1.686400
19.541300 1.699800
19.606100 1.702200
19.670800 1.729800
19.735500 1.749800
19.800300 1.766100
19.865000 1.785000
19.929700 1.773700
19.994500 1.713500
20.059200 1.733600
20.123900 1.740100
20.188700 1.751400
20.253400 1.779700
20.318100 1.741000
20.382900 1.693200
20.447600 1.630400
20.512300 1.595100
20.577100 1.579400
20.641800 1.542200
20.706500 1.515300
20.771300 1.497300
20.836000 1.493400
20.900700 1.502900
20.965500 1.513900
21.030200 1.532000
21.094900 1.550200
21.159700 1.560900
21.224400 1.557800
21.289100 1.554300
21.353900 1.548000
21.418600 1.552500
21.483300 1.683900
21.548100 1.563800
21.612800 1.483800
21.677500 1.456300
21.742300 1.428700
21.807000 1.383600
21.871700 1.339200
21.936500 1.402200
22.001200 1.304400
22.065900 1.299200
22.130700 1.258700
22.195400 1.239800
22.260100 1.236800
22.324900 1.248900
22.389600 1.262000
22.454300 1.309200
22.519100 1.314600
22.583800 1.356800
22.648500 1.388800
22.713300 1.392700
22.778000 1.382300
22.842700 1.398800
22.907500 1.396700
22.972200 1.429300
23.036900 1.406800
23.101700 1.437300
23.166400 1.443500
23.231100 1.553100
23.295900 1.556300
23.360600 1.574200
23.425300 1.634400
23.490100 1.705900
23.554800 1.826200
23.619500 1.665500
23.684300 1.668700
23.749000 1.731900
23.813700 1.801800
23.878500 1.752300
23.943200 1.739000
24.007900 1.781900
24.072700 1.821500
24.137400 1.900100
24.202100 1.878600
24.266900 1.893300
24.331600 1.922100
24.396300 2.003800
24.461100 2.067600
24.525800 2.138600
24.590500 2.227900
24.655300 2.486300
24.720000 2.624900
24.784800 2.705100
24.849500 2.757900
24.914200 2.617700
24.979000 2.367700
25.043700 2.250000
25.108400 2.261500
25.173200 2.264400
25.237900 2.490500
25.302600 2.531500
25.367400 2.887500
25.432100 2.660600
25.496800 2.603100
25.561600 2.528200
25.626300 2.476900
25.691000 2.413800
25.755800 2.308500
25.820500 2.256600
25.885200 2.468000
25.950000 2.469900
26.014700 2.488500
26.079400 2.525200
26.144200 2.557800
26.208900 2.654100
26.273600 2.657500
26.338400 2.400100
26.403100 2.288600
26.467800 2.305200
26.532600 2.258400
26.597300 2.272400
26.662000 2.265100
26.726800 2.282700
26.791500 2.304100
26.856200 2.302400
26.921000 2.305800
26.985700 2.305300
27.050400 2.301500
27.115200 2.367500
27.179900 2.371000
27.244600 2.222700
27.309400 2.187700
27.374100 2.146900
27.438800 2.058300
27.503600 1.958000
27.568300 1.954500
27.633000 1.861800
27.697800 1.851900
27.762500 1.883500
27.827200 1.961800
27.892000 1.944400
27.956700 2.022600
28.021400 1.994500
28.086200 1.984800
28.150900 2.005100
28.215600 2.033400
28.280400 1.996300
28.345100 1.936900
28.409800 1.885100
28.474600 1.761700
28.539300 1.682600
28.604000 1.624300
28.668800 1.579500
28.733500 1.590100
28.798200 1.662200
28.863000 1.615100
28.927700 1.507500
28.992400 1.468200
29.057200 1.373400
29.121900 1.293500
29.186600 1.226800
29.251400 1.175200
29.316100 1.122400
29.380800 1.099900
29.445600 1.122200
29.510300 1.206000
29.575000 1.319600
29.639800 1.433400
29.704500 1.492800
29.769200 1.495000
29.834000 1.504000
29.898700 1.527100
29.963400 1.589600
30.028200 1.756300
30.092900 1.676000
30.157600 1.619000
30.222400 1.603800
30.287100 1.595900
30.351800 1.598900
30.416600 1.655300
30.481300 1.734700
30.546100 1.815900
30.610800 1.904100
30.675500 1.962000
30.740300 2.007200
30.805000 2.070100
30.869700 2.117400
30.934500 2.104700
30.999200 2.063800
31.063900 2.167900
31.128700 2.222700
31.193400 2.391500
31.258100 2.632500
31.322900 2.699900
31.387600 2.722900
31.452300 2.683200
31.517100 2.552500
31.581800 2.374700
31.646500 2.318200
31.711300 2.291500
31.776000 2.297900
31.840700 2.327900
31.905500 2.262700
31.970200 2.217000
32.034900 2.167000
32.099700 2.068400
32.164400 2.119500
32.229100 2.169600
32.293900 2.189800
32.358600 2.137300
32.423300 2.119000
32.488100 2.033200
32.552800 1.950300
32.617500 1.890200
32.682300 1.865600
32.747000 1.851000
32.811700 1.888200
32.876500 1.922800
32.941200 1.945200
33.005900 1.909500
33.070700 1.875800
33.135400 1.868100
33.200100 1.849700
33.264900 1.861000
33.329600 1.897900
33.394300 1.934600
33.459100 1.967000
33.523800 2.017700
33.588500 2.030800
33.653300 2.032600
33.718000 2.014400
33.782700 2.056400
33.847500 2.082700
33.912200 2.112300
33.976900 2.209900
34.041700 2.380300
34.106400 2.623200
34.171100 2.395400
34.235900 2.458100
34.300600 2.414800
34.365300 2.410400
34.430100 2.491800
34.494800 2.591900
34.559500 2.676600
34.624300 2.751000
34.689000 2.743800
34.753700 2.622100
34.818500 2.523500
34.883200 2.372100
34.947900 2.386600
35.012700 2.264900
35.077400 2.244400
35.142100 2.134900
35.206900 2.108100
35.271600 2.148200
35.336300 2.161800
35.401100 2.250900
35.465800 2.316000
35.530500 2.448400
35.595300 2.513300
35.660000 2.427700
35.724700 2.376400
35.789500 2.399100
35.854200 2.407100
35.918900 2.367500
35.983700 2.349600
36.048400 2.335800
36.113100 2.372900
36.177900 2.345000
36.242600 2.215300
36.307400 2.211400
36.372100 2.301700
36.436800 2.586900
36.501600 2.165700
36.566300 2.059400
36.631000 2.079100
36.695800 2.140900
36.760500 2.167500
36.825200 2.201400
36.890000 2.185000
36.954700 2.185800
37.019400 2.213900
37.084200 2.288000
37.148900 2.333200
37.213600 2.466800
37.278400 2.230500
37.343100 2.150800
37.407800 2.064400
37.472600 2.138000
37.537300 2.391400
37.602000 2.279700
37.666800 2.311900
37.731500 2.417200
37.796200 2.571800
37.861000 2.698800
37.925700 2.584200
37.990400 2.545500
38.055200 2.573000
38.119900 2.711000
38.184600 2.680100
38.249400 2.728200
38.314100 2.853700
38.378800 2.930600
38.443600 3.010600
38.508300 3.083100
38.573000 3.206800
38.637800 3.384400
38.702500 3.649500
38.767200 3.997700
38.832000 4.626600
38.896700 5.266200
38.961400 7.369300
39.026200 8.911300
39.090900 12.456500
39.155600 16.123600
39.220400 18.046600
39.285100 9.985800
39.349800 6.121900
39.414600 5.509600
39.479300 4.663200
39.544000 4.434700
39.608800 4.114900
39.673500 3.893400
39.738200 3.642700
39.803000 3.517100
39.867700 3.370700
39.932400 3.124400
39.997200 2.951300
40.061900 2.853200
40.126600 2.725600
40.191400 2.659400
40.256100 2.402400
40.320800 2.427300
40.385600 2.391700
40.450300 2.363100
40.515000 2.470700
40.579800 2.686400
40.644500 2.873900
40.709200 2.716600
40.774000 2.628800
40.838700 2.577700
40.903400 2.423300
40.968200 2.360500
41.032900 2.275800
41.097600 2.290400
41.162400 2.450800
41.227100 2.702400
41.291800 2.843700
41.356600 2.847500
41.421300 2.868400
41.486000 2.950500
41.550800 2.821600
41.615500 2.725100
41.680200 2.521200
41.745000 2.492700
41.809700 2.501700
41.874400 2.561100
41.939200 2.595200
42.003900 2.620700
42.068600 2.728400
42.133400 2.685500
42.198100 2.696600
42.262900 2.734700
42.327600 2.681100
42.392300 2.546400
42.457100 2.490700
42.521800 2.490800
42.586500 2.523100
42.651300 2.537500
42.716000 2.634800
42.780700 2.698900
42.845500 2.640700
42.910200 2.595900
42.974900 2.559400
43.039700 2.599300
43.104400 2.653100
43.169100 2.624200
43.233900 2.552900
43.298600 2.503100
43.363300 2.644500
43.428100 2.422200
43.492800 2.473900
43.557500 2.593400
43.622300 2.770700
43.687000 2.878100
43.751700 2.917900
43.816500 2.924800
43.881200 2.784100
43.945900 2.693300
44.010700 2.637800
44.075400 2.668800
44.140100 2.679000
44.204900 2.716500
44.269600 2.790300
44.334300 2.703100
44.399100 2.735900
44.463800 2.713900
44.528500 2.743600
44.593300 2.780900
44.658000 2.828400
44.722700 2.802900
44.787500 2.795600
44.852200 2.888000
44.916900 2.951000
44.981700 2.947900
45.046400 2.882400
45.111100 2.851100
45.175900 2.781900
45.240600 2.700600
45.305300 2.646600
45.370100 2.613700
45.434800 2.622900
45.499500 2.668300
45.564300 2.914500
45.629000 2.738700
45.693700 2.693500
45.758500 2.751800
45.823200 2.822500
45.887900 2.707400
45.952700 2.816500
46.017400 2.846500
46.082100 2.913200
46.146900 2.943500
46.211600 2.948100
46.276300 2.935100
46.341100 2.838100
46.405800 2.664700
46.470500 2.615700
46.535300 2.761200
46.600000 2.880100
46.664700 2.901500
46.729500 2.983300
46.794200 3.267900
46.858900 3.442000
46.923700 3.470200
46.988400 3.381500
47.053100 3.264900
47.117900 3.095100
47.182600 3.030400
47.247300 2.953000
47.312100 2.950200
47.376800 2.943900
47.441500 2.878100
47.506300 2.863400
47.571000 2.858000
47.635700 2.825100
47.700500 2.649000
47.765200 2.659500
47.829900 2.597800
47.894700 2.707400
47.959400 2.932600
48.024200 3.077800
48.088900 3.118500
48.153600 3.107700
48.218400 2.991900
48.283100 2.811200
48.347800 2.731300
48.412600 2.748800
48.477300 2.829900
48.542000 2.834300
48.606800 2.717000
48.671500 2.460900
48.736200 2.271000
48.801000 2.214900
48.865700 2.221200
48.930400 2.172000
48.995200 2.332500
49.059900 2.474500
49.124600 2.635100
49.189400 2.643900
49.254100 2.411400
49.318800 2.379500
49.383600 2.437000
49.448300 2.473800
49.513000 2.412100
49.577800 2.416900
49.642500 2.383900
49.707200 2.346300
49.772000 2.411400
49.836700 2.497500
49.901400 2.554200
49.966200 2.545400
50.030900 2.602000
50.095600 2.609500
50.160400 2.625300
50.225100 2.613600
50.289800 2.530400
50.354600 2.367100
50.419300 2.283400
50.484000 2.307400
50.548800 2.556500
50.613500 2.851900
50.678200 2.886100
50.743000 2.962100
50.807700 2.956300
50.872400 2.898000
50.937200 2.812900
51.001900 2.793000
51.066600 2.800000
51.131400 2.812500
51.196100 2.644800
51.260800 2.437500
51.325600 2.283300
51.390300 2.146400
51.455000 2.039700
51.519800 2.006400
51.584500 1.835700
51.649200 1.643700
51.714000 1.503900
51.778700 1.405600
51.843400 1.247200
51.908200 1.185400
51.972900 1.000300
52.037600 0.784400
52.102400 0.722800
52.167100 0.640500
52.231800 0.591000
52.296600 0.546700
52.361300 0.501600
52.426000 0.413600
52.490800 0.362200
52.555500 0.322500
52.620200 0.284800
52.685000 0.246700
52.749700 0.205100
52.814400 0.165500
52.879200 0.130100
52.943900 0.102000
53.008600 0.076800
53.073400 0.058200
53.138100 0.044400
53.202800 0.035400
53.267600 0.028400
53.332300 0.022100
53.397000 0.016500
53.461800 0.011600
53.526500 0.007400
53.591200 0.000000
53.656000 0.000000
53.720700 0.000000
53.785500 0.000000
53.850200 0.000000
53.914900 0.000000
53.979700 0.000000
54.044400 0.000000
54.109100 0.000000
54.173900 0.000000
54.238600 0.000000
54.303300 0.000000
54.368100 0.000000
54.432800 0.000000
54.497500 0.000000
54.562300 0.000000
54.627000 0.000000
54.691700 0.000000
54.756500 0.000000
54.821200 0.000000
54.885900 0.000000
54.950700 0.000000
55.015400 0.000000
55.080100 0.000000
55.144900 0.000000
55.209600 0.000000
55.274300 0.000000
55.339100 0.000000
55.403800 0.000000
55.468500 0.000000
55.533300 0.000000
55.598000 0.000000
55.662700 0.000000
55.727500 0.000000
55.792200 0.000000
55.856900 0.000000
55.921700 0.000000
55.986400 0.000000
56.051100 0.000000
56.115900 0.000000
56.180600 0.000000
56.245300 0.000000
56.310100 0.000000
56.374800 0.000000
56.439500 0.000000
56.504300 0.000000
56.569000 0.000000
56.633700 0.000000
56.698500 0.000000
56.763200 0.000000
56.827900 0.000000
56.892700 0.000000
56.957400 0.000000
57.022100 0.000000
57.086900 0.000000
57.151600 0.000000
57.216300 0.000000
57.281100 0.000000
57.345800 0.000000
57.410500 0.000000
57.475300 0.000000
57.540000 0.000000
57.604700 0.000000
57.669500 0.000000
57.734200 0.000000
57.798900 0.000000
57.863700 0.000000
57.928400 0.000000
57.993100 0.000000
58.057900 0.000000
58.122600 0.000000
58.187300 0.000000
58.252100 0.000000
58.316800 0.000000
58.381500 0.000000
58.446300 0.000000
58.511000 0.000000
58.575700 0.000000
58.640500 0.000000
58.705200 0.000000
58.769900 0.000000
58.834700 0.000000
58.899400 0.000000
58.964100 0.000000
59.028900 0.000000
59.093600 0.000000
59.158300 0.000000
59.223100 0.000000
59.287800 0.000000
59.352500 0.000000
59.417300 0.000000
59.482000 0.000000
e
