set title 'mp-1042127 - Density of States'
set xlabel 'Energy (eV)'
set ylabel 'DOS (states/eV)'
set grid
set xrange [-10:10]
set yrange [0:11.476]
set xzeroaxis lt -1
set terminal png size 800,600
set output 'mp-1042127_dos_gnuplot.png'
plot '-' using 1:2 with lines title 'DOS'
-14.190700 0.000000
-14.175300 0.000000
-14.160000 0.000000
-14.144600 0.000000
-14.129200 0.000000
-14.113800 0.000000
-14.098500 0.000000
-14.083100 0.000000
-14.067700 0.000000
-14.052400 0.000000
-14.037000 0.000000
-14.021600 0.000000
-14.006300 0.000000
-13.990900 0.000000
-13.975500 0.000000
-13.960200 0.000000
-13.944800 0.000000
-13.929400 0.000000
-13.914100 0.000000
-13.898700 0.000000
-13.883300 0.000000
-13.868000 0.000000
-13.852600 0.000000
-13.837200 0.000000
-13.821900 0.000000
-13.806500 0.000000
-13.791100 0.000000
-13.775800 0.000000
-13.760400 0.000000
-13.745000 0.000000
-13.729700 0.000000
-13.714300 0.000000
-13.698900 0.000000
-13.683600 0.000000
-13.668200 0.000000
-13.652800 0.000000
-13.637500 0.000000
-13.622100 0.000000
-13.606700 0.000000
-13.591400 0.000000
-13.576000 0.000000
-13.560600 0.000000
-13.545200 0.000000
-13.529900 0.000000
-13.514500 0.000000
-13.499100 0.000000
-13.483800 0.000000
-13.468400 0.000000
-13.453000 0.000000
-13.437700 0.000000
-13.422300 0.000000
-13.406900 0.000000
-13.391600 0.000000
-13.376200 0.000000
-13.360800 0.000000
-13.345500 0.000000
-13.330100 0.000000
-13.314700 0.000000
-13.299400 0.000000
-13.284000 0.000000
-13.268600 0.000000
-13.253300 0.000000
-13.237900 0.000000
-13.222500 0.000000
-13.207200 0.000000
-13.191800 0.000000
-13.176400 0.000000
-13.161100 0.000000
-13.145700 0.000000
-13.130300 0.000000
-13.115000 0.000000
-13.099600 0.000000
-13.084200 0.000000
-13.068900 0.000000
-13.053500 0.000000
-13.038100 0.000000
-13.022800 0.000000
-13.007400 0.000000
-12.992000 0.000000
-12.976600 0.000000
-12.961300 0.000000
-12.945900 0.000000
-12.930500 0.000000
-12.915200 0.000000
-12.899800 0.000000
-12.884400 0.000000
-12.869100 0.000000
-12.853700 0.000000
-12.838300 0.000000
-12.823000 0.000000
-12.807600 0.000000
-12.792200 0.000000
-12.776900 0.000000
-12.761500 0.000000
-12.746100 0.000000
-12.730800 0.000000
-12.715400 0.000000
-12.700000 0.000000
-12.684700 0.000000
-12.669300 0.000000
-12.653900 0.000000
-12.638600 0.000100
-12.623200 0.000500
-12.607800 0.002000
-12.592500 0.006300
-12.577100 0.017300
-12.561700 0.040500
-12.546400 0.082000
-12.531000 0.146000
-12.515600 0.232500
-12.500300 0.336300
-12.484900 0.448100
-12.469500 0.556100
-12.454100 0.651400
-12.438800 0.733100
-12.423400 0.808600
-12.408000 0.887600
-12.392700 0.975000
-12.377300 1.067600
-12.361900 1.157600
-12.346600 1.237700
-12.331200 1.304400
-12.315800 1.360700
-12.300500 1.422100
-12.285100 1.514100
-12.269700 1.656100
-12.254400 1.842300
-12.239000 2.041200
-12.223600 2.213900
-12.208300 2.333500
-12.192900 2.394000
-12.177500 2.413500
-12.162200 2.426100
-12.146800 2.459400
-12.131400 2.507000
-12.116100 2.525700
-12.100700 2.466100
-12.085300 2.312600
-12.070000 2.098800
-12.054600 1.889700
-12.039200 1.747100
-12.023900 1.697600
-12.008500 1.714600
-11.993100 1.728000
-11.977800 1.665400
-11.962400 1.501400
-11.947000 1.271400
-11.931700 1.040200
-11.916300 0.856200
-11.900900 0.733900
-11.885500 0.665300
-11.870200 0.633700
-11.854800 0.617800
-11.839400 0.595000
-11.824100 0.554600
-11.808700 0.506900
-11.793300 0.473300
-11.778000 0.471600
-11.762600 0.514900
-11.747200 0.618500
-11.731900 0.793700
-11.716500 1.025700
-11.701100 1.261900
-11.685800 1.431600
-11.670400 1.488200
-11.655000 1.438900
-11.639700 1.334600
-11.624300 1.235500
-11.608900 1.185800
-11.593600 1.210800
-11.578200 1.317900
-11.562800 1.488700
-11.547500 1.675900
-11.532100 1.820400
-11.516700 1.885300
-11.501400 1.877900
-11.486000 1.834800
-11.470600 1.787000
-11.455300 1.741000
-11.439900 1.689800
-11.424500 1.631000
-11.409200 1.572500
-11.393800 1.523700
-11.378400 1.486200
-11.363100 1.451700
-11.347700 1.410300
-11.332300 1.357900
-11.316900 1.294000
-11.301600 1.220000
-11.286200 1.141600
-11.270800 1.068300
-11.255500 1.007200
-11.240100 0.957200
-11.224700 0.908300
-11.209400 0.846400
-11.194000 0.762400
-11.178600 0.662200
-11.163300 0.565700
-11.147900 0.492600
-11.132500 0.452800
-11.117200 0.449400
-11.101800 0.481800
-11.086400 0.539200
-11.071100 0.596200
-11.055700 0.623000
-11.040300 0.603200
-11.025000 0.545400
-11.009600 0.479400
-10.994200 0.436700
-10.978900 0.426900
-10.963500 0.433000
-10.948100 0.428700
-10.932800 0.399700
-10.917400 0.348500
-10.902000 0.283600
-10.886700 0.213200
-10.871300 0.146100
-10.855900 0.094300
-10.840600 0.068500
-10.825200 0.075600
-10.809800 0.116700
-10.794400 0.186000
-10.779100 0.267700
-10.763700 0.335400
-10.748300 0.361400
-10.733000 0.333000
-10.717600 0.262300
-10.702200 0.179300
-10.686900 0.113900
-10.671500 0.081000
-10.656100 0.079000
-10.640800 0.101500
-10.625400 0.160200
-10.610000 0.321400
-10.594700 0.744000
-10.579300 1.677800
-10.563900 3.360000
-10.548600 5.797600
-10.533200 8.569000
-10.517800 10.882600
-10.502500 11.980700
-10.487100 11.625900
-10.471700 10.251700
-10.456400 8.640600
-10.441000 7.423300
-10.425600 6.793400
-10.410300 6.565700
-10.394900 6.416200
-10.379500 6.091400
-10.364200 5.496100
-10.348800 4.680300
-10.333400 3.772900
-10.318100 2.905000
-10.302700 2.158100
-10.287300 1.555700
-10.272000 1.085000
-10.256600 0.724500
-10.241200 0.457600
-10.225800 0.270600
-10.210500 0.148700
-10.195100 0.075100
-10.179700 0.034300
-10.164400 0.013900
-10.149000 0.004900
-10.133600 0.001500
-10.118300 0.000400
-10.102900 0.000100
-10.087500 0.000000
-10.072200 0.000000
-10.056800 0.000000
-10.041400 0.000000
-10.026100 0.000000
-10.010700 0.000000
-9.995300 0.000000
-9.980000 0.000000
-9.964600 0.000000
-9.949200 0.000000
-9.933900 0.000000
-9.918500 0.000000
-9.903100 0.000000
-9.887800 0.000000
-9.872400 0.000000
-9.857000 0.000000
-9.841700 0.000000
-9.826300 0.000200
-9.810900 0.000700
-9.795600 0.002200
-9.780200 0.006400
-9.764800 0.015400
-9.749500 0.031700
-9.734100 0.055900
-9.718700 0.084400
-9.703400 0.109400
-9.688000 0.121300
-9.672600 0.114900
-9.657200 0.092600
-9.641900 0.063200
-9.626500 0.036500
-9.611100 0.018400
-9.595800 0.010300
-9.580400 0.012200
-9.565000 0.025900
-9.549700 0.054000
-9.534300 0.095400
-9.518900 0.141200
-9.503600 0.175900
-9.488200 0.188900
-9.472800 0.183800
-9.457500 0.176800
-9.442100 0.181000
-9.426700 0.195100
-9.411400 0.207700
-9.396000 0.212900
-9.380600 0.218100
-9.365300 0.235200
-9.349900 0.265700
-9.334500 0.296700
-9.319200 0.310600
-9.303800 0.296700
-9.288400 0.256900
-9.273100 0.204100
-9.257700 0.155100
-9.242300 0.126200
-9.227000 0.132100
-9.211600 0.184200
-9.196200 0.282500
-9.180900 0.403300
-9.165500 0.501600
-9.150100 0.537400
-9.134700 0.509000
-9.119400 0.457200
-9.104000 0.431600
-9.088600 0.448700
-9.073300 0.482600
-9.057900 0.499900
-9.042500 0.499400
-9.027200 0.515100
-9.011800 0.575000
-8.996400 0.660500
-8.981100 0.711700
-8.965700 0.678000
-8.950300 0.564700
-8.935000 0.434200
-8.919600 0.365100
-8.904200 0.407600
-8.888900 0.562000
-8.873500 0.779400
-8.858100 0.983000
-8.842800 1.106100
-8.827400 1.131300
-8.812000 1.098600
-8.796700 1.069400
-8.781300 1.080300
-8.765900 1.128500
-8.750600 1.195700
-8.735200 1.267100
-8.719800 1.323500
-8.704500 1.331200
-8.689100 1.266800
-8.673700 1.151300
-8.658400 1.044800
-8.643000 1.001300
-8.627600 1.035100
-8.612300 1.125800
-8.596900 1.238900
-8.581500 1.336700
-8.566100 1.383000
-8.550800 1.358200
-8.535400 1.277400
-8.520000 1.186500
-8.504700 1.129600
-8.489300 1.115900
-8.473900 1.115000
-8.458600 1.086400
-8.443200 1.013000
-8.427800 0.912200
-8.412500 0.823000
-8.397100 0.786100
-8.381700 0.827300
-8.366400 0.939100
-8.351000 1.069100
-8.335600 1.142300
-8.320300 1.112900
-8.304900 0.998300
-8.289500 0.857200
-8.274200 0.737900
-8.258800 0.652800
-8.243400 0.593200
-8.228100 0.550900
-8.212700 0.520800
-8.197300 0.492000
-8.182000 0.451100
-8.166600 0.396900
-8.151200 0.350300
-8.135900 0.340500
-8.120500 0.376300
-8.105100 0.429900
-8.089800 0.454100
-8.074400 0.420600
-8.059000 0.343900
-8.043700 0.268600
-8.028300 0.232900
-8.012900 0.242100
-7.997500 0.271200
-7.982200 0.291400
-7.966800 0.296100
-7.951400 0.306800
-7.936100 0.356600
-7.920700 0.467800
-7.905300 0.642900
-7.890000 0.864000
-7.874600 1.091000
-7.859200 1.262900
-7.843900 1.320100
-7.828500 1.245100
-7.813100 1.081100
-7.797800 0.905100
-7.782400 0.777400
-7.767000 0.714200
-7.751700 0.704300
-7.736300 0.742100
-7.720900 0.840800
-7.705600 1.012400
-7.690200 1.242500
-7.674800 1.483700
-7.659500 1.672000
-7.644100 1.754700
-7.628700 1.717700
-7.613400 1.592800
-7.598000 1.435400
-7.582600 1.291300
-7.567300 1.185500
-7.551900 1.136300
-7.536500 1.163000
-7.521200 1.272000
-7.505800 1.437300
-7.490400 1.602100
-7.475000 1.704000
-7.459700 1.709100
-7.444300 1.630900
-7.428900 1.519700
-7.413600 1.425000
-7.398200 1.356200
-7.382800 1.278700
-7.367500 1.153600
-7.352100 0.987800
-7.336700 0.839000
-7.321400 0.767000
-7.306000 0.781900
-7.290600 0.839200
-7.275300 0.879000
-7.259900 0.868400
-7.244500 0.813700
-7.229200 0.746800
-7.213800 0.700200
-7.198400 0.685300
-7.183100 0.684400
-7.167700 0.665900
-7.152300 0.613800
-7.137000 0.543500
-7.121600 0.485500
-7.106200 0.454900
-7.090900 0.441300
-7.075500 0.426800
-7.060100 0.407700
-7.044800 0.394100
-7.029400 0.391900
-7.014000 0.390200
-6.998700 0.369600
-6.983300 0.323100
-6.967900 0.263600
-6.952600 0.211700
-6.937200 0.177600
-6.921800 0.155200
-6.906400 0.132000
-6.891100 0.101900
-6.875700 0.068600
-6.860300 0.039500
-6.845000 0.019300
-6.829600 0.008000
-6.814200 0.002800
-6.798900 0.000800
-6.783500 0.000200
-6.768100 0.000000
-6.752800 0.000000
-6.737400 0.000000
-6.722000 0.000000
-6.706700 0.000000
-6.691300 0.000000
-6.675900 0.000000
-6.660600 0.000000
-6.645200 0.000000
-6.629800 0.000000
-6.614500 0.000000
-6.599100 0.000000
-6.583700 0.000000
-6.568400 0.000000
-6.553000 0.000000
-6.537600 0.000000
-6.522300 0.000000
-6.506900 0.000000
-6.491500 0.000000
-6.476200 0.000000
-6.460800 0.000000
-6.445400 0.000000
-6.430100 0.000000
-6.414700 0.000000
-6.399300 0.000000
-6.384000 0.000000
-6.368600 0.000000
-6.353200 0.000000
-6.337800 0.000000
-6.322500 0.000000
-6.307100 0.000000
-6.291700 0.000000
-6.276400 0.000000
-6.261000 0.000000
-6.245600 0.000000
-6.230300 0.000000
-6.214900 0.000000
-6.199500 0.000000
-6.184200 0.000000
-6.168800 0.000000
-6.153400 0.000000
-6.138100 0.000000
-6.122700 0.000000
-6.107300 0.000000
-6.092000 0.000000
-6.076600 0.000000
-6.061200 0.000000
-6.045900 0.000000
-6.030500 0.000000
-6.015100 0.000000
-5.999800 0.000000
-5.984400 0.000000
-5.969000 0.000000
-5.953700 0.000000
-5.938300 0.000000
-5.922900 0.000000
-5.907600 0.000000
-5.892200 0.000000
-5.876800 0.000000
-5.861500 0.000000
-5.846100 0.000000
-5.830700 0.000000
-5.815300 0.000000
-5.800000 0.000000
-5.784600 0.000000
-5.769200 0.000000
-5.753900 0.000000
-5.738500 0.000000
-5.723100 0.000000
-5.707800 0.000000
-5.692400 0.000000
-5.677000 0.000000
-5.661700 0.000000
-5.646300 0.000000
-5.630900 0.000000
-5.615600 0.000000
-5.600200 0.000000
-5.584800 0.000000
-5.569500 0.000000
-5.554100 0.000000
-5.538700 0.000000
-5.523400 0.000000
-5.508000 0.000000
-5.492600 0.000000
-5.477300 0.000000
-5.461900 0.000000
-5.446500 0.000000
-5.431200 0.000000
-5.415800 0.000000
-5.400400 0.000000
-5.385100 0.000000
-5.369700 0.000000
-5.354300 0.000000
-5.339000 0.000000
-5.323600 0.000000
-5.308200 0.000000
-5.292900 0.000000
-5.277500 0.000000
-5.262100 0.000000
-5.246700 0.000000
-5.231400 0.000000
-5.216000 0.000000
-5.200600 0.000000
-5.185300 0.000000
-5.169900 0.000000
-5.154500 0.000000
-5.139200 0.000000
-5.123800 0.000000
-5.108400 0.000000
-5.093100 0.000000
-5.077700 0.000000
-5.062300 0.000000
-5.047000 0.000000
-5.031600 0.000000
-5.016200 0.000000
-5.000900 0.000000
-4.985500 0.000000
-4.970100 0.000000
-4.954800 0.000000
-4.939400 0.000000
-4.924000 0.000000
-4.908700 0.000000
-4.893300 0.000000
-4.877900 0.000000
-4.862600 0.000000
-4.847200 0.000000
-4.831800 0.000000
-4.816500 0.000000
-4.801100 0.000000
-4.785700 0.000000
-4.770400 0.000000
-4.755000 0.000000
-4.739600 0.000000
-4.724300 0.000000
-4.708900 0.000000
-4.693500 0.000000
-4.678100 0.000000
-4.662800 0.000000
-4.647400 0.000000
-4.632000 0.000000
-4.616700 0.000000
-4.601300 0.000000
-4.585900 0.000000
-4.570600 0.000000
-4.555200 0.000000
-4.539800 0.000000
-4.524500 0.000000
-4.509100 0.000000
-4.493700 0.000000
-4.478400 0.000000
-4.463000 0.000000
-4.447600 0.000000
-4.432300 0.000000
-4.416900 0.000000
-4.401500 0.000000
-4.386200 0.000000
-4.370800 0.000000
-4.355400 0.000000
-4.340100 0.000000
-4.324700 0.000000
-4.309300 0.000000
-4.294000 0.000000
-4.278600 0.000000
-4.263200 0.000000
-4.247900 0.000000
-4.232500 0.000000
-4.217100 0.000000
-4.201800 0.000000
-4.186400 0.000000
-4.171000 0.000000
-4.155600 0.000000
-4.140300 0.000000
-4.124900 0.000000
-4.109500 0.000000
-4.094200 0.000000
-4.078800 0.000000
-4.063400 0.000000
-4.048100 0.000000
-4.032700 0.000000
-4.017300 0.000000
-4.002000 0.000000
-3.986600 0.000000
-3.971200 0.000000
-3.955900 0.000000
-3.940500 0.000000
-3.925100 0.000000
-3.909800 0.000000
-3.894400 0.000000
-3.879000 0.000000
-3.863700 0.000000
-3.848300 0.000000
-3.832900 0.000000
-3.817600 0.000000
-3.802200 0.000000
-3.786800 0.000000
-3.771500 0.000000
-3.756100 0.000000
-3.740700 0.000000
-3.725400 0.000000
-3.710000 0.000000
-3.694600 0.000000
-3.679300 0.000000
-3.663900 0.000000
-3.648500 0.000000
-3.633200 0.000000
-3.617800 0.000000
-3.602400 0.000000
-3.587000 0.000000
-3.571700 0.000000
-3.556300 0.000000
-3.540900 0.000000
-3.525600 0.000000
-3.510200 0.000000
-3.494800 0.000000
-3.479500 0.000000
-3.464100 0.000000
-3.448700 0.000000
-3.433400 0.000000
-3.418000 0.000000
-3.402600 0.000000
-3.387300 0.000000
-3.371900 0.000000
-3.356500 0.000000
-3.341200 0.000000
-3.325800 0.000000
-3.310400 0.000000
-3.295100 0.000000
-3.279700 0.000000
-3.264300 0.000000
-3.249000 0.000000
-3.233600 0.000000
-3.218200 0.000200
-3.202900 0.001000
-3.187500 0.003700
-3.172100 0.011500
-3.156800 0.030400
-3.141400 0.068700
-3.126000 0.134200
-3.110700 0.231200
-3.095300 0.359900
-3.079900 0.521000
-3.064600 0.719300
-3.049200 0.958600
-3.033800 1.231900
-3.018400 1.520000
-3.003100 1.801700
-2.987700 2.059200
-2.972300 2.271200
-2.957000 2.407300
-2.941600 2.447300
-2.926200 2.410600
-2.910900 2.360800
-2.895500 2.369300
-2.880100 2.468500
-2.864800 2.638600
-2.849400 2.837400
-2.834000 3.033400
-2.818700 3.203500
-2.803300 3.310400
-2.787900 3.311500
-2.772600 3.201500
-2.757200 3.034900
-2.741800 2.885400
-2.726500 2.782800
-2.711100 2.694900
-2.695700 2.566100
-2.680400 2.373500
-2.665000 2.155500
-2.649600 2.005800
-2.634300 2.034800
-2.618900 2.309700
-2.603500 2.801000
-2.588200 3.373200
-2.572800 3.839500
-2.557400 4.051800
-2.542100 3.967500
-2.526700 3.651900
-2.511300 3.235600
-2.495900 2.861400
-2.480600 2.640400
-2.465200 2.616700
-2.449800 2.750300
-2.434500 2.931600
-2.419100 3.028400
-2.403700 2.950600
-2.388400 2.692300
-2.373000 2.319800
-2.357600 1.916900
-2.342300 1.538700
-2.326900 1.206900
-2.311500 0.927000
-2.296200 0.699000
-2.280800 0.515700
-2.265400 0.366000
-2.250100 0.245500
-2.234700 0.160800
-2.219300 0.124600
-2.204000 0.147400
-2.188600 0.235500
-2.173200 0.395800
-2.157900 0.639100
-2.142500 0.972600
-2.127100 1.372700
-2.111800 1.762200
-2.096400 2.033300
-2.081000 2.125000
-2.065700 2.089600
-2.050300 2.068300
-2.034900 2.179300
-2.019600 2.422200
-2.004200 2.693700
-1.988800 2.897400
-1.973500 3.031300
-1.958100 3.166600
-1.942700 3.356500
-1.927300 3.582200
-1.912000 3.779100
-1.896600 3.898600
-1.881200 3.942200
-1.865900 3.950700
-1.850500 3.969800
-1.835100 4.024700
-1.819800 4.106000
-1.804400 4.157400
-1.789000 4.081600
-1.773700 3.799700
-1.758300 3.331200
-1.742900 2.806800
-1.727600 2.385500
-1.712200 2.158100
-1.696800 2.127700
-1.681500 2.253100
-1.666100 2.484400
-1.650700 2.760100
-1.635400 3.000300
-1.620000 3.129500
-1.604600 3.111500
-1.589300 2.954900
-1.573900 2.689200
-1.558500 2.348900
-1.543200 1.982600
-1.527800 1.658900
-1.512400 1.441500
-1.497100 1.348800
-1.481700 1.348800
-1.466300 1.404600
-1.451000 1.529700
-1.435600 1.791000
-1.420200 2.247600
-1.404900 2.870800
-1.389500 3.514000
-1.374100 3.968900
-1.358700 4.087900
-1.343400 3.894100
-1.328000 3.599100
-1.312600 3.503300
-1.297300 3.828400
-1.281900 4.575700
-1.266500 5.499100
-1.251200 6.230800
-1.235800 6.489600
-1.220400 6.233100
-1.205100 5.644600
-1.189700 4.986000
-1.174300 4.446400
-1.159000 4.090700
-1.143600 3.902900
-1.128200 3.844400
-1.112900 3.870300
-1.097500 3.917900
-1.082100 3.905900
-1.066800 3.764200
-1.051400 3.474000
-1.036000 3.087300
-1.020700 2.709200
-1.005300 2.443900
-0.989900 2.335800
-0.974600 2.342900
-0.959200 2.365400
-0.943800 2.309200
-0.928500 2.137500
-0.913100 1.872400
-0.897700 1.561100
-0.882400 1.242900
-0.867000 0.940500
-0.851600 0.667300
-0.836200 0.435600
-0.820900 0.256200
-0.805500 0.133200
-0.790100 0.060200
-0.774800 0.023400
-0.759400 0.007700
-0.744000 0.002200
-0.728700 0.000500
-0.713300 0.000200
-0.697900 0.000200
-0.682600 0.000900
-0.667200 0.002700
-0.651800 0.007100
-0.636500 0.016100
-0.621100 0.032100
-0.605700 0.057800
-0.590400 0.097000
-0.575000 0.152900
-0.559600 0.224700
-0.544300 0.303600
-0.528900 0.378200
-0.513500 0.448600
-0.498200 0.532400
-0.482800 0.648600
-0.467400 0.792200
-0.452100 0.928900
-0.436700 1.024900
-0.421300 1.082200
-0.406000 1.138100
-0.390600 1.230000
-0.375200 1.364800
-0.359900 1.522300
-0.344500 1.680900
-0.329100 1.831100
-0.313800 1.975800
-0.298400 2.127500
-0.283000 2.303800
-0.267600 2.511700
-0.252300 2.736200
-0.236900 2.956800
-0.221500 3.174500
-0.206200 3.412100
-0.190800 3.686100
-0.175400 3.993700
-0.160100 4.341700
-0.144700 4.775900
-0.129300 5.362900
-0.114000 6.124600
-0.098600 6.977200
-0.083200 7.733600
-0.067900 8.186400
-0.052500 8.223800
-0.037100 7.882900
-0.021800 7.298900
-0.006400 6.616500
0.009000 5.958700
0.024300 5.453300
0.039700 5.238400
0.055100 5.406100
0.070400 5.929900
0.085800 6.648000
0.101200 7.320900
0.116500 7.725400
0.131900 7.737200
0.147300 7.378500
0.162600 6.812900
0.178000 6.277800
0.193400 5.986400
0.208700 6.057000
0.224100 6.483100
0.239500 7.106600
0.254800 7.616800
0.270200 7.655200
0.285600 7.017000
0.301000 5.789000
0.316300 4.289100
0.331700 2.867500
0.347100 1.743900
0.362400 0.973000
0.377800 0.501900
0.393200 0.240300
0.408500 0.106700
0.423900 0.043500
0.439300 0.016000
0.454600 0.005200
0.470000 0.001500
0.485400 0.000400
0.500700 0.000100
0.516100 0.000000
0.531500 0.000000
0.546800 0.000000
0.562200 0.000000
0.577600 0.000000
0.592900 0.000000
0.608300 0.000000
0.623700 0.000000
0.639000 0.000000
0.654400 0.000000
0.669800 0.000000
0.685100 0.000000
0.700500 0.000000
0.715900 0.000000
0.731200 0.000000
0.746600 0.000000
0.762000 0.000000
0.777300 0.000000
0.792700 0.000000
0.808100 0.000000
0.823500 0.000000
0.838800 0.000000
0.854200 0.000000
0.869600 0.000000
0.884900 0.000000
0.900300 0.000000
0.915700 0.000000
0.931000 0.000000
0.946400 0.000100
0.961800 0.000500
0.977100 0.001700
0.992500 0.005300
1.007900 0.014100
1.023200 0.032800
1.038600 0.068800
1.054000 0.132900
1.069300 0.240500
1.084700 0.410400
1.100100 0.662000
1.115400 1.012700
1.130800 1.479500
1.146200 2.076600
1.161500 2.807300
1.176900 3.665000
1.192300 4.652700
1.207600 5.793500
1.223000 7.090200
1.238400 8.448700
1.253700 9.642300
1.269100 10.378400
1.284500 10.432500
1.299800 9.758500
1.315200 8.509400
1.330600 6.976200
1.345900 5.478600
1.361300 4.249200
1.376700 3.362100
1.392100 2.751900
1.407400 2.305900
1.422800 1.955300
1.438200 1.695800
1.453500 1.542500
1.468900 1.478900
1.484300 1.449200
1.499600 1.392600
1.515000 1.283500
1.530400 1.144100
1.545700 1.019500
1.561100 0.936100
1.576500 0.878800
1.591800 0.807800
1.607200 0.695500
1.622600 0.546200
1.637900 0.386400
1.653300 0.244300
1.668700 0.136800
1.684000 0.067100
1.699400 0.028600
1.714800 0.010400
1.730100 0.003200
1.745500 0.000800
1.760900 0.000200
1.776200 0.000000
1.791600 0.000000
1.807000 0.000000
1.822300 0.000000
1.837700 0.000000
1.853100 0.000000
1.868400 0.000000
1.883800 0.000000
1.899200 0.000000
1.914500 0.000000
1.929900 0.000000
1.945300 0.000000
1.960700 0.000000
1.976000 0.000000
1.991400 0.000000
2.006800 0.000000
2.022100 0.000000
2.037500 0.000000
2.052900 0.000000
2.068200 0.000000
2.083600 0.000000
2.099000 0.000000
2.114300 0.000000
2.129700 0.000000
2.145100 0.000000
2.160400 0.000000
2.175800 0.000000
2.191200 0.000000
2.206500 0.000000
2.221900 0.000000
2.237300 0.000000
2.252600 0.000000
2.268000 0.000000
2.283400 0.000000
2.298700 0.000000
2.314100 0.000000
2.329500 0.000000
2.344800 0.000000
2.360200 0.000000
2.375600 0.000000
2.390900 0.000000
2.406300 0.000000
2.421700 0.000000
2.437000 0.000000
2.452400 0.000000
2.467800 0.000000
2.483200 0.000000
2.498500 0.000000
2.513900 0.000000
2.529300 0.000000
2.544600 0.000000
2.560000 0.000000
2.575400 0.000000
2.590700 0.000000
2.606100 0.000000
2.621500 0.000000
2.636800 0.000000
2.652200 0.000000
2.667600 0.000000
2.682900 0.000000
2.698300 0.000000
2.713700 0.000000
2.729000 0.000000
2.744400 0.000000
2.759800 0.000000
2.775100 0.000000
2.790500 0.000000
2.805900 0.000000
2.821200 0.000000
2.836600 0.000000
2.852000 0.000000
2.867300 0.000000
2.882700 0.000000
2.898100 0.000000
2.913400 0.000000
2.928800 0.000000
2.944200 0.000000
2.959500 0.000000
2.974900 0.000000
2.990300 0.000000
3.005600 0.000000
3.021000 0.000000
3.036400 0.000000
3.051800 0.000000
3.067100 0.000000
3.082500 0.000000
3.097900 0.000200
3.113200 0.001000
3.128600 0.003900
3.144000 0.012500
3.159300 0.033800
3.174700 0.076600
3.190100 0.146400
3.205400 0.237400
3.220800 0.331100
3.236200 0.406600
3.251500 0.458700
3.266900 0.506400
3.282300 0.583900
3.297600 0.725100
3.313000 0.952100
3.328400 1.264400
3.343700 1.621800
3.359100 1.941400
3.374500 2.133300
3.389800 2.165900
3.405200 2.107900
3.420600 2.094800
3.435900 2.239000
3.451300 2.563400
3.466700 3.020100
3.482000 3.558400
3.497400 4.148900
3.512800 4.732600
3.528100 5.179600
3.543500 5.338100
3.558900 5.134100
3.574200 4.617100
3.589600 3.915200
3.605000 3.163000
3.620400 2.465900
3.635700 1.903000
3.651100 1.540400
3.666500 1.427700
3.681800 1.570300
3.697200 1.899800
3.712600 2.290400
3.727900 2.638900
3.743300 2.946200
3.758700 3.310200
3.774000 3.824500
3.789400 4.476200
3.804800 5.137400
3.820100 5.637100
3.835500 5.835600
3.850900 5.669100
3.866200 5.180000
3.881600 4.516800
3.897000 3.870300
3.912300 3.378200
3.927700 3.078400
3.943100 2.930500
3.958400 2.859100
3.973800 2.787900
3.989200 2.671300
4.004500 2.511600
4.019900 2.341900
4.035300 2.193500
4.050600 2.087900
4.066000 2.048300
4.081400 2.100000
4.096700 2.250200
4.112100 2.473900
4.127500 2.722100
4.142900 2.947300
4.158200 3.128700
4.173600 3.282000
4.189000 3.446900
4.204300 3.655400
4.219700 3.901000
4.235100 4.129900
4.250400 4.262400
4.265800 4.235100
4.281200 4.035300
4.296500 3.702900
4.311900 3.300400
4.327300 2.886100
4.342600 2.506900
4.358000 2.199400
4.373400 1.975800
4.388700 1.806900
4.404100 1.635200
4.419500 1.420300
4.434800 1.177900
4.450200 0.966800
4.465600 0.837900
4.480900 0.800000
4.496300 0.835400
4.511700 0.936800
4.527000 1.121700
4.542400 1.404900
4.557800 1.759600
4.573100 2.112100
4.588500 2.383100
4.603900 2.532500
4.619200 2.555400
4.634600 2.446300
4.650000 2.193800
4.665300 1.822600
4.680700 1.420900
4.696100 1.101300
4.711500 0.927500
4.726800 0.879000
4.742200 0.881400
4.757600 0.865600
4.772900 0.810000
4.788300 0.740300
4.803700 0.698800
4.819000 0.707800
4.834400 0.752100
4.849800 0.789400
4.865100 0.781100
4.880500 0.721400
4.895900 0.645600
4.911200 0.609200
4.926600 0.654800
4.942000 0.789500
4.957300 0.983800
4.972700 1.183900
4.988100 1.328900
5.003400 1.374900
5.018800 1.320000
5.034200 1.213000
5.049500 1.130900
5.064900 1.138700
5.080300 1.257300
5.095600 1.458500
5.111000 1.681300
5.126400 1.858900
5.141700 1.945200
5.157100 1.933200
5.172500 1.854800
5.187800 1.756800
5.203200 1.669000
5.218600 1.590300
5.233900 1.501700
5.249300 1.391700
5.264700 1.265800
5.280100 1.136300
5.295400 1.012300
5.310800 0.904500
5.326200 0.831700
5.341500 0.809900
5.356900 0.828800
5.372300 0.846400
5.387600 0.818100
5.403000 0.735300
5.418400 0.644000
5.433700 0.632600
5.449100 0.803000
5.464500 1.230400
5.479800 1.906700
5.495200 2.693000
5.510600 3.339000
5.525900 3.599100
5.541300 3.380000
5.556700 2.798400
5.572000 2.103000
5.587400 1.534000
5.602800 1.224100
5.618100 1.178300
5.633500 1.311600
5.648900 1.514300
5.664200 1.718300
5.679600 1.930800
5.695000 2.207100
5.710300 2.582200
5.725700 3.019300
5.741100 3.420500
5.756400 3.689600
5.771800 3.795500
5.787200 3.778200
5.802600 3.690900
5.817900 3.538000
5.833300 3.279400
5.848700 2.895200
5.864000 2.435000
5.879400 1.994700
5.894800 1.649400
5.910100 1.408100
5.925500 1.226600
5.940900 1.053500
5.956200 0.867200
5.971600 0.680700
5.987000 0.519100
6.002300 0.395800
6.017700 0.304500
6.033100 0.229900
6.048400 0.162000
6.063800 0.101800
6.079200 0.055400
6.094500 0.025700
6.109900 0.010000
6.125300 0.003300
6.140600 0.000900
6.156000 0.000200
6.171400 0.000000
6.186700 0.000000
6.202100 0.000000
6.217500 0.000000
6.232800 0.000000
6.248200 0.000000
6.263600 0.000000
6.278900 0.000000
6.294300 0.000000
6.309700 0.000000
6.325000 0.000000
6.340400 0.000000
6.355800 0.000000
6.371200 0.000200
6.386500 0.000700
6.401900 0.002300
6.417300 0.006000
6.432600 0.012900
6.448000 0.023000
6.463400 0.034300
6.478700 0.042600
6.494100 0.044800
6.509500 0.041800
6.524800 0.038800
6.540200 0.042500
6.555600 0.055400
6.570900 0.073200
6.586300 0.086100
6.601700 0.086000
6.617000 0.071900
6.632400 0.050300
6.647800 0.030900
6.663100 0.021600
6.678500 0.028700
6.693900 0.059100
6.709200 0.118400
6.724600 0.202300
6.740000 0.289800
6.755300 0.347800
6.770700 0.351800
6.786100 0.303200
6.801400 0.227300
6.816800 0.153500
6.832200 0.099200
6.847500 0.069700
6.862900 0.065600
6.878300 0.087300
6.893600 0.132300
6.909000 0.191800
6.924400 0.254100
6.939800 0.310500
6.955100 0.355800
6.970500 0.382700
6.985900 0.380000
7.001200 0.343800
7.016600 0.290100
7.032000 0.254200
7.047300 0.271100
7.062700 0.350000
7.078100 0.461700
7.093400 0.554100
7.108800 0.589200
7.124200 0.570100
7.139500 0.529000
7.154900 0.491800
7.170300 0.457500
7.185600 0.412400
7.201000 0.354300
7.216400 0.300400
7.231700 0.276200
7.247100 0.303800
7.262500 0.394000
7.277800 0.543900
7.293200 0.735800
7.308600 0.936500
7.323900 1.097300
7.339300 1.165800
7.354700 1.112300
7.370000 0.955700
7.385400 0.758700
7.400800 0.595700
7.416100 0.523400
7.431500 0.571500
7.446900 0.741600
7.462300 1.001800
7.477600 1.289400
7.493000 1.540800
7.508400 1.729800
7.523700 1.878100
7.539100 2.023200
7.554500 2.176400
7.569800 2.317700
7.585200 2.439300
7.600600 2.581600
7.615900 2.803900
7.631300 3.113600
7.646700 3.439600
7.662000 3.681100
7.677400 3.769700
7.692800 3.690400
7.708100 3.472400
7.723500 3.179700
7.738900 2.895500
7.754200 2.692700
7.769600 2.608600
7.785000 2.639200
7.800300 2.746000
7.815700 2.872800
7.831100 2.974100
7.846400 3.040500
7.861800 3.091200
7.877200 3.142600
7.892500 3.191000
7.907900 3.225600
7.923300 3.240700
7.938600 3.226900
7.954000 3.161900
7.969400 3.022900
7.984700 2.809500
8.000100 2.545100
8.015500 2.261000
8.030900 1.990700
8.046200 1.775900
8.061600 1.661900
8.077000 1.677100
8.092300 1.821400
8.107700 2.074700
8.123100 2.410900
8.138400 2.802500
8.153800 3.221300
8.169200 3.639900
8.184500 4.028000
8.199900 4.345000
8.215300 4.548200
8.230600 4.622600
8.246000 4.603300
8.261400 4.554700
8.276700 4.521900
8.292100 4.502300
8.307500 4.458900
8.322800 4.354300
8.338200 4.173500
8.353600 3.936000
8.368900 3.699600
8.384300 3.543600
8.399700 3.521500
8.415000 3.618100
8.430400 3.751800
8.445800 3.827400
8.461100 3.802300
8.476500 3.720100
8.491900 3.681200
8.507200 3.756900
8.522600 3.910800
8.538000 4.004500
8.553300 3.892800
8.568700 3.525300
8.584100 2.970300
8.599500 2.360000
8.614800 1.823600
8.630200 1.456100
8.645600 1.311600
8.660900 1.397300
8.676300 1.668600
8.691700 2.040800
8.707000 2.421100
8.722400 2.751000
8.737800 3.031700
8.753100 3.309000
8.768500 3.624700
8.783900 3.973000
8.799200 4.295900
8.814600 4.516600
8.830000 4.586700
8.845300 4.525800
8.860700 4.424100
8.876100 4.389700
8.891400 4.470100
8.906800 4.612500
8.922200 4.698700
8.937500 4.627200
8.952900 4.389500
8.968300 4.087500
8.983600 3.865400
8.999000 3.805000
9.014400 3.875500
9.029700 3.975800
9.045100 4.011000
9.060500 3.925900
9.075800 3.696700
9.091200 3.333300
9.106600 2.897200
9.122000 2.488900
9.137300 2.192400
9.152700 2.027900
9.168100 1.952600
9.183400 1.899000
9.198800 1.818700
9.214200 1.711800
9.229500 1.625500
9.244900 1.620600
9.260300 1.729500
9.275600 1.944700
9.291000 2.239000
9.306400 2.583400
9.321700 2.939200
9.337100 3.242900
9.352500 3.421400
9.367800 3.434600
9.383200 3.303500
9.398600 3.091200
9.413900 2.854300
9.429300 2.612900
9.444700 2.365500
9.460000 2.121600
9.475400 1.912200
9.490800 1.769000
9.506100 1.701700
9.521500 1.697800
9.536900 1.741800
9.552200 1.826900
9.567600 1.949500
9.583000 2.099500
9.598300 2.259100
9.613700 2.405600
9.629100 2.515100
9.644400 2.570400
9.659800 2.565700
9.675200 2.500400
9.690600 2.373500
9.705900 2.194600
9.721300 2.002000
9.736700 1.865400
9.752000 1.863700
9.767400 2.045200
9.782800 2.385100
9.798100 2.776800
9.813500 3.081600
9.828900 3.207100
9.844200 3.147400
9.859600 2.956200
9.875000 2.695900
9.890300 2.415100
9.905700 2.153900
9.921100 1.944000
9.936400 1.795800
9.951800 1.697200
9.967200 1.632300
9.982500 1.594600
9.997900 1.580100
10.013300 1.574400
10.028600 1.560600
10.044000 1.546700
10.059400 1.573100
10.074700 1.685200
10.090100 1.899400
10.105500 2.202000
10.120800 2.569500
10.136200 2.975500
10.151600 3.377300
10.166900 3.713800
10.182300 3.925200
10.197700 3.980600
10.213000 3.887500
10.228400 3.677600
10.243800 3.388200
10.259200 3.063300
10.274500 2.772700
10.289900 2.611000
10.305300 2.651400
10.320600 2.881400
10.336000 3.182400
10.351400 3.384900
10.366700 3.367200
10.382100 3.133600
10.397500 2.819200
10.412800 2.610200
10.428200 2.629200
10.443600 2.860300
10.458900 3.167000
10.474300 3.393800
10.489700 3.477100
10.505000 3.480600
10.520400 3.527200
10.535800 3.694900
10.551100 3.962500
10.566500 4.230000
10.581900 4.376500
10.597200 4.319800
10.612600 4.060700
10.628000 3.694400
10.643300 3.373900
10.658700 3.233700
10.674100 3.313300
10.689400 3.528800
10.704800 3.724500
10.720200 3.778100
10.735500 3.677100
10.750900 3.504700
10.766300 3.354100
10.781700 3.258800
10.797000 3.199900
10.812400 3.161000
10.827800 3.156400
10.843100 3.212700
10.858500 3.339800
10.873900 3.529000
10.889200 3.765600
10.904600 4.035500
10.920000 4.319500
10.935300 4.582500
10.950700 4.760700
10.966100 4.767000
10.981400 4.528400
10.996800 4.041400
11.012200 3.404600
11.027500 2.793100
11.042900 2.381300
11.058300 2.257900
11.073600 2.385900
11.089000 2.631300
11.104400 2.837700
11.119700 2.903400
11.135100 2.817200
11.150500 2.638700
11.165800 2.444000
11.181200 2.284000
11.196600 2.182000
11.211900 2.151400
11.227300 2.196400
11.242700 2.292000
11.258000 2.377700
11.273400 2.396400
11.288800 2.345100
11.304100 2.283600
11.319500 2.298400
11.334900 2.465000
11.350300 2.827500
11.365600 3.368200
11.381000 3.976200
11.396400 4.472600
11.411700 4.709200
11.427100 4.658900
11.442500 4.414500
11.457800 4.114900
11.473200 3.881100
11.488600 3.788100
11.503900 3.846500
11.519300 3.990400
11.534700 4.106800
11.550000 4.105800
11.565400 3.974400
11.580800 3.771000
11.596100 3.574900
11.611500 3.439000
11.626900 3.373100
11.642200 3.355300
11.657600 3.357000
11.673000 3.368200
11.688300 3.399600
11.703700 3.454100
11.719100 3.500600
11.734400 3.501100
11.749800 3.476300
11.765200 3.522600
11.780500 3.730400
11.795900 4.067800
11.811300 4.357400
11.826600 4.395400
11.842000 4.114200
11.857400 3.637500
11.872700 3.179300
11.888100 2.891300
11.903500 2.798200
11.918900 2.847700
11.934200 2.987700
11.949600 3.191000
11.965000 3.430000
11.980300 3.649700
11.995700 3.764700
12.011100 3.689300
12.026400 3.400400
12.041800 2.984800
12.057200 2.611700
12.072500 2.433500
12.087900 2.500600
12.103300 2.756500
12.118600 3.088500
12.134000 3.375700
12.149400 3.528300
12.164700 3.523400
12.180100 3.412100
12.195500 3.276400
12.210800 3.179500
12.226200 3.158100
12.241600 3.235700
12.256900 3.412100
12.272300 3.639100
12.287700 3.824400
12.303000 3.875200
12.318400 3.750800
12.333800 3.486000
12.349100 3.166400
12.364500 2.874500
12.379900 2.649600
12.395200 2.492600
12.410600 2.392100
12.426000 2.339300
12.441400 2.323500
12.456700 2.332300
12.472100 2.366600
12.487500 2.450200
12.502800 2.616100
12.518200 2.880100
12.533600 3.226500
12.548900 3.609600
12.564300 3.955500
12.579700 4.164100
12.595000 4.139200
12.610400 3.849400
12.625800 3.365800
12.641100 2.831900
12.656500 2.400100
12.671900 2.198100
12.687200 2.317500
12.702600 2.775700
12.718000 3.454300
12.733300 4.096400
12.748700 4.425000
12.764100 4.321000
12.779400 3.905700
12.794800 3.442100
12.810200 3.150200
12.825500 3.094700
12.840900 3.198900
12.856300 3.323700
12.871600 3.350700
12.887000 3.239900
12.902400 3.032400
12.917700 2.798100
12.933100 2.588400
12.948500 2.440100
12.963800 2.398200
12.979200 2.498800
12.994600 2.723200
13.010000 2.994900
13.025300 3.238000
13.040700 3.431600
13.056100 3.594900
13.071400 3.729600
13.086800 3.797400
13.102200 3.755900
13.117500 3.600000
13.132900 3.362900
13.148300 3.094400
13.163600 2.849200
13.179000 2.673800
13.194400 2.584300
13.209700 2.556800
13.225100 2.556300
13.240500 2.581200
13.255800 2.678700
13.271200 2.911800
13.286600 3.301800
13.301900 3.787500
13.317300 4.238900
13.332700 4.527700
13.348000 4.609200
13.363400 4.545200
13.378800 4.446800
13.394100 4.394600
13.409500 4.403800
13.424900 4.442400
13.440200 4.458500
13.455600 4.399400
13.471000 4.231000
13.486300 3.959700
13.501700 3.635800
13.517100 3.333000
13.532400 3.118000
13.547800 3.024300
13.563200 3.038000
13.578600 3.100500
13.593900 3.136600
13.609300 3.098700
13.624700 2.994600
13.640000 2.866000
13.655400 2.740300
13.670800 2.613400
13.686100 2.482700
13.701500 2.378200
13.716900 2.341200
13.732200 2.375400
13.747600 2.437200
13.763000 2.480200
13.778300 2.499500
13.793700 2.527100
13.809100 2.592400
13.824400 2.694600
13.839800 2.802800
13.855200 2.873800
13.870500 2.876600
13.885900 2.820900
13.901300 2.766500
13.916600 2.792300
13.932000 2.934200
13.947400 3.146100
13.962700 3.327500
13.978100 3.398300
13.993500 3.351400
14.008800 3.242900
14.024200 3.144000
14.039600 3.098800
14.054900 3.107300
14.070300 3.131900
14.085700 3.128500
14.101100 3.094800
14.116400 3.094000
14.131800 3.213200
14.147200 3.479000
14.162500 3.811300
14.177900 4.073900
14.193300 4.181000
14.208600 4.156100
14.224000 4.089900
14.239400 4.056200
14.254700 4.072300
14.270100 4.125300
14.285500 4.211300
14.300800 4.339800
14.316200 4.513200
14.331600 4.708400
14.346900 4.870200
14.362300 4.916500
14.377700 4.772200
14.393000 4.426300
14.408400 3.960800
14.423800 3.510400
14.439100 3.188800
14.454500 3.047200
14.469900 3.078200
14.485200 3.227500
14.500600 3.403400
14.516000 3.510200
14.531300 3.500200
14.546700 3.396000
14.562100 3.253200
14.577400 3.110000
14.592800 2.983700
14.608200 2.907300
14.623500 2.935600
14.638900 3.088800
14.654300 3.297700
14.669700 3.430100
14.685000 3.385700
14.700400 3.172500
14.715800 2.897300
14.731100 2.687900
14.746500 2.609500
14.761900 2.637900
14.777200 2.696700
14.792600 2.722200
14.808000 2.700700
14.823300 2.661800
14.838700 2.643700
14.854100 2.661300
14.869400 2.690400
14.884800 2.673400
14.900200 2.545100
14.915500 2.271100
14.930900 1.871100
14.946300 1.413500
14.961600 0.984700
14.977000 0.657800
14.992400 0.469600
15.007700 0.410800
15.023100 0.432700
15.038500 0.471100
15.053800 0.478300
15.069200 0.443900
15.084600 0.390400
15.099900 0.352200
15.115300 0.348000
15.130700 0.366800
15.146000 0.374900
15.161400 0.343000
15.176800 0.269500
15.192100 0.178500
15.207500 0.098900
15.222900 0.045800
15.238300 0.017600
15.253600 0.005700
15.269000 0.001500
15.284400 0.000300
15.299700 0.000100
15.315100 0.000000
15.330500 0.000000
15.345800 0.000000
15.361200 0.000000
15.376600 0.000000
15.391900 0.000000
15.407300 0.000000
15.422700 0.000000
15.438000 0.000000
15.453400 0.000000
15.468800 0.000000
15.484100 0.000000
15.499500 0.000000
15.514900 0.000000
15.530200 0.000000
15.545600 0.000000
15.561000 0.000000
15.576300 0.000000
15.591700 0.000000
15.607100 0.000000
15.622400 0.000000
15.637800 0.000000
15.653200 0.000000
15.668500 0.000000
15.683900 0.000000
15.699300 0.000000
15.714600 0.000000
15.730000 0.000000
15.745400 0.000000
15.760800 0.000000
15.776100 0.000000
15.791500 0.000000
15.806900 0.000000
15.822200 0.000000
15.837600 0.000000
15.853000 0.000000
15.868300 0.000000
15.883700 0.000000
15.899100 0.000000
15.914400 0.000000
15.929800 0.000000
15.945200 0.000000
15.960500 0.000000
15.975900 0.000000
15.991300 0.000000
16.006600 0.000000
16.022000 0.000000
16.037400 0.000000
16.052700 0.000000
16.068100 0.000000
16.083500 0.000000
16.098800 0.000000
16.114200 0.000000
16.129600 0.000000
16.144900 0.000000
16.160300 0.000000
16.175700 0.000000
16.191000 0.000000
16.206400 0.000000
16.221800 0.000000
16.237100 0.000000
16.252500 0.000000
16.267900 0.000000
16.283200 0.000000
16.298600 0.000000
16.314000 0.000000
16.329400 0.000000
16.344700 0.000000
16.360100 0.000000
16.375500 0.000000
16.390800 0.000000
16.406200 0.000000
16.421600 0.000000
16.436900 0.000000
16.452300 0.000000
16.467700 0.000000
16.483000 0.000000
16.498400 0.000000
16.513800 0.000000
16.529100 0.000000
16.544500 0.000000
e
