set title 'mp-640917 - Density of States'
set xlabel 'Energy (eV)'
set ylabel 'DOS (states/eV)'
set grid
set xrange [-10:10]
set yrange [0:21.621]
set xzeroaxis lt -1
set terminal png size 800,600
set output 'mp-640917_dos_gnuplot.png'
plot '-' using 1:2 with lines title 'DOS'
-22.141800 0.000000
-22.120600 0.000000
-22.099400 0.000000
-22.078200 0.000000
-22.057100 0.000000
-22.035900 0.000000
-22.014700 0.000000
-21.993500 0.000000
-21.972300 0.000000
-21.951200 0.000000
-21.930000 0.000000
-21.908800 0.000000
-21.887600 0.000000
-21.866500 0.000000
-21.845300 0.000000
-21.824100 0.000000
-21.802900 0.000000
-21.781700 0.000000
-21.760600 0.000000
-21.739400 0.000000
-21.718200 0.000000
-21.697000 0.000000
-21.675900 0.000000
-21.654700 0.000000
-21.633500 0.000000
-21.612300 0.000000
-21.591200 0.000000
-21.570000 0.000000
-21.548800 0.000000
-21.527600 0.000000
-21.506400 0.000000
-21.485300 0.000000
-21.464100 0.000000
-21.442900 0.000000
-21.421700 0.000000
-21.400600 0.000000
-21.379400 0.000000
-21.358200 0.000000
-21.337000 0.000000
-21.315800 0.000000
-21.294700 0.000000
-21.273500 0.000000
-21.252300 0.000000
-21.231100 0.000000
-21.210000 0.000000
-21.188800 0.000000
-21.167600 0.000000
-21.146400 0.000000
-21.125300 0.000000
-21.104100 0.000000
-21.082900 0.000000
-21.061700 0.000000
-21.040500 0.000000
-21.019400 0.000000
-20.998200 0.000000
-20.977000 0.000000
-20.955800 0.000000
-20.934700 0.000000
-20.913500 0.000000
-20.892300 0.000000
-20.871100 0.000000
-20.850000 0.000000
-20.828800 0.000000
-20.807600 0.000000
-20.786400 0.000000
-20.765200 0.000000
-20.744100 0.000000
-20.722900 0.000000
-20.701700 0.000000
-20.680500 0.000000
-20.659400 0.000000
-20.638200 0.000000
-20.617000 0.000000
-20.595800 0.000000
-20.574600 0.000000
-20.553500 0.000000
-20.532300 0.000000
-20.511100 0.000000
-20.489900 0.000000
-20.468800 0.000000
-20.447600 0.000000
-20.426400 0.000000
-20.405200 0.000000
-20.384100 0.000000
-20.362900 0.000000
-20.341700 0.000000
-20.320500 0.000000
-20.299300 0.000000
-20.278200 0.000000
-20.257000 0.000000
-20.235800 0.000000
-20.214600 0.007700
-20.193500 1.103800
-20.172300 3.309800
-20.151100 4.115500
-20.129900 5.466100
-20.108800 7.085300
-20.087600 8.879700
-20.066400 11.817400
-20.045200 15.201900
-20.024000 29.442200
-20.002900 14.074800
-19.981700 7.418600
-19.960500 8.315000
-19.939300 20.914500
-19.918200 21.340900
-19.897000 18.688300
-19.875800 7.116700
-19.854600 6.321600
-19.833400 14.365400
-19.812300 33.365300
-19.791100 16.112000
-19.769900 11.207800
-19.748700 8.310000
-19.727600 6.405000
-19.706400 4.610600
-19.685200 3.522400
-19.664000 1.065100
-19.642900 0.000000
-19.621700 0.000000
-19.600500 0.000000
-19.579300 0.000000
-19.558100 0.000000
-19.537000 0.000000
-19.515800 0.000000
-19.494600 0.000000
-19.473400 0.000000
-19.452300 0.000000
-19.431100 0.000000
-19.409900 0.000000
-19.388700 0.000000
-19.367600 0.000000
-19.346400 0.000000
-19.325200 0.000000
-19.304000 0.000000
-19.282800 0.000000
-19.261700 0.000000
-19.240500 0.000000
-19.219300 0.000000
-19.198100 0.000000
-19.177000 0.000000
-19.155800 0.000000
-19.134600 0.000000
-19.113400 0.000000
-19.092200 0.000000
-19.071100 0.000000
-19.049900 0.000000
-19.028700 0.000000
-19.007500 0.000000
-18.986400 0.000000
-18.965200 0.000000
-18.944000 0.000000
-18.922800 0.000000
-18.901700 0.000000
-18.880500 0.000000
-18.859300 0.000000
-18.838100 0.000000
-18.816900 0.000000
-18.795800 0.000000
-18.774600 0.000000
-18.753400 0.000000
-18.732200 0.000000
-18.711100 0.000000
-18.689900 0.000000
-18.668700 0.000000
-18.647500 0.000000
-18.626300 0.000000
-18.605200 0.000000
-18.584000 0.000000
-18.562800 0.000000
-18.541600 0.000000
-18.520500 0.000000
-18.499300 0.000000
-18.478100 0.000000
-18.456900 0.000000
-18.435800 0.000000
-18.414600 0.000000
-18.393400 0.000000
-18.372200 0.000000
-18.351000 0.000000
-18.329900 0.000000
-18.308700 0.000000
-18.287500 0.000000
-18.266300 0.000000
-18.245200 0.000000
-18.224000 0.000000
-18.202800 0.000000
-18.181600 0.000000
-18.160500 0.000000
-18.139300 0.000000
-18.118100 0.000000
-18.096900 0.000000
-18.075700 0.000000
-18.054600 0.000000
-18.033400 0.000000
-18.012200 0.000000
-17.991000 0.000000
-17.969900 0.000000
-17.948700 0.000000
-17.927500 0.000000
-17.906300 0.000000
-17.885100 0.000000
-17.864000 0.000000
-17.842800 0.000000
-17.821600 0.000000
-17.800400 0.000000
-17.779300 0.000000
-17.758100 0.000000
-17.736900 0.000000
-17.715700 0.000000
-17.694600 0.000000
-17.673400 0.000000
-17.652200 0.000000
-17.631000 0.000000
-17.609800 0.000000
-17.588700 0.000000
-17.567500 0.000000
-17.546300 0.000000
-17.525100 0.000000
-17.504000 0.000000
-17.482800 0.000000
-17.461600 0.000000
-17.440400 0.000000
-17.419300 0.000000
-17.398100 0.000000
-17.376900 0.000000
-17.355700 0.000000
-17.334500 0.000000
-17.313400 0.000000
-17.292200 0.000000
-17.271000 0.000000
-17.249800 0.000000
-17.228700 0.000000
-17.207500 0.000000
-17.186300 0.000000
-17.165100 0.000000
-17.143900 0.000000
-17.122800 0.000000
-17.101600 0.000000
-17.080400 0.000000
-17.059200 0.000000
-17.038100 0.000000
-17.016900 0.000000
-16.995700 0.000000
-16.974500 0.000000
-16.953400 0.000000
-16.932200 0.000000
-16.911000 0.000000
-16.889800 0.000000
-16.868600 0.000000
-16.847500 0.000000
-16.826300 0.000000
-16.805100 0.000000
-16.783900 0.000000
-16.762800 0.000000
-16.741600 0.000000
-16.720400 0.000000
-16.699200 0.000000
-16.678000 0.000000
-16.656900 0.000000
-16.635700 0.000000
-16.614500 0.000000
-16.593300 0.000000
-16.572200 0.000000
-16.551000 0.000000
-16.529800 0.000000
-16.508600 0.000000
-16.487500 0.000000
-16.466300 0.000000
-16.445100 0.000000
-16.423900 0.000000
-16.402700 0.000000
-16.381600 0.000000
-16.360400 0.000000
-16.339200 0.000000
-16.318000 0.000000
-16.296900 0.000000
-16.275700 0.000000
-16.254500 0.000000
-16.233300 0.000000
-16.212200 0.000000
-16.191000 0.000000
-16.169800 0.000000
-16.148600 0.000000
-16.127400 0.000000
-16.106300 0.000000
-16.085100 0.000000
-16.063900 0.000000
-16.042700 0.000000
-16.021600 0.000000
-16.000400 0.000000
-15.979200 0.000000
-15.958000 0.000000
-15.936800 0.000000
-15.915700 0.000000
-15.894500 0.000000
-15.873300 0.000000
-15.852100 0.000000
-15.831000 0.000000
-15.809800 0.000000
-15.788600 0.000000
-15.767400 0.000000
-15.746300 0.000000
-15.725100 0.000000
-15.703900 0.000000
-15.682700 0.000000
-15.661500 0.000000
-15.640400 0.000000
-15.619200 0.000000
-15.598000 0.000000
-15.576800 0.000000
-15.555700 0.000000
-15.534500 0.000000
-15.513300 0.000000
-15.492100 0.000000
-15.471000 0.000000
-15.449800 0.000000
-15.428600 0.000000
-15.407400 0.000000
-15.386200 0.000000
-15.365100 0.000000
-15.343900 0.000000
-15.322700 0.000000
-15.301500 0.000000
-15.280400 0.000000
-15.259200 0.000000
-15.238000 0.000000
-15.216800 0.000000
-15.195600 0.000000
-15.174500 0.000000
-15.153300 0.000000
-15.132100 0.000000
-15.110900 0.000000
-15.089800 0.000000
-15.068600 0.000000
-15.047400 0.000000
-15.026200 0.000000
-15.005100 0.000000
-14.983900 0.000000
-14.962700 0.000000
-14.941500 0.000000
-14.920300 0.000000
-14.899200 0.000000
-14.878000 0.000000
-14.856800 0.000000
-14.835600 0.000000
-14.814500 0.000000
-14.793300 0.000000
-14.772100 0.000000
-14.750900 0.000000
-14.729800 0.000000
-14.708600 0.000000
-14.687400 0.000000
-14.666200 12.011700
-14.645000 25.254600
-14.623900 16.398100
-14.602700 9.867400
-14.581500 9.870700
-14.560300 9.874500
-14.539200 9.878700
-14.518000 6.707600
-14.496800 6.820900
-14.475600 6.821000
-14.454400 6.821200
-14.433300 6.821400
-14.412100 6.821700
-14.390900 6.822000
-14.369700 6.493100
-14.348600 6.450400
-14.327400 6.449800
-14.306200 6.449300
-14.285000 6.448900
-14.263900 6.448600
-14.242700 6.448300
-14.221500 3.620700
-14.200300 8.174300
-14.179100 8.173500
-14.158000 8.173000
-14.136800 8.172900
-14.115600 8.173200
-14.094400 8.173800
-14.073300 20.290800
-14.052100 20.280600
-14.030900 1.989000
-14.009700 0.000000
-13.988500 0.000000
-13.967400 0.000000
-13.946200 0.000000
-13.925000 0.000000
-13.903800 0.000000
-13.882700 0.000000
-13.861500 0.000000
-13.840300 0.000000
-13.819100 0.000000
-13.798000 0.000000
-13.776800 0.000000
-13.755600 0.000000
-13.734400 0.000000
-13.713200 0.000000
-13.692100 0.000000
-13.670900 0.000000
-13.649700 0.000000
-13.628500 0.000000
-13.607400 0.000000
-13.586200 0.000000
-13.565000 0.000000
-13.543800 0.000000
-13.522700 0.000000
-13.501500 0.000000
-13.480300 0.000000
-13.459100 0.000000
-13.437900 0.000000
-13.416800 0.000000
-13.395600 0.000000
-13.374400 0.000000
-13.353200 0.000000
-13.332100 0.000000
-13.310900 0.000000
-13.289700 0.000000
-13.268500 0.000000
-13.247300 0.000000
-13.226200 0.000000
-13.205000 0.000000
-13.183800 0.000000
-13.162600 0.000000
-13.141500 0.000000
-13.120300 0.000000
-13.099100 0.000000
-13.077900 0.000000
-13.056800 0.000000
-13.035600 0.000000
-13.014400 0.000000
-12.993200 0.000000
-12.972000 0.000000
-12.950900 0.000000
-12.929700 0.000000
-12.908500 0.000000
-12.887300 0.000000
-12.866200 0.000000
-12.845000 0.000000
-12.823800 0.000000
-12.802600 0.000000
-12.781500 0.000000
-12.760300 0.000000
-12.739100 0.000000
-12.717900 0.000000
-12.696700 0.000000
-12.675600 0.000000
-12.654400 0.000000
-12.633200 0.000000
-12.612000 0.000000
-12.590900 0.000000
-12.569700 0.000000
-12.548500 0.000000
-12.527300 0.000000
-12.506100 0.000000
-12.485000 0.000000
-12.463800 0.000000
-12.442600 0.000000
-12.421400 0.000000
-12.400300 0.000000
-12.379100 0.000000
-12.357900 0.000000
-12.336700 0.000000
-12.315600 0.000000
-12.294400 0.000000
-12.273200 0.000000
-12.252000 0.000000
-12.230800 0.000000
-12.209700 0.000000
-12.188500 0.000000
-12.167300 0.000000
-12.146100 0.000000
-12.125000 0.000000
-12.103800 0.000000
-12.082600 0.000000
-12.061400 0.000000
-12.040300 0.000000
-12.019100 0.000000
-11.997900 0.000000
-11.976700 0.000000
-11.955500 0.000000
-11.934400 0.000000
-11.913200 0.000000
-11.892000 0.000000
-11.870800 0.000000
-11.849700 0.000000
-11.828500 0.000000
-11.807300 0.000000
-11.786100 0.000000
-11.764900 0.000000
-11.743800 0.000000
-11.722600 0.000000
-11.701400 0.000000
-11.680200 0.000000
-11.659100 0.000000
-11.637900 0.000000
-11.616700 0.000000
-11.595500 0.000000
-11.574400 0.000000
-11.553200 0.000000
-11.532000 0.000000
-11.510800 0.000000
-11.489600 0.000000
-11.468500 0.000000
-11.447300 0.000000
-11.426100 0.000000
-11.404900 0.000000
-11.383800 0.000000
-11.362600 0.000000
-11.341400 0.000000
-11.320200 0.000000
-11.299000 0.000000
-11.277900 0.000000
-11.256700 0.000000
-11.235500 0.000000
-11.214300 0.000000
-11.193200 0.000000
-11.172000 0.000000
-11.150800 0.000000
-11.129600 0.000000
-11.108500 0.000000
-11.087300 0.000000
-11.066100 0.000000
-11.044900 0.000000
-11.023700 0.000000
-11.002600 0.000000
-10.981400 0.000000
-10.960200 0.000000
-10.939000 0.000000
-10.917900 0.000000
-10.896700 0.000000
-10.875500 0.000000
-10.854300 0.000000
-10.833200 0.000000
-10.812000 0.000000
-10.790800 0.000000
-10.769600 0.000000
-10.748400 0.000000
-10.727300 0.000000
-10.706100 0.000000
-10.684900 0.000000
-10.663700 0.000000
-10.642600 0.000000
-10.621400 0.000000
-10.600200 0.000000
-10.579000 0.000000
-10.557800 0.000000
-10.536700 0.000000
-10.515500 0.000000
-10.494300 0.000000
-10.473100 0.000000
-10.452000 0.000000
-10.430800 0.000000
-10.409600 0.000000
-10.388400 0.000000
-10.367300 0.000000
-10.346100 0.000000
-10.324900 0.000000
-10.303700 0.000000
-10.282500 0.000000
-10.261400 0.000000
-10.240200 0.000000
-10.219000 0.000000
-10.197800 0.000000
-10.176700 0.000000
-10.155500 0.000000
-10.134300 0.000000
-10.113100 0.000000
-10.092000 0.000000
-10.070800 0.000000
-10.049600 0.000000
-10.028400 0.000000
-10.007200 0.000000
-9.986100 0.000000
-9.964900 0.000000
-9.943700 0.000000
-9.922500 0.000000
-9.901400 0.000000
-9.880200 0.000000
-9.859000 0.000000
-9.837800 0.000000
-9.816600 0.000000
-9.795500 0.000000
-9.774300 0.000000
-9.753100 0.000000
-9.731900 0.000000
-9.710800 0.000000
-9.689600 0.000000
-9.668400 0.000000
-9.647200 0.000000
-9.626100 0.000000
-9.604900 0.000000
-9.583700 0.000000
-9.562500 0.000000
-9.541300 0.000000
-9.520200 0.000000
-9.499000 0.000000
-9.477800 0.000000
-9.456600 0.000000
-9.435500 0.000000
-9.414300 0.000000
-9.393100 0.000000
-9.371900 0.000000
-9.350700 0.000000
-9.329600 0.000000
-9.308400 0.000000
-9.287200 0.000000
-9.266000 0.000000
-9.244900 0.000000
-9.223700 0.000000
-9.202500 0.000000
-9.181300 0.000000
-9.160200 0.000000
-9.139000 0.000000
-9.117800 0.000000
-9.096600 0.000000
-9.075400 0.000000
-9.054300 0.000000
-9.033100 0.000000
-9.011900 0.000000
-8.990700 0.000000
-8.969600 0.000000
-8.948400 0.000000
-8.927200 0.000000
-8.906000 0.000000
-8.884900 0.000000
-8.863700 0.000000
-8.842500 0.000000
-8.821300 0.000000
-8.800100 0.000000
-8.779000 0.000000
-8.757800 0.000000
-8.736600 0.000000
-8.715400 0.000000
-8.694300 0.000000
-8.673100 0.000000
-8.651900 0.000000
-8.630700 0.000000
-8.609500 0.000000
-8.588400 0.000000
-8.567200 0.000000
-8.546000 0.000000
-8.524800 0.000000
-8.503700 0.000000
-8.482500 0.000000
-8.461300 0.000000
-8.440100 0.000000
-8.419000 0.000000
-8.397800 0.000000
-8.376600 0.000000
-8.355400 0.000000
-8.334200 0.000000
-8.313100 0.000000
-8.291900 0.000000
-8.270700 0.000000
-8.249500 0.000000
-8.228400 0.000000
-8.207200 0.000000
-8.186000 0.000000
-8.164800 0.000000
-8.143700 0.000000
-8.122500 0.000000
-8.101300 0.000000
-8.080100 0.000000
-8.058900 0.000000
-8.037800 0.000000
-8.016600 0.000000
-7.995400 0.000000
-7.974200 0.000000
-7.953100 0.000000
-7.931900 0.000000
-7.910700 0.000000
-7.889500 0.000000
-7.868300 0.000000
-7.847200 0.000000
-7.826000 0.000000
-7.804800 0.000000
-7.783600 0.000000
-7.762500 0.000000
-7.741300 0.000000
-7.720100 0.000000
-7.698900 0.000000
-7.677800 0.000000
-7.656600 0.000000
-7.635400 0.003100
-7.614200 0.300400
-7.593000 1.543000
-7.571900 2.156800
-7.550700 2.703800
-7.529500 3.184100
-7.508300 3.597700
-7.487200 3.944900
-7.466000 4.226000
-7.444800 4.278400
-7.423600 3.728300
-7.402500 3.587000
-7.381300 3.471500
-7.360100 3.381900
-7.338900 3.318700
-7.317700 3.301400
-7.296600 3.345100
-7.275400 3.353900
-7.254200 3.323100
-7.233000 3.252600
-7.211900 3.146000
-7.190700 3.038100
-7.169500 2.937900
-7.148300 2.818200
-7.127100 2.711200
-7.106000 2.635000
-7.084800 2.589700
-7.063600 2.498900
-7.042400 2.211800
-7.021300 1.698300
-7.000100 1.335900
-6.978900 1.128700
-6.957700 0.978200
-6.936600 0.871900
-6.915400 0.809700
-6.894200 0.783400
-6.873000 0.774700
-6.851800 0.812100
-6.830700 0.934800
-6.809500 1.082800
-6.788300 1.234800
-6.767100 1.338400
-6.746000 1.413400
-6.724800 1.479600
-6.703600 1.538900
-6.682400 1.591300
-6.661200 1.677800
-6.640100 1.714800
-6.618900 1.715500
-6.597700 1.715700
-6.576500 1.715900
-6.555400 1.716100
-6.534200 1.716300
-6.513000 1.716500
-6.491800 1.716700
-6.470700 1.716900
-6.449500 1.717100
-6.428300 1.717300
-6.407100 1.717600
-6.385900 1.717800
-6.364800 1.718000
-6.343600 1.718200
-6.322400 1.718400
-6.301200 1.716900
-6.280100 1.696700
-6.258900 1.638500
-6.237700 1.587500
-6.216500 1.548500
-6.195400 1.520200
-6.174200 1.502200
-6.153000 1.488200
-6.131800 1.476500
-6.110600 1.467100
-6.089500 1.461300
-6.068300 1.458500
-6.047100 1.457600
-6.025900 1.457700
-6.004800 1.457800
-5.983600 1.457900
-5.962400 1.458000
-5.941200 1.458100
-5.920000 1.458200
-5.898900 1.458300
-5.877700 1.458500
-5.856500 1.458600
-5.835300 1.458700
-5.814200 1.458900
-5.793000 1.459000
-5.771800 1.459100
-5.750600 1.459300
-5.729500 1.459400
-5.708300 1.459600
-5.687100 1.459800
-5.665900 1.459900
-5.644700 1.460100
-5.623600 1.460300
-5.602400 1.460500
-5.581200 1.460600
-5.560000 1.460800
-5.538900 1.053200
-5.517700 1.323800
-5.496500 1.490400
-5.475300 1.622400
-5.454200 1.912300
-5.433000 1.912000
-5.411800 1.911700
-5.390600 1.911500
-5.369400 1.911300
-5.348300 1.911100
-5.327100 1.911000
-5.305900 1.910900
-5.284700 1.910800
-5.263600 1.910700
-5.242400 1.910600
-5.221200 1.910600
-5.200000 1.910600
-5.178800 1.910700
-5.157700 1.910700
-5.136500 1.910800
-5.115300 1.910900
-5.094100 1.911000
-5.073000 1.911200
-5.051800 1.911400
-5.030600 2.030900
-5.009400 2.378900
-4.988300 3.033300
-4.967100 4.248100
-4.945900 5.140800
-4.924700 5.301800
-4.903500 5.296000
-4.882400 5.204000
-4.861200 4.944500
-4.840000 4.550100
-4.818800 4.042500
-4.797700 3.400300
-4.776500 1.903400
-4.755300 0.690500
-4.734100 1.418100
-4.712900 6.519500
-4.691800 12.167300
-4.670600 11.248100
-4.649400 10.739200
-4.628200 9.579000
-4.607100 5.993400
-4.585900 4.677900
-4.564700 3.725500
-4.543500 3.350900
-4.522400 3.481700
-4.501200 4.351000
-4.480000 5.472700
-4.458800 6.534200
-4.437600 7.544100
-4.416500 9.903600
-4.395300 12.848000
-4.374100 11.476600
-4.352900 9.198100
-4.331800 7.918100
-4.310600 7.175000
-4.289400 6.672700
-4.268200 6.977700
-4.247100 9.105400
-4.225900 11.492900
-4.204700 11.755400
-4.183500 12.430300
-4.162300 13.557900
-4.141200 14.472600
-4.120000 14.257500
-4.098800 10.798200
-4.077600 7.745400
-4.056500 5.447100
-4.035300 0.401500
-4.014100 0.000000
-3.992900 0.000000
-3.971700 0.000000
-3.950600 0.000000
-3.929400 0.000000
-3.908200 0.000000
-3.887000 0.000000
-3.865900 0.000000
-3.844700 0.000000
-3.823500 0.000000
-3.802300 0.000000
-3.781200 0.000000
-3.760000 0.000000
-3.738800 0.000000
-3.717600 0.000000
-3.696400 0.000000
-3.675300 0.000000
-3.654100 0.000000
-3.632900 0.000000
-3.611700 0.000000
-3.590600 0.000000
-3.569400 0.000000
-3.548200 0.000000
-3.527000 0.000000
-3.505900 0.000000
-3.484700 0.000000
-3.463500 0.000000
-3.442300 0.000000
-3.421100 0.000000
-3.400000 0.000000
-3.378800 0.009100
-3.357600 0.069900
-3.336400 0.179100
-3.315300 0.310000
-3.294100 0.460800
-3.272900 0.631500
-3.251700 0.962000
-3.230500 2.047000
-3.209400 3.510400
-3.188200 5.025100
-3.167000 6.816500
-3.145800 8.531600
-3.124700 10.604800
-3.103500 12.833900
-3.082300 12.176900
-3.061100 11.245100
-3.040000 9.692200
-3.018800 6.827900
-2.997600 4.382400
-2.976400 3.599900
-2.955200 5.990300
-2.934100 7.474500
-2.912900 7.840100
-2.891700 9.688100
-2.870500 9.188300
-2.849400 9.213800
-2.828200 9.268700
-2.807000 9.630500
-2.785800 10.116600
-2.764700 10.138100
-2.743500 11.913400
-2.722300 5.598900
-2.701100 3.938000
-2.679900 3.638200
-2.658800 3.529400
-2.637600 3.664400
-2.616400 3.979000
-2.595200 4.375400
-2.574100 4.974600
-2.552900 5.889000
-2.531700 8.278200
-2.510500 12.372800
-2.489300 16.260100
-2.468200 4.643800
-2.447000 1.569700
-2.425800 0.996700
-2.404600 0.553300
-2.383500 0.239500
-2.362300 0.055100
-2.341100 0.000000
-2.319900 0.000000
-2.298800 0.000000
-2.277600 0.000000
-2.256400 0.000000
-2.235200 0.000000
-2.214000 0.000000
-2.192900 0.000000
-2.171700 0.000000
-2.150500 0.000000
-2.129300 0.000000
-2.108200 0.000000
-2.087000 0.000000
-2.065800 0.000000
-2.044600 0.000000
-2.023400 0.000000
-2.002300 0.000000
-1.981100 0.000000
-1.959900 0.000800
-1.938700 0.008300
-1.917600 0.024100
-1.896400 0.047900
-1.875200 0.079900
-1.854000 0.120000
-1.832900 0.168300
-1.811700 0.657600
-1.790500 1.386500
-1.769300 1.683300
-1.748100 2.007900
-1.727000 2.612900
-1.705800 3.062200
-1.684600 2.765700
-1.663400 2.623700
-1.642300 2.663900
-1.621100 2.777200
-1.599900 2.921900
-1.578700 3.098500
-1.557600 3.307100
-1.536400 3.559700
-1.515200 3.906300
-1.494000 4.326200
-1.472800 5.556600
-1.451700 5.918100
-1.430500 6.187500
-1.409300 6.364600
-1.388100 6.447700
-1.367000 6.434800
-1.345800 5.790200
-1.324600 5.125100
-1.303400 4.739200
-1.282200 4.485400
-1.261100 4.461700
-1.239900 4.042200
-1.218700 3.525300
-1.197500 3.386700
-1.176400 3.622200
-1.155200 4.143000
-1.134000 4.928000
-1.112800 6.213700
-1.091700 9.849500
-1.070500 9.146100
-1.049300 8.209300
-1.028100 7.946100
-1.006900 7.551100
-0.985800 6.844000
-0.964600 7.397400
-0.943400 4.058400
-0.922200 3.490800
-0.901100 3.776700
-0.879900 5.187800
-0.858700 6.534300
-0.837500 8.256000
-0.816400 8.877100
-0.795200 8.256800
-0.774000 7.756200
-0.752800 7.649800
-0.731600 6.786100
-0.710500 5.966400
-0.689300 5.307700
-0.668100 4.310800
-0.646900 2.528100
-0.625800 1.449700
-0.604600 0.900200
-0.583400 0.481100
-0.562200 0.192200
-0.541000 0.033500
-0.519900 0.000000
-0.498700 0.000000
-0.477500 0.000000
-0.456300 0.000000
-0.435200 0.000000
-0.414000 0.000000
-0.392800 0.000000
-0.371600 0.000000
-0.350500 0.411600
-0.329300 1.834500
-0.308100 3.530800
-0.286900 2.758600
-0.265700 3.397400
-0.244600 4.405200
-0.223400 5.848500
-0.202200 7.926400
-0.181000 14.032300
-0.159900 16.947800
-0.138700 16.501300
-0.117500 13.124500
-0.096300 9.548800
-0.075100 8.113300
-0.054000 7.482400
-0.032800 6.818800
-0.011600 6.975100
0.009600 7.143100
0.030700 7.423300
0.051900 8.260800
0.073100 11.894600
0.094300 13.799900
0.115400 14.972200
0.136600 11.332300
0.157800 6.979000
0.179000 6.145600
0.200200 5.714000
0.221300 5.320000
0.242500 5.163900
0.263700 6.380500
0.284900 8.000400
0.306000 8.892800
0.327200 8.850600
0.348400 7.650500
0.369600 4.900400
0.390700 2.768900
0.411900 1.442500
0.433100 0.543500
0.454300 0.074800
0.475500 0.000000
0.496600 0.000000
0.517800 0.000000
0.539000 0.000000
0.560200 0.014100
0.581300 0.123600
0.602500 0.341700
0.623700 0.668300
0.644900 1.103400
0.666100 1.647100
0.687200 5.006900
0.708400 8.035200
0.729600 9.296500
0.750800 8.941900
0.771900 8.344100
0.793100 7.566500
0.814300 6.276700
0.835500 5.662000
0.856600 5.375500
0.877800 5.291900
0.899000 5.529400
0.920200 6.163100
0.941400 9.613400
0.962500 10.758600
0.983700 10.281100
1.004900 9.114500
1.026100 7.250200
1.047200 5.757500
1.068400 5.729000
1.089600 6.038600
1.110800 6.356600
1.131900 6.529100
1.153100 6.372700
1.174300 5.810200
1.195500 3.983600
1.216700 2.588600
1.237800 2.082200
1.259000 1.722100
1.280200 1.336800
1.301400 0.925600
1.322500 0.342000
1.343700 0.175200
1.364900 0.645400
1.386100 0.960000
1.407300 1.316800
1.428400 1.765100
1.449600 1.763800
1.470800 1.762500
1.492000 1.761300
1.513100 1.760200
1.534300 1.759200
1.555500 1.758200
1.576700 1.757400
1.597800 1.756600
1.619000 1.755900
1.640200 1.755200
1.661400 1.754700
1.682600 1.754200
1.703700 1.753800
1.724900 1.753300
1.746100 1.747400
1.767300 1.733800
1.788400 1.712700
1.809600 1.688000
1.830800 1.679400
1.852000 1.671700
1.873100 1.664900
1.894300 1.659000
1.915500 1.654000
1.936700 1.650100
1.957900 1.652200
1.979000 1.661800
2.000200 1.676600
2.021400 1.695700
2.042600 1.744200
2.063700 1.799000
2.084900 1.799200
2.106100 1.799500
2.127300 1.799700
2.148500 1.800000
2.169600 1.800300
2.190800 1.800500
2.212000 1.800800
2.233200 1.801000
2.254300 1.801300
2.275500 1.801600
2.296700 1.801800
2.317900 1.802100
2.339000 1.800200
2.360200 1.776300
2.381400 1.725600
2.402600 1.653000
2.423800 1.588000
2.444900 1.516800
2.466100 1.439300
2.487300 1.355600
2.508500 1.258500
2.529600 1.103200
2.550800 0.887100
2.572000 0.501800
2.593200 0.013500
2.614400 0.000000
2.635500 0.000000
2.656700 0.000000
2.677900 0.000000
2.699100 0.000000
2.720200 0.000000
2.741400 0.000000
2.762600 0.000000
2.783800 0.000000
2.804900 0.000000
2.826100 0.000000
2.847300 0.000000
2.868500 0.000000
2.889700 0.000000
2.910800 0.000000
2.932000 0.000000
2.953200 0.000000
2.974400 0.000000
2.995500 0.000000
3.016700 0.000000
3.037900 0.000000
3.059100 0.000000
3.080200 0.000000
3.101400 0.000000
3.122600 0.000000
3.143800 0.000000
3.165000 0.000000
3.186100 0.000000
3.207300 0.000000
3.228500 0.000000
3.249700 0.000000
3.270800 0.000600
3.292000 0.029300
3.313200 0.100800
3.334400 0.215000
3.355600 0.371900
3.376700 0.681100
3.397900 0.826900
3.419100 0.962700
3.440300 1.088400
3.461400 1.203900
3.482600 1.309400
3.503800 1.404800
3.525000 1.490700
3.546100 1.568600
3.567300 1.638500
3.588500 1.702400
3.609700 1.763300
3.630900 1.821200
3.652000 1.876200
3.673200 1.928300
3.694400 1.977500
3.715600 2.023700
3.736700 2.066900
3.757900 2.120300
3.779100 2.180300
3.800300 2.234100
3.821400 2.264500
3.842600 2.278000
3.863800 2.289100
3.885000 2.299900
3.906200 2.310700
3.927300 2.321900
3.948500 2.333500
3.969700 2.345700
3.990900 2.359500
4.012000 2.377800
4.033200 2.399300
4.054400 2.420600
4.075600 2.441800
4.096800 2.462900
4.117900 2.483800
4.139100 2.504600
4.160300 2.457800
4.181500 2.271300
4.202600 1.950200
4.223800 1.660400
4.245000 1.432100
4.266200 1.266700
4.287300 1.164300
4.308500 1.100900
4.329700 1.050800
4.350900 1.013400
4.372100 0.988700
4.393200 0.973900
4.414400 0.966400
4.435600 0.966300
4.456800 0.973400
4.477900 1.092600
4.499100 1.268100
4.520300 1.459600
4.541500 1.646800
4.562600 1.806100
4.583800 1.910400
4.605000 2.042300
4.626200 2.211900
4.647400 2.368600
4.668500 2.512500
4.689700 3.031800
4.710900 4.509900
4.732100 5.299400
4.753200 6.135900
4.774400 6.951500
4.795600 7.746000
4.816800 9.901500
4.838000 10.470600
4.859100 10.171000
4.880300 7.712200
4.901500 5.024300
4.922700 3.617800
4.943800 2.849700
4.965000 2.449800
4.986200 3.303900
5.007400 4.447400
5.028500 5.701800
5.049700 7.164400
5.070900 10.660900
5.092100 11.942700
5.113300 11.906300
5.134400 12.387600
5.155600 11.919600
5.176800 10.536300
5.198000 3.067700
5.219100 3.147200
5.240300 5.650200
5.261500 6.386000
5.282700 5.800500
5.303900 5.246900
5.325000 4.724100
5.346200 4.223800
5.367400 3.692900
5.388600 3.104400
5.409700 2.203700
5.430900 1.320100
5.452100 0.874100
5.473300 0.873000
5.494400 0.872900
5.515600 0.872800
5.536800 0.872800
5.558000 0.872700
5.579200 0.872700
5.600300 0.872600
5.621500 0.872600
5.642700 0.872600
5.663900 0.872500
5.685000 0.872500
5.706200 0.872500
5.727400 0.872400
5.748600 0.872400
5.769700 0.872400
5.790900 0.872400
5.812100 0.872300
5.833300 0.872300
5.854500 0.872300
5.875600 0.872300
5.896800 0.872300
5.918000 0.872300
5.939200 0.872300
5.960300 0.872300
5.981500 0.872300
6.002700 0.872300
6.023900 0.872300
6.045100 0.872400
6.066200 0.872400
6.087400 0.872400
6.108600 0.872400
6.129800 0.872400
6.150900 0.872500
6.172100 0.872500
6.193300 0.872500
6.214500 0.872600
6.235600 0.872600
6.256800 0.872700
6.278000 0.872700
6.299200 0.872800
6.320400 0.872800
6.341500 0.872900
6.362700 0.872900
6.383900 0.873000
6.405100 0.873100
6.426200 0.877800
6.447400 0.905100
6.468600 0.922500
6.489800 1.007300
6.510900 4.919500
6.532100 6.141000
6.553300 7.185800
6.574500 7.947600
6.595700 7.905400
6.616800 7.373900
6.638000 6.502600
6.659200 5.725400
6.680400 5.063600
6.701500 4.493200
6.722700 3.800300
6.743900 3.133200
6.765100 2.553800
6.786300 2.156800
6.807400 2.031500
6.828600 2.134500
6.849800 2.601200
6.871000 2.675600
6.892100 2.738400
6.913300 2.797500
6.934500 2.852700
6.955700 2.904200
6.976800 2.951900
6.998000 3.098100
7.019200 3.797500
7.040400 3.888800
7.061600 3.349800
7.082700 3.056600
7.103900 2.817800
7.125100 2.633200
7.146300 2.503000
7.167400 2.427100
7.188600 2.405500
7.209800 2.409700
7.231000 2.415800
7.252200 2.421200
7.273300 2.428900
7.294500 2.442300
7.315700 2.461600
7.336900 2.487500
7.358000 2.515600
7.379200 2.539800
7.400400 2.579500
7.421600 2.620500
7.442700 2.666000
7.463900 2.716000
7.485100 2.770600
7.506300 2.829800
7.527500 2.893600
7.548600 2.961900
7.569800 3.034800
7.591000 3.112300
7.612200 3.194300
7.633300 3.280900
7.654500 3.362600
7.675700 3.381700
7.696900 3.490100
7.718000 3.521700
7.739200 3.030000
7.760400 2.770600
7.781600 3.186900
7.802800 3.955100
7.823900 4.914200
7.845100 6.059800
7.866300 7.001700
7.887500 6.067200
7.908600 5.099900
7.929800 4.273800
7.951000 3.589300
7.972200 3.050100
7.993400 2.654800
8.014500 2.359500
8.035700 2.104800
8.056900 1.966700
8.078100 1.899200
8.099200 1.830300
8.120400 1.760200
8.141600 1.688700
8.162800 1.616000
8.183900 1.542900
8.205100 1.483200
8.226300 1.441000
8.247500 1.435700
8.268700 1.744100
8.289800 1.929300
8.311000 2.159400
8.332200 2.436300
8.353400 2.742900
8.374500 2.933700
8.395700 2.933800
8.416900 2.869200
8.438100 2.809300
8.459200 2.754100
8.480400 2.657100
8.501600 2.435600
8.522800 2.303000
8.544000 2.259300
8.565100 2.258400
8.586300 2.257900
8.607500 2.427500
8.628700 3.055900
8.649800 4.476000
8.671000 8.757600
8.692200 19.655800
8.713400 7.448700
8.734600 3.535000
8.755700 2.680500
8.776900 2.007500
8.798100 1.515800
8.819300 1.205600
8.840400 1.025300
8.861600 1.087100
8.882800 1.127400
8.904000 1.122600
8.925100 1.093400
8.946300 1.084000
8.967500 1.115600
8.988700 1.202400
9.009900 1.342100
9.031000 1.511900
9.052200 1.576500
9.073400 1.633500
9.094600 1.690100
9.115700 1.747900
9.136900 1.807100
9.158100 1.867600
9.179300 1.929600
9.200400 1.994700
9.221600 2.062100
9.242800 2.128400
9.264000 2.193500
9.285200 2.257400
9.306300 2.320000
9.327500 2.381400
9.348700 2.441500
9.369900 2.500400
9.391000 2.570300
9.412200 2.695300
9.433400 2.879800
9.454600 3.124800
9.475800 3.405400
9.496900 3.646400
9.518100 3.984400
9.539300 3.692800
9.560500 3.400900
9.581600 3.136400
9.602800 2.985300
9.624000 2.921100
9.645200 2.888600
9.666300 2.873300
9.687500 2.876500
9.708700 2.891500
9.729900 2.860300
9.751100 2.832900
9.772200 2.821600
9.793400 2.834300
9.814600 2.853100
9.835800 2.869300
9.856900 2.896000
9.878100 2.928300
9.899300 2.964400
9.920500 3.004300
9.941700 3.047700
9.962800 3.094800
9.984000 3.145400
10.005200 3.199200
10.026400 3.256400
10.047500 3.316900
10.068700 3.380600
10.089900 3.447600
10.111100 3.517700
10.132200 3.591300
10.153400 3.666100
10.174600 3.789000
10.195800 3.909100
10.217000 4.018600
10.238100 4.117500
10.259300 4.206700
10.280500 4.270400
10.301700 4.258000
10.322800 4.176900
10.344000 4.014200
10.365200 3.839800
10.386400 3.692800
10.407500 3.482000
10.428700 3.399300
10.449900 3.332400
10.471100 3.281400
10.492300 3.239200
10.513400 3.196200
10.534600 3.112600
10.555800 3.002300
10.577000 2.894200
10.598100 2.790200
10.619300 2.688600
10.640500 2.601900
10.661700 2.535000
10.682900 2.486600
10.704000 2.523700
10.725200 2.700200
10.746400 3.009500
10.767600 3.453000
10.788700 3.944000
10.809900 4.102200
10.831100 4.163800
10.852300 4.209600
10.873400 4.244400
10.894600 4.270900
10.915800 4.191400
10.937000 4.165000
10.958200 4.152700
10.979300 4.155300
11.000500 4.194900
11.021700 4.319600
11.042900 4.498600
11.064000 4.700800
11.085200 4.845300
11.106400 4.768500
11.127600 4.709500
11.148700 5.024900
11.169900 5.735100
11.191100 6.561300
11.212300 6.477700
11.233500 5.554100
11.254600 4.469900
11.275800 3.739700
11.297000 3.077200
11.318200 2.443400
11.339300 1.838500
11.360500 1.419200
11.381700 1.186500
11.402900 0.988700
11.424100 1.039400
11.445200 0.719000
11.466400 0.401200
11.487600 0.320900
11.508800 0.257800
11.529900 0.199500
11.551100 0.146000
11.572300 0.097700
11.593500 0.062200
11.614600 0.047600
11.635800 0.060900
11.657000 0.100100
11.678200 0.152400
11.699400 0.215700
11.720500 0.290000
11.741700 0.385200
11.762900 0.675000
11.784100 1.163700
11.805200 1.766700
11.826400 2.385700
11.847600 2.896600
11.868800 3.294600
11.890000 3.293100
11.911100 3.092500
11.932300 2.918100
11.953500 2.759500
11.974700 2.616700
11.995800 2.489600
12.017000 2.402300
12.038200 2.838800
12.059400 2.770600
12.080500 2.799800
12.101700 2.835100
12.122900 2.876600
12.144100 2.924300
12.165300 2.978100
12.186400 3.033800
12.207600 3.078400
12.228800 3.111600
12.250000 3.133700
12.271100 3.144700
12.292300 3.080800
12.313500 2.972600
12.334700 2.911400
12.355800 2.884000
12.377000 3.068300
12.398200 3.439200
12.419400 3.290100
12.440600 3.236100
12.461700 3.269900
12.482900 3.250300
12.504100 3.215600
12.525300 3.167500
12.546400 3.106000
12.567600 3.031000
12.588800 2.942600
12.610000 2.655100
12.631200 2.471400
12.652300 2.368800
12.673500 2.292200
12.694700 2.241300
12.715900 2.216000
12.737000 2.216400
12.758200 2.242000
12.779400 2.281700
12.800600 2.326600
12.821700 2.377300
12.842900 2.435000
12.864100 2.507500
12.885300 2.647100
12.906500 2.806000
12.927600 2.963400
12.948800 3.116900
12.970000 3.266100
12.991200 3.411100
13.012300 3.551700
13.033500 3.772000
13.054700 3.986200
13.075900 4.145500
13.097000 4.285700
13.118200 4.338700
13.139400 4.298000
13.160600 4.217500
13.181800 4.025000
13.202900 3.718400
13.224100 3.238200
13.245300 2.722700
13.266500 2.182100
13.287600 1.567700
13.308800 1.609200
13.330000 1.677200
13.351200 1.737300
13.372400 1.789500
13.393500 1.846600
13.414700 1.970000
13.435900 2.157600
13.457100 2.354800
13.478200 2.690000
13.499400 4.485700
13.520600 4.783700
13.541800 4.385100
13.562900 4.111400
13.584100 3.938800
13.605300 3.900700
13.626500 3.985100
13.647700 4.174100
13.668800 4.467900
13.690000 4.830000
13.711200 5.210100
13.732400 7.636700
13.753500 6.290700
13.774700 5.899300
13.795900 5.801600
13.817100 6.023600
13.838200 6.221200
13.859400 6.398600
13.880600 6.183200
13.901800 6.086100
13.923000 6.111700
13.944100 6.154100
13.965300 6.278300
13.986500 6.647500
14.007700 7.000200
14.028800 7.148700
14.050000 7.092900
14.071200 6.544900
14.092400 6.105600
14.113600 6.023300
14.134700 5.771800
14.155900 5.550400
14.177100 5.379200
14.198300 5.220300
14.219400 5.073800
14.240600 4.939600
14.261800 4.847400
14.283000 4.774300
14.304100 4.706400
14.325300 4.643000
14.346500 4.583700
14.367700 4.518500
14.388900 4.422100
14.410000 4.293900
14.431200 4.152200
14.452400 4.037600
14.473600 3.913600
14.494700 3.779800
14.515900 3.636000
14.537100 3.481500
14.558300 3.319300
14.579500 3.171400
14.600600 2.919000
14.621800 2.822700
14.643000 2.776100
14.664200 2.729900
14.685300 2.671600
14.706500 2.601200
14.727700 2.744700
14.748900 3.275000
14.770000 3.321300
14.791200 3.257700
14.812400 3.248000
14.833600 3.294100
14.854800 3.347900
14.875900 3.403100
14.897100 3.227400
14.918300 3.421700
14.939500 4.294800
14.960600 5.039300
14.981800 5.660400
15.003000 6.836600
15.024200 3.874500
15.045300 2.565200
15.066500 2.018600
15.087700 1.761500
15.108900 1.556900
15.130100 1.404500
15.151200 1.304300
15.172400 1.256200
15.193600 1.240700
15.214800 1.245800
15.235900 1.271600
15.257100 1.317000
15.278300 1.368600
15.299500 1.439000
15.320700 2.330800
15.341800 3.110800
15.363000 3.705400
15.384200 4.218000
15.405400 4.648400
15.426500 4.996800
15.447700 5.284500
15.468900 5.592800
15.490100 5.977100
15.511200 8.284400
15.532400 7.942300
15.553600 4.103300
15.574800 3.162900
15.596000 2.423000
15.617100 1.813200
15.638300 1.425300
15.659500 1.257100
15.680700 1.219500
15.701800 1.287900
15.723000 1.453000
15.744200 1.714200
15.765400 2.071500
15.786500 2.552100
15.807700 3.831500
15.828900 5.584800
15.850100 6.829700
15.871300 7.851300
15.892400 7.991400
15.913600 7.835400
15.934800 7.317200
15.956000 6.564900
15.977100 5.604000
15.998300 4.294400
16.019500 2.655200
16.040700 1.836800
16.061900 1.522200
16.083000 1.379300
16.104200 1.459200
16.125400 1.628900
16.146600 1.848600
16.167700 2.121000
16.188900 2.446400
16.210100 2.824800
16.231300 3.256300
16.252400 3.620000
16.273600 3.900000
16.294800 4.131700
16.316000 4.319200
16.337200 4.470500
16.358300 4.561300
16.379500 4.578400
16.400700 4.465600
16.421900 4.555800
16.443000 4.642600
16.464200 4.533500
16.485400 4.272400
16.506600 3.925400
16.527800 3.624200
16.548900 3.659700
16.570100 3.813200
16.591300 4.137900
16.612500 4.128200
16.633600 4.003400
16.654800 3.894400
16.676000 3.799200
16.697200 3.717300
16.718300 3.648500
16.739500 3.593000
16.760700 3.508800
16.781900 3.354700
16.803100 3.669100
16.824200 3.894500
16.845400 4.102700
16.866600 4.297100
16.887800 4.479000
16.908900 4.651200
16.930100 4.824300
16.951300 5.012600
16.972500 5.217300
16.993600 5.068000
17.014800 4.856400
17.036000 4.860600
17.057200 5.568800
17.078400 6.026500
17.099500 6.141100
17.120700 5.937200
17.141900 5.705800
17.163100 5.468700
17.184200 5.193900
17.205400 4.953700
17.226600 4.691400
17.247800 4.425000
17.269000 4.233600
17.290100 4.167400
17.311300 4.147200
17.332500 4.154900
17.353700 4.108500
17.374800 4.056700
17.396000 4.013200
17.417200 3.951000
17.438400 3.884400
17.459500 3.826300
17.480700 3.797300
17.501900 3.761400
17.523100 3.700600
17.544300 3.478300
17.565400 3.156600
17.586600 2.768900
17.607800 2.761700
17.629000 2.838800
17.650100 2.933300
17.671300 3.045100
17.692500 3.174300
17.713700 3.377400
17.734800 3.841400
17.756000 4.209400
17.777200 4.375600
17.798400 4.479800
17.819600 4.521100
17.840700 4.494100
17.861900 4.398200
17.883100 4.233600
17.904300 3.964300
17.925400 3.413800
17.946600 3.085900
17.967800 2.899200
17.989000 2.762300
18.010200 2.746800
18.031300 2.787000
18.052500 2.875500
18.073700 2.926600
18.094900 2.976900
18.116000 3.024000
18.137200 3.061800
18.158400 2.755800
18.179600 1.793300
18.200700 1.495300
18.221900 1.049400
18.243100 0.425600
18.264300 0.041700
18.285500 0.000300
18.306600 0.000000
18.327800 0.000000
18.349000 0.000000
18.370200 0.000000
18.391300 0.000000
18.412500 0.000000
18.433700 0.000000
18.454900 0.000000
18.476000 0.000000
18.497200 0.000000
18.518400 0.000000
18.539600 0.000000
18.560800 0.000000
18.581900 0.000000
18.603100 0.000000
18.624300 0.000000
18.645500 0.000000
18.666600 0.000000
18.687800 0.000000
18.709000 0.000000
18.730200 0.000000
18.751400 0.000000
18.772500 0.000000
18.793700 0.000000
18.814900 0.000000
18.836100 0.000000
18.857200 0.000000
18.878400 0.000000
18.899600 0.000000
18.920800 0.000000
18.941900 0.000000
18.963100 0.000000
18.984300 0.000000
19.005500 0.000000
19.026700 0.000000
19.047800 0.000000
19.069000 0.000000
19.090200 0.000000
19.111400 0.000000
19.132500 0.000000
19.153700 0.000000
19.174900 0.000000
19.196100 0.000000
19.217300 0.000000
19.238400 0.000000
19.259600 0.000000
19.280800 0.000000
19.302000 0.000000
19.323100 0.000000
19.344300 0.000000
19.365500 0.000000
19.386700 0.000000
19.407800 0.000000
19.429000 0.000000
19.450200 0.000000
19.471400 0.000000
19.492600 0.000000
19.513700 0.000000
19.534900 0.000000
19.556100 0.000000
19.577300 0.000000
19.598400 0.000000
19.619600 0.000000
19.640800 0.000000
19.662000 0.000000
19.683100 0.000000
19.704300 0.000000
19.725500 0.000000
19.746700 0.000000
19.767900 0.000000
19.789000 0.000000
19.810200 0.000000
19.831400 0.000000
19.852600 0.000000
19.873700 0.000000
19.894900 0.000000
19.916100 0.000000
19.937300 0.000000
19.958500 0.000000
19.979600 0.000000
20.000800 0.000000
20.022000 0.000000
20.043200 0.000000
20.064300 0.000000
20.085500 0.000000
20.106700 0.000000
20.127900 0.000000
20.149000 0.000000
20.170200 0.000000
20.191400 0.000000
20.212600 0.000000
e
