set title 'mp-556880 - Density of States'
set xlabel 'Energy (eV)'
set ylabel 'DOS (states/eV)'
set grid
set xrange [-10:10]
set yrange [0:35.846]
set xzeroaxis lt -1
set terminal png size 800,600
set output 'mp-556880_dos_gnuplot.png'
plot '-' using 1:2 with lines title 'DOS'
-21.443700 0.000000
-21.422900 0.000000
-21.402000 0.000000
-21.381200 0.000000
-21.360300 0.000000
-21.339500 0.000000
-21.318600 0.000000
-21.297800 0.000000
-21.276900 0.000000
-21.256000 0.000000
-21.235200 0.000000
-21.214300 0.000000
-21.193500 0.000000
-21.172600 0.000000
-21.151800 0.000000
-21.130900 0.000000
-21.110100 0.000000
-21.089200 0.000000
-21.068400 0.000000
-21.047500 0.000000
-21.026700 0.000000
-21.005800 0.000000
-20.985000 0.000000
-20.964100 0.000000
-20.943200 0.000000
-20.922400 0.000000
-20.901500 0.000000
-20.880700 0.000000
-20.859800 0.000000
-20.839000 0.000000
-20.818100 0.000000
-20.797300 0.000000
-20.776400 0.000000
-20.755600 0.000000
-20.734700 0.000000
-20.713900 0.000000
-20.693000 0.000000
-20.672200 0.000000
-20.651300 0.000000
-20.630400 0.000000
-20.609600 0.000000
-20.588700 0.000000
-20.567900 0.000000
-20.547000 0.000000
-20.526200 0.000000
-20.505300 0.000000
-20.484500 0.000000
-20.463600 0.000000
-20.442800 0.000000
-20.421900 0.000000
-20.401100 0.000000
-20.380200 0.000000
-20.359400 0.000000
-20.338500 0.000000
-20.317600 0.000000
-20.296800 0.000000
-20.275900 0.000000
-20.255100 0.000000
-20.234200 0.000000
-20.213400 0.000000
-20.192500 0.000000
-20.171700 0.000000
-20.150800 0.000000
-20.130000 0.000000
-20.109100 0.000000
-20.088300 0.000000
-20.067400 0.000000
-20.046600 0.000000
-20.025700 0.000000
-20.004800 0.000000
-19.984000 0.000000
-19.963100 0.000000
-19.942300 0.000000
-19.921400 0.000000
-19.900600 0.000000
-19.879700 0.000000
-19.858900 0.000000
-19.838000 0.000000
-19.817200 0.000000
-19.796300 0.000000
-19.775500 0.000000
-19.754600 0.000000
-19.733800 0.000000
-19.712900 0.000000
-19.692000 0.000000
-19.671200 0.000000
-19.650300 0.000000
-19.629500 0.000000
-19.608600 0.000000
-19.587800 0.000000
-19.566900 0.000000
-19.546100 0.000900
-19.525200 0.132400
-19.504400 0.486300
-19.483500 1.062700
-19.462700 1.683600
-19.441800 2.051300
-19.421000 2.295200
-19.400100 2.564400
-19.379200 2.891300
-19.358400 3.266000
-19.337500 3.663700
-19.316700 4.224600
-19.295800 5.213200
-19.275000 6.476600
-19.254100 7.123000
-19.233300 7.482400
-19.212400 7.396900
-19.191600 6.883900
-19.170700 6.149200
-19.149900 5.534900
-19.129000 5.467200
-19.108200 5.232000
-19.087300 4.473000
-19.066400 3.066800
-19.045600 0.972300
-19.024700 0.124300
-19.003900 0.218800
-18.983000 0.508700
-18.962200 1.059900
-18.941300 1.721000
-18.920500 2.362300
-18.899600 2.565700
-18.878800 2.768900
-18.857900 3.178700
-18.837100 3.809700
-18.816200 5.512300
-18.795400 7.160900
-18.774500 8.357500
-18.753600 7.457600
-18.732800 7.525500
-18.711900 7.085600
-18.691100 6.249700
-18.670200 4.799100
-18.649400 4.011500
-18.628500 3.547900
-18.607700 3.128000
-18.586800 2.745000
-18.566000 2.453600
-18.545100 2.221400
-18.524300 2.012200
-18.503400 1.703900
-18.482600 1.183900
-18.461700 0.765200
-18.440800 1.061700
-18.420000 2.826500
-18.399100 3.530400
-18.378300 3.948800
-18.357400 4.389100
-18.336600 4.630500
-18.315700 6.787400
-18.294900 8.983100
-18.274000 7.794900
-18.253200 7.692700
-18.232300 7.148300
-18.211500 6.247400
-18.190600 5.500500
-18.169800 4.799500
-18.148900 4.283200
-18.128000 2.776100
-18.107200 2.289300
-18.086300 2.583600
-18.065500 2.892400
-18.044600 3.190800
-18.023800 3.482900
-18.002900 3.689000
-17.982100 3.873100
-17.961200 4.107100
-17.940400 4.975600
-17.919500 5.914300
-17.898700 5.964200
-17.877800 6.253500
-17.857000 6.607400
-17.836100 7.107600
-17.815200 7.580000
-17.794400 8.057200
-17.773500 7.723000
-17.752700 7.509700
-17.731800 6.765900
-17.711000 4.260700
-17.690100 2.509200
-17.669300 1.448600
-17.648400 0.781000
-17.627600 0.355500
-17.606700 0.097900
-17.585900 6.097400
-17.565000 22.531400
-17.544200 25.742400
-17.523300 21.741500
-17.502400 15.191900
-17.481600 14.978100
-17.460700 14.251500
-17.439900 15.082700
-17.419000 17.392000
-17.398200 21.463800
-17.377300 15.567700
-17.356500 13.172000
-17.335600 8.769100
-17.314800 13.058800
-17.293900 21.701700
-17.273100 22.626600
-17.252200 17.447300
-17.231400 0.067300
-17.210500 2.795000
-17.189600 8.185800
-17.168800 11.284100
-17.147900 15.245900
-17.127100 13.701700
-17.106200 13.887300
-17.085400 18.343300
-17.064500 17.545700
-17.043700 0.000000
-17.022800 0.000000
-17.002000 0.000000
-16.981100 0.000000
-16.960300 0.000000
-16.939400 0.000000
-16.918600 0.000000
-16.897700 0.000000
-16.876800 0.000000
-16.856000 0.000000
-16.835100 0.000000
-16.814300 0.000000
-16.793400 0.000000
-16.772600 0.000000
-16.751700 0.000000
-16.730900 0.000000
-16.710000 0.000000
-16.689200 0.000000
-16.668300 0.000000
-16.647500 0.000000
-16.626600 0.000000
-16.605800 0.000000
-16.584900 0.000000
-16.564000 0.000000
-16.543200 0.000000
-16.522300 0.000000
-16.501500 0.000000
-16.480600 0.000000
-16.459800 0.000000
-16.438900 0.000000
-16.418100 0.000000
-16.397200 0.000000
-16.376400 0.000000
-16.355500 0.000000
-16.334700 0.000000
-16.313800 0.000000
-16.293000 0.000000
-16.272100 0.000000
-16.251200 0.000000
-16.230400 0.000000
-16.209500 0.000000
-16.188700 0.000000
-16.167800 0.000000
-16.147000 0.000000
-16.126100 0.000000
-16.105300 0.000000
-16.084400 0.000000
-16.063600 0.000000
-16.042700 0.000000
-16.021900 0.000000
-16.001000 0.000000
-15.980200 0.000000
-15.959300 0.000000
-15.938400 0.000000
-15.917600 0.000000
-15.896700 0.000000
-15.875900 0.000000
-15.855000 0.000000
-15.834200 0.000000
-15.813300 0.000000
-15.792500 0.000000
-15.771600 0.000000
-15.750800 0.000000
-15.729900 0.000000
-15.709100 0.000000
-15.688200 0.000000
-15.667400 0.000000
-15.646500 0.000000
-15.625600 0.000000
-15.604800 0.000000
-15.583900 0.000000
-15.563100 0.000000
-15.542200 0.000000
-15.521400 0.000000
-15.500500 0.000000
-15.479700 0.000000
-15.458800 0.000000
-15.438000 0.000000
-15.417100 0.000000
-15.396300 0.000000
-15.375400 0.000000
-15.354600 0.000000
-15.333700 0.000000
-15.312800 0.000000
-15.292000 0.000000
-15.271100 0.000000
-15.250300 0.000000
-15.229400 0.000000
-15.208600 0.000000
-15.187700 0.000000
-15.166900 0.000000
-15.146000 0.000000
-15.125200 0.000000
-15.104300 0.000000
-15.083500 0.000000
-15.062600 0.000000
-15.041800 0.000000
-15.020900 0.000000
-15.000000 0.000000
-14.979200 0.000000
-14.958300 0.000000
-14.937500 0.000000
-14.916600 0.000000
-14.895800 0.000000
-14.874900 0.000000
-14.854100 0.000000
-14.833200 0.000000
-14.812400 0.000000
-14.791500 0.000000
-14.770700 0.000000
-14.749800 0.000000
-14.729000 0.000000
-14.708100 0.000000
-14.687200 0.000000
-14.666400 0.000000
-14.645500 0.000000
-14.624700 0.000000
-14.603800 0.000000
-14.583000 0.000000
-14.562100 0.000000
-14.541300 0.000000
-14.520400 0.000000
-14.499600 0.000000
-14.478700 0.000000
-14.457900 0.000000
-14.437000 0.000000
-14.416200 0.000000
-14.395300 0.000000
-14.374400 0.000000
-14.353600 0.000000
-14.332700 0.000000
-14.311900 0.000000
-14.291000 0.000000
-14.270200 0.000000
-14.249300 0.000000
-14.228500 0.000000
-14.207600 0.000000
-14.186800 0.000000
-14.165900 0.000000
-14.145100 0.000000
-14.124200 0.000000
-14.103400 0.000000
-14.082500 0.000000
-14.061600 0.000000
-14.040800 0.000000
-14.019900 0.000000
-13.999100 0.000000
-13.978200 0.000000
-13.957400 0.000000
-13.936500 0.000000
-13.915700 0.000000
-13.894800 0.000000
-13.874000 0.000000
-13.853100 0.000000
-13.832300 0.000000
-13.811400 0.000000
-13.790600 0.000000
-13.769700 0.000000
-13.748800 0.000000
-13.728000 0.000000
-13.707100 0.000000
-13.686300 0.000000
-13.665400 0.000000
-13.644600 0.000000
-13.623700 0.000000
-13.602900 0.000000
-13.582000 0.000000
-13.561200 0.000000
-13.540300 0.000000
-13.519500 0.000000
-13.498600 0.000000
-13.477800 0.000000
-13.456900 0.000000
-13.436000 0.000000
-13.415200 0.000000
-13.394300 0.000000
-13.373500 0.000000
-13.352600 0.000000
-13.331800 0.000000
-13.310900 0.000000
-13.290100 0.000000
-13.269200 0.000000
-13.248400 0.000000
-13.227500 0.000000
-13.206700 0.000000
-13.185800 0.000000
-13.165000 0.000000
-13.144100 0.000000
-13.123200 0.000000
-13.102400 0.000000
-13.081500 0.000000
-13.060700 0.000000
-13.039800 0.000000
-13.019000 0.000000
-12.998100 0.000000
-12.977300 0.000000
-12.956400 0.000000
-12.935600 0.000000
-12.914700 0.000000
-12.893900 0.000000
-12.873000 0.000000
-12.852200 0.000000
-12.831300 0.000000
-12.810400 0.000000
-12.789600 0.000000
-12.768700 0.000000
-12.747900 0.000000
-12.727000 0.000000
-12.706200 0.000000
-12.685300 0.000000
-12.664500 0.000000
-12.643600 0.000000
-12.622800 0.000000
-12.601900 0.000000
-12.581100 0.000000
-12.560200 0.000000
-12.539400 0.000000
-12.518500 0.000000
-12.497600 0.000000
-12.476800 0.000000
-12.455900 0.000000
-12.435100 0.000000
-12.414200 0.000000
-12.393400 0.000000
-12.372500 0.000000
-12.351700 0.000000
-12.330800 0.000000
-12.310000 0.000000
-12.289100 0.000000
-12.268300 0.000000
-12.247400 0.000000
-12.226600 0.000000
-12.205700 0.000000
-12.184800 0.000000
-12.164000 0.000000
-12.143100 0.000000
-12.122300 0.000000
-12.101400 0.000000
-12.080600 0.000000
-12.059700 0.000000
-12.038900 0.000000
-12.018000 0.000000
-11.997200 0.000000
-11.976300 0.000000
-11.955500 0.000000
-11.934600 0.000000
-11.913800 0.000000
-11.892900 0.000000
-11.872000 0.000000
-11.851200 0.000000
-11.830300 0.000000
-11.809500 0.000000
-11.788600 0.000000
-11.767800 0.000000
-11.746900 0.000000
-11.726100 0.000000
-11.705200 0.000000
-11.684400 0.000000
-11.663500 0.000000
-11.642700 0.000000
-11.621800 0.000000
-11.601000 0.000000
-11.580100 0.000000
-11.559200 0.000000
-11.538400 0.000000
-11.517500 0.000000
-11.496700 0.000000
-11.475800 0.000000
-11.455000 0.000000
-11.434100 0.000000
-11.413300 0.000000
-11.392400 0.000000
-11.371600 0.000000
-11.350700 0.000000
-11.329900 0.000000
-11.309000 0.000000
-11.288200 0.000000
-11.267300 0.000000
-11.246400 0.000000
-11.225600 0.000000
-11.204700 0.000000
-11.183900 0.000000
-11.163000 0.000000
-11.142200 0.000000
-11.121300 0.000000
-11.100500 0.000000
-11.079600 0.000000
-11.058800 0.000000
-11.037900 0.000000
-11.017100 0.000000
-10.996200 0.000000
-10.975400 0.000000
-10.954500 0.000000
-10.933600 0.000000
-10.912800 0.000000
-10.891900 0.000000
-10.871100 0.000000
-10.850200 0.000000
-10.829400 0.000000
-10.808500 0.000000
-10.787700 0.000000
-10.766800 0.000000
-10.746000 0.000000
-10.725100 0.000000
-10.704300 0.000000
-10.683400 0.000000
-10.662600 0.000000
-10.641700 0.000000
-10.620800 0.000000
-10.600000 0.000000
-10.579100 0.000000
-10.558300 0.000000
-10.537400 0.000000
-10.516600 0.000000
-10.495700 0.000000
-10.474900 0.000000
-10.454000 0.000000
-10.433200 0.000000
-10.412300 0.000000
-10.391500 0.000000
-10.370600 0.000000
-10.349800 0.000000
-10.328900 0.000000
-10.308000 0.000000
-10.287200 0.000000
-10.266300 0.000000
-10.245500 0.000000
-10.224600 0.000000
-10.203800 0.000000
-10.182900 0.000000
-10.162100 0.000000
-10.141200 0.000000
-10.120400 0.000000
-10.099500 0.000000
-10.078700 0.000000
-10.057800 0.000000
-10.037000 0.000000
-10.016100 0.000000
-9.995200 0.000000
-9.974400 0.000000
-9.953500 0.000000
-9.932700 0.000000
-9.911800 0.000000
-9.891000 0.000000
-9.870100 0.000000
-9.849300 0.000000
-9.828400 0.000000
-9.807600 0.000000
-9.786700 0.000000
-9.765900 0.000000
-9.745000 0.000000
-9.724200 0.000000
-9.703300 0.000000
-9.682400 0.000000
-9.661600 0.000000
-9.640700 0.000000
-9.619900 0.000000
-9.599000 0.000000
-9.578200 0.000000
-9.557300 0.000000
-9.536500 0.000000
-9.515600 0.000000
-9.494800 0.000000
-9.473900 0.000000
-9.453100 0.000000
-9.432200 0.000000
-9.411400 0.000000
-9.390500 0.000000
-9.369600 0.000000
-9.348800 0.000000
-9.327900 0.000000
-9.307100 0.000000
-9.286200 0.000000
-9.265400 0.000000
-9.244500 0.000000
-9.223700 0.000000
-9.202800 0.000000
-9.182000 0.000000
-9.161100 0.000000
-9.140300 0.000000
-9.119400 0.000000
-9.098600 0.000000
-9.077700 0.000000
-9.056800 0.000000
-9.036000 0.000000
-9.015100 0.000000
-8.994300 0.000000
-8.973400 0.380500
-8.952600 1.719600
-8.931700 2.421900
-8.910900 2.867200
-8.890000 3.251800
-8.869200 3.543700
-8.848300 3.667800
-8.827500 3.775600
-8.806600 3.715600
-8.785800 3.444800
-8.764900 3.226500
-8.744000 3.034700
-8.723200 2.891100
-8.702300 2.790300
-8.681500 2.696700
-8.660600 2.610800
-8.639800 2.533200
-8.618900 2.464000
-8.598100 2.402900
-8.577200 2.280300
-8.556400 2.270500
-8.535500 2.260600
-8.514700 2.576000
-8.493800 3.201900
-8.473000 3.998400
-8.452100 3.213600
-8.431200 2.562600
-8.410400 2.306400
-8.389500 2.179000
-8.368700 2.151400
-8.347800 2.134800
-8.327000 2.029500
-8.306100 1.825200
-8.285300 1.545500
-8.264400 1.673500
-8.243600 2.157500
-8.222700 2.537200
-8.201900 2.637800
-8.181000 2.656200
-8.160200 2.658400
-8.139300 2.599200
-8.118400 2.440700
-8.097600 2.290600
-8.076700 2.257100
-8.055900 2.218800
-8.035000 2.158100
-8.014200 2.156700
-7.993300 2.239900
-7.972500 2.438000
-7.951600 2.737500
-7.930800 3.158100
-7.909900 3.145000
-7.889100 3.165300
-7.868200 3.229400
-7.847400 3.047200
-7.826500 2.825400
-7.805600 2.612200
-7.784800 2.484900
-7.763900 2.411800
-7.743100 2.380400
-7.722200 2.393300
-7.701400 2.464700
-7.680500 2.754900
-7.659700 2.951700
-7.638800 3.092300
-7.618000 3.146700
-7.597100 3.055000
-7.576300 2.664500
-7.555400 2.212700
-7.534500 1.879100
-7.513700 1.602700
-7.492800 1.384100
-7.472000 1.223800
-7.451100 1.101600
-7.430300 1.011600
-7.409400 0.864800
-7.388600 0.671400
-7.367700 0.485700
-7.346900 0.308800
-7.326000 0.150100
-7.305200 0.013400
-7.284300 0.000000
-7.263500 0.000000
-7.242600 1.004300
-7.221700 2.177700
-7.200900 2.736700
-7.180000 2.457800
-7.159200 2.762800
-7.138300 3.111800
-7.117500 3.632200
-7.096600 3.941100
-7.075800 4.090300
-7.054900 4.092400
-7.034100 3.980000
-7.013200 3.947700
-6.992400 3.852900
-6.971500 3.702500
-6.950700 3.541400
-6.929800 3.405700
-6.908900 3.285200
-6.888100 3.201600
-6.867200 3.063200
-6.846400 2.807200
-6.825500 2.534600
-6.804700 2.313400
-6.783800 2.116500
-6.763000 1.926700
-6.742100 1.740700
-6.721300 1.585500
-6.700400 1.489100
-6.679600 1.404400
-6.658700 1.326500
-6.637900 1.253000
-6.617000 1.183800
-6.596100 1.118900
-6.575300 1.071400
-6.554400 1.080800
-6.533600 1.149800
-6.512700 1.291000
-6.491900 1.798900
-6.471000 2.110100
-6.450200 2.312600
-6.429300 2.224600
-6.408500 1.824700
-6.387600 1.514500
-6.366800 1.493100
-6.345900 1.475200
-6.325100 1.461000
-6.304200 1.450400
-6.283300 1.443300
-6.262500 1.439900
-6.241600 1.440100
-6.220800 1.443800
-6.199900 1.452400
-6.179100 1.493800
-6.158200 1.581800
-6.137400 1.714200
-6.116500 1.874300
-6.095700 2.040600
-6.074800 2.207800
-6.054000 2.360900
-6.033100 2.447500
-6.012300 2.599200
-5.991400 2.802800
-5.970500 3.026000
-5.949700 3.268600
-5.928800 3.710900
-5.908000 4.668200
-5.887100 5.008800
-5.866300 5.291700
-5.845400 5.550200
-5.824600 5.638200
-5.803700 4.899400
-5.782900 4.236900
-5.762000 3.531500
-5.741200 2.975500
-5.720300 2.308200
-5.699500 1.556600
-5.678600 0.819900
-5.657700 0.165300
-5.636900 0.000000
-5.616000 0.885100
-5.595200 3.277000
-5.574300 5.509900
-5.553500 7.873500
-5.532600 12.043800
-5.511800 12.134900
-5.490900 12.769100
-5.470100 11.746200
-5.449200 10.275900
-5.428400 7.855700
-5.407500 4.444000
-5.386700 3.145500
-5.365800 3.104400
-5.344900 4.076200
-5.324100 5.238800
-5.303200 6.572800
-5.282400 9.041900
-5.261500 10.811400
-5.240700 12.212900
-5.219800 12.469100
-5.199000 13.400900
-5.178100 11.175000
-5.157300 5.935700
-5.136400 4.055100
-5.115600 3.294900
-5.094700 2.741800
-5.073900 2.766200
-5.053000 3.573800
-5.032100 5.530400
-5.011300 7.721600
-4.990400 6.892300
-4.969600 6.362500
-4.948700 7.044600
-4.927900 6.058000
-4.907000 7.632600
-4.886200 9.065000
-4.865300 6.915400
-4.844500 6.615600
-4.823600 5.566600
-4.802800 5.392100
-4.781900 6.254100
-4.761100 6.844200
-4.740200 5.716900
-4.719300 6.841700
-4.698500 9.426100
-4.677600 9.050200
-4.656800 8.719500
-4.635900 8.580000
-4.615100 8.585600
-4.594200 9.999800
-4.573400 7.956000
-4.552500 5.115000
-4.531700 3.353600
-4.510800 1.900700
-4.490000 0.000000
-4.469100 0.000000
-4.448300 0.000000
-4.427400 0.000000
-4.406500 0.000000
-4.385700 0.000000
-4.364800 0.000000
-4.344000 0.000000
-4.323100 0.000000
-4.302300 0.000000
-4.281400 0.000000
-4.260600 0.000000
-4.239700 0.000000
-4.218900 0.000000
-4.198000 0.000000
-4.177200 0.000000
-4.156300 0.000000
-4.135500 0.000000
-4.114600 0.000000
-4.093700 0.000000
-4.072900 0.000000
-4.052000 0.000000
-4.031200 0.000000
-4.010300 0.000000
-3.989500 0.000000
-3.968600 0.000000
-3.947800 0.000000
-3.926900 0.000000
-3.906100 0.000000
-3.885200 0.000000
-3.864400 0.107600
-3.843500 8.800800
-3.822700 16.038900
-3.801800 25.688200
-3.780900 32.587700
-3.760100 13.559900
-3.739200 3.852900
-3.718400 0.000000
-3.697500 0.000000
-3.676700 0.000000
-3.655800 0.000000
-3.635000 0.000000
-3.614100 0.000000
-3.593300 0.000000
-3.572400 0.000000
-3.551600 0.000000
-3.530700 0.000000
-3.509900 0.000000
-3.489000 0.000000
-3.468100 0.000000
-3.447300 0.000000
-3.426400 0.000000
-3.405600 0.000000
-3.384700 0.050200
-3.363900 2.894900
-3.343000 4.870600
-3.322200 6.482100
-3.301300 8.685900
-3.280500 10.617900
-3.259600 13.183100
-3.238800 13.766100
-3.217900 18.464400
-3.197100 12.351100
-3.176200 6.562900
-3.155300 1.111200
-3.134500 0.462900
-3.113600 1.210600
-3.092800 4.780600
-3.071900 7.364100
-3.051100 10.903100
-3.030200 14.796500
-3.009400 16.778900
-2.988500 14.120000
-2.967700 11.488200
-2.946800 7.234400
-2.926000 4.126400
-2.905100 2.024000
-2.884300 1.041900
-2.863400 0.265700
-2.842500 0.000000
-2.821700 2.295400
-2.800800 1.575400
-2.780000 1.720700
-2.759100 2.054800
-2.738300 2.482400
-2.717400 2.952000
-2.696600 3.509900
-2.675700 4.006900
-2.654900 5.003400
-2.634000 6.832600
-2.613200 7.120600
-2.592300 8.333200
-2.571500 10.162100
-2.550600 14.500700
-2.529700 19.299800
-2.508900 10.685300
-2.488000 9.496700
-2.467200 8.497200
-2.446300 8.689300
-2.425500 9.964400
-2.404600 15.914900
-2.383800 13.161000
-2.362900 13.362800
-2.342100 14.554300
-2.321200 10.731900
-2.300400 7.049800
-2.279500 7.410600
-2.258700 9.691400
-2.237800 10.495200
-2.216900 12.196400
-2.196100 11.810400
-2.175200 8.109900
-2.154400 6.784000
-2.133500 6.651500
-2.112700 6.284300
-2.091800 6.977000
-2.071000 8.024700
-2.050100 11.653700
-2.029300 13.232000
-2.008400 13.747300
-1.987600 14.306700
-1.966700 10.655800
-1.945900 6.730300
-1.925000 3.898000
-1.904100 2.899200
-1.883300 1.749400
-1.862400 1.526400
-1.841600 2.652700
-1.820700 8.258300
-1.799900 13.215900
-1.779000 15.347400
-1.758200 15.959800
-1.737300 17.045600
-1.716500 13.156100
-1.695600 5.904700
-1.674800 2.102400
-1.653900 0.633300
-1.633100 0.166100
-1.612200 1.294800
-1.591300 2.663000
-1.570500 4.588600
-1.549600 10.327100
-1.528800 19.211000
-1.507900 20.096500
-1.487100 17.830600
-1.466200 9.728700
-1.445400 5.630100
-1.424500 3.721400
-1.403700 1.881500
-1.382800 0.704100
-1.362000 2.303000
-1.341100 3.798400
-1.320300 5.342600
-1.299400 7.188500
-1.278500 12.125300
-1.257700 18.593900
-1.236800 13.886400
-1.216000 12.253100
-1.195100 10.709300
-1.174300 8.834500
-1.153400 13.042100
-1.132600 16.116300
-1.111700 23.988100
-1.090900 25.408700
-1.070000 9.888500
-1.049200 10.316100
-1.028300 15.646200
-1.007500 21.201300
-0.986600 20.712400
-0.965700 17.606800
-0.944900 10.903800
-0.924000 4.133100
-0.903200 7.774500
-0.882300 11.127500
-0.861500 16.077100
-0.840600 15.495500
-0.819800 14.177500
-0.798900 11.407500
-0.778100 9.058900
-0.757200 6.079300
-0.736400 3.813800
-0.715500 9.486900
-0.694700 13.932600
-0.673800 7.801100
-0.652900 5.921300
-0.632100 5.829700
-0.611200 5.829200
-0.590400 5.610400
-0.569500 6.545700
-0.548700 9.568500
-0.527800 11.105300
-0.507000 11.826800
-0.486100 12.796400
-0.465300 10.902600
-0.444400 9.463700
-0.423600 8.723100
-0.402700 11.133000
-0.381900 8.338900
-0.361000 7.427900
-0.340100 7.034000
-0.319300 6.598700
-0.298400 5.826000
-0.277600 4.307900
-0.256700 5.820500
-0.235900 6.136500
-0.215000 6.429600
-0.194200 6.202100
-0.173300 6.930000
-0.152500 6.928800
-0.131600 6.376700
-0.110800 6.005800
-0.089900 5.886100
-0.069100 6.600700
-0.048200 7.491000
-0.027300 8.172800
-0.006500 8.842600
0.014400 7.135900
0.035200 4.813800
0.056100 2.259100
0.076900 0.035100
0.097800 0.000000
0.118600 0.000000
0.139500 0.000000
0.160300 0.000000
0.181200 0.000000
0.202000 0.000000
0.222900 0.000000
0.243700 0.000000
0.264600 0.000000
0.285500 0.000000
0.306300 0.000000
0.327200 0.000000
0.348000 0.000000
0.368900 0.000000
0.389700 0.000000
0.410600 0.000000
0.431400 0.000000
0.452300 0.000000
0.473100 0.000000
0.494000 0.000000
0.514800 0.000000
0.535700 0.000000
0.556500 0.000000
0.577400 0.000000
0.598300 0.000000
0.619100 0.000000
0.640000 0.000000
0.660800 0.000000
0.681700 0.000000
0.702500 0.000000
0.723400 0.000000
0.744200 0.000000
0.765100 0.000000
0.785900 0.000000
0.806800 0.000000
0.827600 0.000000
0.848500 0.000000
0.869300 0.000000
0.890200 0.000000
0.911100 0.000000
0.931900 0.000000
0.952800 0.000000
0.973600 0.000000
0.994500 0.000000
1.015300 0.000000
1.036200 0.000000
1.057000 0.000000
1.077900 0.000000
1.098700 0.000000
1.119600 0.000000
1.140400 0.000000
1.161300 0.000000
1.182100 0.000000
1.203000 0.000000
1.223900 0.000000
1.244700 0.000000
1.265600 0.000000
1.286400 0.000000
1.307300 0.000000
1.328100 0.000000
1.349000 0.000000
1.369800 0.000000
1.390700 0.000000
1.411500 0.000000
1.432400 0.000000
1.453200 0.000000
1.474100 0.000000
1.494900 0.000000
1.515800 0.000000
1.536700 0.000000
1.557500 0.000000
1.578400 0.000000
1.599200 0.000000
1.620100 0.000000
1.640900 0.000000
1.661800 0.000000
1.682600 0.000000
1.703500 0.000000
1.724300 0.000000
1.745200 0.000000
1.766000 0.000000
1.786900 0.000000
1.807700 0.000000
1.828600 0.000000
1.849500 0.000000
1.870300 0.000000
1.891200 0.000000
1.912000 0.000000
1.932900 0.000000
1.953700 0.000000
1.974600 0.000000
1.995400 0.000000
2.016300 0.000000
2.037100 0.000000
2.058000 0.000000
2.078800 0.000000
2.099700 0.000000
2.120500 0.000000
2.141400 0.000000
2.162300 0.000000
2.183100 0.000000
2.204000 0.000000
2.224800 0.000000
2.245700 0.000000
2.266500 0.000000
2.287400 0.000000
2.308200 0.000000
2.329100 0.000000
2.349900 0.000000
2.370800 0.000000
2.391600 0.000000
2.412500 0.000000
2.433300 0.000000
2.454200 0.000000
2.475100 0.000000
2.495900 0.000000
2.516800 0.000000
2.537600 0.000000
2.558500 0.000000
2.579300 0.000000
2.600200 0.000000
2.621000 0.000000
2.641900 0.000000
2.662700 0.000000
2.683600 0.000000
2.704400 0.000000
2.725300 0.000000
2.746100 0.000000
2.767000 0.000000
2.787900 0.000000
2.808700 0.000000
2.829600 0.000000
2.850400 0.000000
2.871300 0.000000
2.892100 0.000000
2.913000 0.000000
2.933800 0.000000
2.954700 0.000000
2.975500 0.000000
2.996400 0.000000
3.017200 0.000000
3.038100 0.000000
3.058900 0.000000
3.079800 0.000000
3.100700 0.000000
3.121500 0.000000
3.142400 0.000000
3.163200 0.000000
3.184100 0.000000
3.204900 0.000000
3.225800 0.000000
3.246600 0.000000
3.267500 0.000000
3.288300 0.000000
3.309200 0.000000
3.330000 0.000000
3.350900 0.000000
3.371700 0.000000
3.392600 0.000000
3.413500 0.000000
3.434300 0.000000
3.455200 0.000000
3.476000 0.000000
3.496900 0.000000
3.517700 0.000000
3.538600 0.000000
3.559400 0.000000
3.580300 0.000000
3.601100 0.000000
3.622000 0.000000
3.642800 0.000000
3.663700 0.000000
3.684500 0.000000
3.705400 0.000000
3.726300 0.000000
3.747100 0.000000
3.768000 0.000000
3.788800 0.000000
3.809700 0.000000
3.830500 0.000000
3.851400 0.000000
3.872200 0.000000
3.893100 0.000000
3.913900 0.000000
3.934800 0.000000
3.955600 0.000000
3.976500 0.000000
3.997300 0.000000
4.018200 0.000000
4.039100 0.000000
4.059900 0.000000
4.080800 0.000000
4.101600 0.000000
4.122500 0.000000
4.143300 0.000000
4.164200 0.000000
4.185000 0.000000
4.205900 0.000000
4.226700 0.000000
4.247600 0.000000
4.268400 0.000000
4.289300 0.000000
4.310100 0.000000
4.331000 0.000000
4.351900 0.000000
4.372700 0.000000
4.393600 0.000000
4.414400 0.000000
4.435300 0.000000
4.456100 0.000000
4.477000 0.000000
4.497800 0.000000
4.518700 0.000000
4.539500 0.000000
4.560400 0.000000
4.581200 0.000000
4.602100 0.000000
4.622900 0.000000
4.643800 0.000000
4.664700 0.000000
4.685500 0.000000
4.706400 0.000000
4.727200 0.000000
4.748100 0.000000
4.768900 0.000000
4.789800 0.000000
4.810600 0.000000
4.831500 0.000000
4.852300 0.000000
4.873200 0.000000
4.894000 0.000000
4.914900 0.000000
4.935700 0.000000
4.956600 0.000000
4.977500 0.000000
4.998300 0.000000
5.019200 0.000000
5.040000 0.000000
5.060900 0.000000
5.081700 0.000000
5.102600 0.000000
5.123400 0.000000
5.144300 0.000000
5.165100 0.001100
5.186000 0.003600
5.206800 0.007700
5.227700 0.013200
5.248500 0.020300
5.269400 0.028900
5.290300 0.038900
5.311100 0.050500
5.332000 0.063600
5.352800 0.078100
5.373700 0.094200
5.394500 0.111800
5.415400 0.130900
5.436200 0.151500
5.457100 0.173500
5.477900 0.197100
5.498800 0.222200
5.519600 0.248600
5.540500 0.273700
5.561300 0.297100
5.582200 0.323800
5.603100 0.351000
5.623900 0.374000
5.644800 0.392900
5.665600 0.408500
5.686500 0.423100
5.707300 0.436900
5.728200 0.449800
5.749000 0.462000
5.769900 0.473300
5.790700 0.483900
5.811600 0.494700
5.832400 0.505800
5.853300 0.517200
5.874100 0.528800
5.895000 0.540800
5.915900 0.553100
5.936700 0.565700
5.957600 0.579700
5.978400 0.594800
5.999300 0.610500
6.020100 0.626700
6.041000 0.643500
6.061800 0.660900
6.082700 0.678800
6.103500 0.697000
6.124400 0.715700
6.145200 0.734600
6.166100 0.754300
6.186900 0.775700
6.207800 0.798900
6.228700 0.823900
6.249500 0.850800
6.270400 0.879600
6.291200 0.911900
6.312100 0.948700
6.332900 0.996300
6.353800 1.047600
6.374600 1.100200
6.395500 1.152200
6.416300 1.203400
6.437200 1.253500
6.458000 1.296600
6.478900 1.325600
6.499700 1.349600
6.520600 1.372300
6.541500 1.416500
6.562300 1.461200
6.583200 1.504800
6.604000 1.547400
6.624900 1.589000
6.645700 1.627700
6.666600 1.660100
6.687400 1.687700
6.708300 1.720600
6.729100 1.734500
6.750000 1.736800
6.770800 1.730600
6.791700 1.716300
6.812500 1.693900
6.833400 1.663300
6.854300 1.624700
6.875100 1.575200
6.896000 1.510700
6.916800 1.432100
6.937700 1.353300
6.958500 1.331600
6.979400 1.313600
7.000200 1.301100
7.021100 1.292300
7.041900 1.286800
7.062800 1.286700
7.083600 1.296600
7.104500 1.312600
7.125300 1.331900
7.146200 1.375900
7.167100 1.409500
7.187900 1.413000
7.208800 1.403400
7.229600 1.383100
7.250500 1.365700
7.271300 1.359600
7.292200 1.365300
7.313000 1.388300
7.333900 1.427600
7.354700 1.385300
7.375600 1.303600
7.396400 1.248400
7.417300 1.258300
7.438100 1.474600
7.459000 1.697600
7.479900 2.015500
7.500700 2.500800
7.521600 2.902000
7.542400 3.329700
7.563300 4.333200
7.584100 4.889600
7.605000 5.302200
7.625800 5.549100
7.646700 5.360600
7.667500 4.985800
7.688400 5.793200
7.709200 5.960400
7.730100 5.292500
7.750900 4.672100
7.771800 4.307400
7.792700 3.912600
7.813500 3.504000
7.834400 3.145600
7.855200 2.777300
7.876100 2.331300
7.896900 2.197500
7.917800 2.241500
7.938600 2.442000
7.959500 2.792500
7.980300 3.203800
8.001200 3.786300
8.022000 3.987100
8.042900 4.411800
8.063700 5.162800
8.084600 5.654200
8.105500 6.027300
8.126300 6.593900
8.147200 6.951600
8.168000 6.601200
8.188900 6.461600
8.209700 6.388000
8.230600 6.165400
8.251400 5.146100
8.272300 4.230900
8.293100 3.401200
8.314000 3.399000
8.334800 3.798100
8.355700 4.932000
8.376500 5.629200
8.397400 6.007100
8.418300 5.809300
8.439100 5.210600
8.460000 4.931600
8.480800 5.120300
8.501700 5.505300
8.522500 6.053800
8.543400 6.553600
8.564200 6.514500
8.585100 6.357600
8.605900 5.998200
8.626800 5.392000
8.647600 4.669100
8.668500 4.046000
8.689300 3.944300
8.710200 4.280100
8.731100 2.785300
8.751900 2.252300
8.772800 2.410900
8.793600 2.336000
8.814500 2.837300
8.835300 3.617000
8.856200 4.884500
8.877000 7.180300
8.897900 8.691600
8.918700 9.667100
8.939600 8.893200
8.960400 8.030900
8.981300 7.306600
9.002100 6.303200
9.023000 5.832600
9.043900 5.996600
9.064700 4.270500
9.085600 4.208800
9.106400 3.758800
9.127300 3.310400
9.148100 3.645000
9.169000 4.862600
9.189800 5.934400
9.210700 7.281600
9.231500 8.050600
9.252400 8.297400
9.273200 8.217900
9.294100 8.156000
9.314900 8.746600
9.335800 8.842800
9.356700 6.399200
9.377500 4.704600
9.398400 3.251100
9.419200 1.934300
9.440100 1.955600
9.460900 3.570400
9.481800 5.708900
9.502600 6.285600
9.523500 8.533400
9.544300 9.361900
9.565200 10.333800
9.586000 11.334500
9.606900 10.779300
9.627700 8.729700
9.648600 7.483400
9.669500 5.210400
9.690300 3.508500
9.711200 2.652200
9.732000 3.108000
9.752900 3.949400
9.773700 4.797200
9.794600 5.420600
9.815400 5.993400
9.836300 6.587200
9.857100 7.369600
9.878000 8.114300
9.898800 8.596400
9.919700 9.466500
9.940500 9.399500
9.961400 8.123500
9.982300 4.753100
10.003100 3.135400
10.024000 2.252400
10.044800 1.695600
10.065700 1.382100
10.086500 1.544100
10.107400 2.599100
10.128200 4.271400
10.149100 6.084500
10.169900 10.342300
10.190800 10.381600
10.211600 10.767200
10.232500 8.727900
10.253400 7.760800
10.274200 6.556100
10.295100 5.659100
10.315900 5.066700
10.336800 4.690900
10.357600 4.697200
10.378500 5.191900
10.399300 5.622800
10.420200 6.614100
10.441000 7.427300
10.461900 8.339900
10.482700 8.659100
10.503600 8.851100
10.524400 8.901600
10.545300 9.383500
10.566200 8.458400
10.587000 7.742800
10.607900 7.489600
10.628700 7.048200
10.649600 6.318700
10.670400 5.216300
10.691300 5.372400
10.712100 5.896300
10.733000 6.269200
10.753800 6.434000
10.774700 7.759400
10.795500 9.213800
10.816400 10.064700
10.837200 9.190700
10.858100 7.592900
10.879000 6.934900
10.899800 6.293900
10.920700 6.122200
10.941500 7.479500
10.962400 6.668000
10.983200 7.421800
11.004100 8.786300
11.024900 8.174700
11.045800 7.889700
11.066600 7.079700
11.087500 6.700800
11.108300 7.407600
11.129200 7.441100
11.150000 7.316700
11.170900 8.534000
11.191800 6.809300
11.212600 5.470600
11.233500 4.087200
11.254300 2.815700
11.275200 2.634400
11.296000 3.685200
11.316900 4.646700
11.337700 5.748500
11.358600 6.570500
11.379400 7.210300
11.400300 8.328200
11.421100 7.916600
11.442000 7.309600
11.462800 6.980500
11.483700 7.211600
11.504600 7.077200
11.525400 6.682600
11.546300 6.594200
11.567100 6.701500
11.588000 6.532300
11.608800 6.717700
11.629700 6.764000
11.650500 7.307000
11.671400 7.964300
11.692200 7.576600
11.713100 6.473700
11.733900 5.788300
11.754800 5.493100
11.775600 5.621100
11.796500 4.949800
11.817400 4.061200
11.838200 3.362300
11.859100 3.700100
11.879900 4.898600
11.900800 6.076000
11.921600 7.079200
11.942500 9.352400
11.963300 9.024900
11.984200 7.503000
12.005000 6.573300
12.025900 5.967900
12.046700 5.587000
12.067600 5.097500
12.088400 4.619300
12.109300 4.467900
12.130200 4.865100
12.151000 4.566300
12.171900 4.536100
12.192700 4.849100
12.213600 5.356300
12.234400 6.279900
12.255300 7.417100
12.276100 8.347200
12.297000 8.437300
12.317800 7.093900
12.338700 6.588900
12.359500 6.329800
12.380400 6.567600
12.401200 6.958000
12.422100 6.504200
12.443000 4.939700
12.463800 4.032900
12.484700 3.872600
12.505500 3.831000
12.526400 3.898900
12.547200 4.382400
12.568100 3.555800
12.588900 3.754200
12.609800 6.592300
12.630600 8.532700
12.651500 10.797200
12.672300 14.359100
12.693200 11.764200
12.714000 9.905000
12.734900 7.773100
12.755800 5.794400
12.776600 4.245500
12.797500 3.667800
12.818300 3.827100
12.839200 5.681900
12.860000 4.844000
12.880900 4.924200
12.901700 5.288700
12.922600 5.806000
12.943400 6.011800
12.964300 6.346800
12.985100 6.617200
13.006000 7.804600
13.026800 9.111300
13.047700 9.199600
13.068600 8.335700
13.089400 6.646600
13.110300 5.415500
13.131100 2.873500
13.152000 0.359200
13.172800 0.579300
13.193700 0.971900
13.214500 1.448600
13.235400 4.972900
13.256200 4.684600
13.277100 6.309000
13.297900 6.151300
13.318800 7.432900
13.339600 8.570900
13.360500 8.497300
13.381400 7.498000
13.402200 7.061900
13.423100 6.733300
13.443900 6.313900
13.464800 5.703900
13.485600 5.297800
13.506500 3.253100
13.527300 4.201600
13.548200 1.370400
13.569000 0.559400
13.589900 0.108700
13.610700 0.000000
13.631600 0.098400
13.652400 1.533100
13.673300 2.427700
13.694200 3.032900
13.715000 3.769700
13.735900 5.092600
13.756700 6.580000
13.777600 7.170100
13.798400 7.910400
13.819300 8.632000
13.840100 8.279500
13.861000 7.390500
13.881800 6.494600
13.902700 5.987300
13.923500 5.318600
13.944400 4.669100
13.965200 4.992000
13.986100 5.313700
14.007000 5.179800
14.027800 4.965800
14.048700 4.338300
14.069500 4.128000
14.090400 4.225800
14.111200 4.386700
14.132100 4.704600
14.152900 5.615700
14.173800 6.313600
14.194600 6.584400
14.215500 6.511000
14.236300 6.457800
14.257200 6.034000
14.278000 4.339900
14.298900 3.763900
14.319800 3.288800
14.340600 2.908400
14.361500 2.600400
14.382300 2.548100
14.403200 4.471900
14.424000 4.999400
14.444900 3.829600
14.465700 3.196000
14.486600 2.923900
14.507400 2.641300
14.528300 2.713800
14.549100 2.857200
14.570000 3.082700
14.590800 3.736000
14.611700 4.665800
14.632600 5.008500
14.653400 5.166000
14.674300 5.403100
14.695100 5.911700
14.716000 6.192600
14.736800 6.528400
14.757700 6.949100
14.778500 7.045400
14.799400 6.824200
14.820200 6.163000
14.841100 6.148800
14.861900 6.445100
14.882800 6.365800
14.903600 6.087700
14.924500 6.158300
14.945400 6.532700
14.966200 7.069100
14.987100 7.691500
15.007900 9.985200
15.028800 9.872200
15.049600 7.787300
15.070500 5.698900
15.091300 3.978100
15.112200 2.825700
15.133000 2.324700
15.153900 2.072200
15.174700 2.027000
15.195600 2.672800
15.216400 4.300600
15.237300 5.577400
15.258200 6.196300
15.279000 5.445200
15.299900 5.531700
15.320700 5.675300
15.341600 5.937300
15.362400 5.754200
15.383300 5.395700
15.404100 5.056800
15.425000 4.744600
15.445800 4.532900
15.466700 4.354000
15.487500 4.178700
15.508400 3.930100
15.529200 3.975500
15.550100 4.339300
15.571000 5.128500
15.591800 6.267100
15.612700 7.328500
15.633500 8.949700
15.654400 9.614800
15.675200 8.797400
15.696100 8.190400
15.716900 7.652100
15.737800 7.325100
15.758600 5.515600
15.779500 4.658700
15.800300 4.053700
15.821200 4.053600
15.842000 4.435500
15.862900 4.438300
15.883800 4.336400
15.904600 4.484100
15.925500 4.972300
15.946300 7.631700
15.967200 8.587300
15.988000 8.999300
16.008900 9.458400
16.029700 9.118400
16.050600 8.241100
16.071400 7.086000
16.092300 5.761500
16.113100 4.921200
16.134000 4.019100
16.154800 3.626000
16.175700 3.628000
16.196600 3.819300
16.217400 4.458300
16.238300 5.216600
16.259100 5.998400
16.280000 7.215600
16.300800 8.487000
16.321700 9.714600
16.342500 9.263600
16.363400 7.526400
16.384200 7.036300
16.405100 7.170500
16.425900 6.775700
16.446800 5.609500
16.467600 3.740600
16.488500 2.606200
16.509400 2.415300
16.530200 2.777100
16.551100 3.827200
16.571900 5.898300
16.592800 6.211200
16.613600 6.768400
16.634500 7.037300
16.655300 6.918900
16.676200 6.685200
16.697000 6.555600
16.717900 6.805700
16.738700 7.187900
16.759600 7.760300
16.780400 7.659200
16.801300 7.427300
16.822200 6.868200
16.843000 5.503600
16.863900 4.649300
16.884700 4.107300
16.905600 3.570200
16.926400 3.829600
16.947300 4.211100
16.968100 4.694800
16.989000 5.801500
17.009800 7.221700
17.030700 8.163500
17.051500 10.407700
17.072400 10.119400
17.093200 6.690900
17.114100 5.738400
17.135000 4.137800
17.155800 4.081000
17.176700 4.491800
17.197500 4.756400
17.218400 4.921600
17.239200 4.955900
17.260100 5.078400
17.280900 4.973600
17.301800 4.419700
17.322600 4.079700
17.343500 4.806300
17.364300 5.122100
17.385200 5.201200
17.406000 5.374500
17.426900 5.445000
17.447800 6.069100
17.468600 7.530700
17.489500 7.703100
17.510300 8.196100
17.531200 7.675200
17.552000 7.032300
17.572900 5.798500
17.593700 5.473200
17.614600 5.145800
17.635400 4.894000
17.656300 4.923400
17.677100 6.387100
17.698000 7.092100
17.718800 7.532800
17.739700 7.598100
17.760600 7.496700
17.781400 6.325300
17.802300 4.886600
17.823100 4.242600
17.844000 3.763200
17.864800 3.472400
17.885700 3.672500
17.906500 4.329700
17.927400 4.994000
17.948200 4.900000
17.969100 5.195000
17.989900 5.564800
18.010800 5.981300
18.031600 7.221700
18.052500 7.282200
18.073400 7.804200
18.094200 7.751300
18.115100 7.646200
18.135900 7.329500
18.156800 6.534600
18.177600 4.874000
18.198500 3.787300
18.219300 2.782800
18.240200 2.259600
18.261000 1.788900
18.281900 1.409600
18.302700 1.117100
18.323600 0.838700
18.344400 0.387200
18.365300 0.004000
18.386200 0.000000
18.407000 0.000000
18.427900 0.000000
18.448700 0.000000
18.469600 0.000000
18.490400 0.000000
18.511300 0.000000
18.532100 0.000000
18.553000 0.000000
18.573800 0.000000
18.594700 0.000000
18.615500 0.000000
18.636400 0.000000
18.657200 0.000000
18.678100 0.000000
18.699000 0.000000
18.719800 0.000000
18.740700 0.000000
18.761500 0.000000
18.782400 0.000000
18.803200 0.000000
18.824100 0.000000
18.844900 0.000000
18.865800 0.000000
18.886600 0.000000
18.907500 0.000000
18.928300 0.000000
18.949200 0.000000
18.970000 0.000000
18.990900 0.000000
19.011800 0.000000
19.032600 0.000000
19.053500 0.000000
19.074300 0.000000
19.095200 0.000000
19.116000 0.000000
19.136900 0.000000
19.157700 0.000000
19.178600 0.000000
19.199400 0.000000
19.220300 0.000000
19.241100 0.000000
19.262000 0.000000
19.282800 0.000000
19.303700 0.000000
19.324600 0.000000
19.345400 0.000000
19.366300 0.000000
19.387100 0.000000
19.408000 0.000000
19.428800 0.000000
19.449700 0.000000
19.470500 0.000000
19.491400 0.000000
19.512200 0.000000
19.533100 0.000000
19.553900 0.000000
19.574800 0.000000
19.595600 0.000000
19.616500 0.000000
19.637400 0.000000
19.658200 0.000000
19.679100 0.000000
19.699900 0.000000
19.720800 0.000000
19.741600 0.000000
19.762500 0.000000
19.783300 0.000000
19.804200 0.000000
19.825000 0.000000
19.845900 0.000000
19.866700 0.000000
19.887600 0.000000
19.908400 0.000000
19.929300 0.000000
19.950200 0.000000
19.971000 0.000000
19.991900 0.000000
20.012700 0.000000
20.033600 0.000000
20.054400 0.000000
20.075300 0.000000
20.096100 0.000000
20.117000 0.000000
20.137800 0.000000
20.158700 0.000000
20.179500 0.000000
20.200400 0.000000
20.221200 0.000000
20.242100 0.000000
20.263000 0.000000
e
