set title 'mp-1183171 - Density of States'
set xlabel 'Energy (eV)'
set ylabel 'DOS (states/eV)'
set grid
set xrange [-10:10]
set yrange [0:34.744]
set xzeroaxis lt -1
set terminal png size 800,600
set output 'mp-1183171_dos_gnuplot.png'
plot '-' using 1:2 with lines title 'DOS'
-16.524700 0.000000
-16.503400 0.000000
-16.482100 0.000000
-16.460700 0.000000
-16.439400 0.000000
-16.418100 0.000000
-16.396800 0.000000
-16.375500 0.000000
-16.354100 0.000000
-16.332800 0.000000
-16.311500 0.000000
-16.290200 0.000000
-16.268800 0.000000
-16.247500 0.000000
-16.226200 0.000000
-16.204900 0.000000
-16.183500 0.000000
-16.162200 0.000000
-16.140900 0.000000
-16.119600 0.000000
-16.098200 0.000000
-16.076900 0.000000
-16.055600 0.000000
-16.034300 0.000000
-16.013000 0.000000
-15.991600 0.000000
-15.970300 0.000000
-15.949000 0.000000
-15.927700 0.000000
-15.906300 0.000000
-15.885000 0.000000
-15.863700 0.000000
-15.842400 0.000000
-15.821000 0.000000
-15.799700 0.000000
-15.778400 0.000000
-15.757100 0.000000
-15.735700 0.000000
-15.714400 0.000000
-15.693100 0.000000
-15.671800 0.000000
-15.650500 0.000000
-15.629100 0.000000
-15.607800 0.000000
-15.586500 0.000000
-15.565200 0.000000
-15.543800 0.000000
-15.522500 0.000000
-15.501200 0.000000
-15.479900 0.000000
-15.458500 0.000000
-15.437200 0.000000
-15.415900 0.000000
-15.394600 0.000000
-15.373200 0.000000
-15.351900 0.000000
-15.330600 0.000000
-15.309300 0.000000
-15.287900 0.000000
-15.266600 0.000000
-15.245300 0.000000
-15.224000 0.000000
-15.202700 0.000000
-15.181300 0.000000
-15.160000 0.000000
-15.138700 0.000000
-15.117400 0.000000
-15.096000 0.000000
-15.074700 0.000000
-15.053400 0.000000
-15.032100 0.000000
-15.010700 0.000000
-14.989400 0.000000
-14.968100 0.000000
-14.946800 0.000000
-14.925400 0.000000
-14.904100 0.000000
-14.882800 0.000000
-14.861500 0.000000
-14.840200 0.000000
-14.818800 0.000000
-14.797500 0.000000
-14.776200 0.000000
-14.754900 0.000000
-14.733500 0.000000
-14.712200 0.000000
-14.690900 0.000000
-14.669600 0.000000
-14.648200 0.000000
-14.626900 0.000000
-14.605600 0.000000
-14.584300 0.035100
-14.562900 1.777900
-14.541600 3.040100
-14.520300 4.120300
-14.499000 5.803500
-14.477700 6.604200
-14.456300 8.756200
-14.435000 11.512900
-14.413700 16.085000
-14.392400 25.265700
-14.371000 32.769200
-14.349700 39.947400
-14.328400 71.441800
-14.307100 0.000000
-14.285700 0.000000
-14.264400 0.000000
-14.243100 0.000000
-14.221800 0.000000
-14.200400 0.000000
-14.179100 0.000000
-14.157800 0.000000
-14.136500 0.000000
-14.115200 0.000000
-14.093800 0.000000
-14.072500 0.000000
-14.051200 0.000000
-14.029900 0.000000
-14.008500 0.000000
-13.987200 0.000000
-13.965900 0.000000
-13.944600 0.000000
-13.923200 0.000000
-13.901900 0.000000
-13.880600 0.000000
-13.859300 0.000000
-13.837900 0.000000
-13.816600 0.000000
-13.795300 0.000000
-13.774000 0.000000
-13.752700 0.000000
-13.731300 0.000000
-13.710000 0.000000
-13.688700 0.000000
-13.667400 0.000000
-13.646000 0.000000
-13.624700 0.000000
-13.603400 0.000000
-13.582100 0.000000
-13.560700 0.000000
-13.539400 0.000000
-13.518100 0.000000
-13.496800 0.000000
-13.475400 0.000000
-13.454100 0.000000
-13.432800 0.000000
-13.411500 0.000000
-13.390200 0.000000
-13.368800 0.000000
-13.347500 0.000000
-13.326200 0.000000
-13.304900 0.000000
-13.283500 0.000000
-13.262200 0.000000
-13.240900 0.000000
-13.219600 0.000000
-13.198200 0.000000
-13.176900 0.000000
-13.155600 0.000000
-13.134300 0.000000
-13.112900 0.000000
-13.091600 0.000000
-13.070300 0.000000
-13.049000 0.000000
-13.027600 0.000000
-13.006300 0.000000
-12.985000 0.000000
-12.963700 0.000000
-12.942400 0.000000
-12.921000 0.000000
-12.899700 0.000000
-12.878400 0.000000
-12.857100 0.000000
-12.835700 0.000000
-12.814400 0.000000
-12.793100 0.000000
-12.771800 0.000000
-12.750400 0.000000
-12.729100 0.000000
-12.707800 0.000000
-12.686500 0.000000
-12.665100 0.000000
-12.643800 0.000000
-12.622500 0.000000
-12.601200 0.000000
-12.579900 0.000000
-12.558500 0.000000
-12.537200 0.000000
-12.515900 0.000000
-12.494600 0.000000
-12.473200 0.000000
-12.451900 0.000000
-12.430600 0.000000
-12.409300 0.000000
-12.387900 0.000000
-12.366600 0.000000
-12.345300 0.000000
-12.324000 0.000000
-12.302600 0.000000
-12.281300 0.000000
-12.260000 0.000000
-12.238700 0.000000
-12.217400 0.000000
-12.196000 0.000000
-12.174700 0.000000
-12.153400 0.000000
-12.132100 0.000000
-12.110700 0.000000
-12.089400 0.000000
-12.068100 0.000000
-12.046800 0.000000
-12.025400 0.000000
-12.004100 0.000000
-11.982800 0.000000
-11.961500 0.000000
-11.940100 0.000000
-11.918800 0.000000
-11.897500 0.000000
-11.876200 0.000000
-11.854900 0.000000
-11.833500 0.000000
-11.812200 0.000000
-11.790900 0.000000
-11.769600 0.000000
-11.748200 0.000000
-11.726900 0.000000
-11.705600 0.000000
-11.684300 0.000000
-11.662900 0.000000
-11.641600 0.000000
-11.620300 0.000000
-11.599000 0.000000
-11.577600 0.000000
-11.556300 0.000000
-11.535000 0.000000
-11.513700 0.000000
-11.492400 0.000000
-11.471000 0.000000
-11.449700 0.000000
-11.428400 0.000000
-11.407100 0.000000
-11.385700 0.000000
-11.364400 0.000000
-11.343100 0.000000
-11.321800 0.000000
-11.300400 0.000000
-11.279100 0.000000
-11.257800 0.000000
-11.236500 0.000000
-11.215100 0.000000
-11.193800 0.000000
-11.172500 0.000000
-11.151200 0.000000
-11.129800 0.000000
-11.108500 0.000000
-11.087200 0.000000
-11.065900 0.000000
-11.044600 0.000000
-11.023200 0.000000
-11.001900 0.000000
-10.980600 0.000000
-10.959300 0.000000
-10.937900 0.000000
-10.916600 0.000000
-10.895300 0.000000
-10.874000 0.000000
-10.852600 0.000000
-10.831300 0.000000
-10.810000 0.000000
-10.788700 0.000000
-10.767300 0.000000
-10.746000 0.000000
-10.724700 0.000000
-10.703400 0.000000
-10.682100 0.000000
-10.660700 0.000000
-10.639400 0.000000
-10.618100 0.000000
-10.596800 0.000000
-10.575400 0.000000
-10.554100 0.000000
-10.532800 0.000000
-10.511500 0.000000
-10.490100 0.000000
-10.468800 0.000000
-10.447500 0.000000
-10.426200 0.000000
-10.404800 0.000000
-10.383500 0.000000
-10.362200 0.000000
-10.340900 0.000000
-10.319600 0.000000
-10.298200 0.000000
-10.276900 0.000000
-10.255600 0.000000
-10.234300 0.000000
-10.212900 0.000000
-10.191600 0.000000
-10.170300 0.000000
-10.149000 0.000000
-10.127600 0.000000
-10.106300 0.000000
-10.085000 0.000000
-10.063700 0.000000
-10.042300 0.000000
-10.021000 0.000000
-9.999700 0.000000
-9.978400 0.000000
-9.957100 0.000000
-9.935700 0.000000
-9.914400 0.000000
-9.893100 0.000000
-9.871800 0.000000
-9.850400 0.000000
-9.829100 0.000000
-9.807800 0.000000
-9.786500 0.000000
-9.765100 0.000000
-9.743800 0.000000
-9.722500 0.000000
-9.701200 0.000000
-9.679800 0.000000
-9.658500 0.000000
-9.637200 0.000000
-9.615900 0.000000
-9.594600 0.000000
-9.573200 0.000000
-9.551900 0.000000
-9.530600 0.000000
-9.509300 0.000000
-9.487900 0.000000
-9.466600 0.000000
-9.445300 0.000000
-9.424000 0.000000
-9.402600 0.000000
-9.381300 0.000000
-9.360000 0.000000
-9.338700 0.000000
-9.317300 0.000000
-9.296000 0.000000
-9.274700 0.000000
-9.253400 0.000000
-9.232100 0.000000
-9.210700 0.000000
-9.189400 0.000000
-9.168100 0.000000
-9.146800 0.000000
-9.125400 0.000000
-9.104100 0.000000
-9.082800 0.000000
-9.061500 0.000000
-9.040100 0.000000
-9.018800 0.000000
-8.997500 0.000000
-8.976200 0.000000
-8.954800 0.000000
-8.933500 0.000000
-8.912200 0.000000
-8.890900 0.000000
-8.869500 0.000000
-8.848200 0.000000
-8.826900 0.000000
-8.805600 0.000000
-8.784300 0.000000
-8.762900 0.000000
-8.741600 0.000000
-8.720300 0.000000
-8.699000 0.000000
-8.677600 0.000000
-8.656300 0.000000
-8.635000 0.000000
-8.613700 0.000000
-8.592300 0.000000
-8.571000 0.000000
-8.549700 0.000000
-8.528400 0.000000
-8.507000 0.000000
-8.485700 0.000000
-8.464400 0.000000
-8.443100 0.000000
-8.421800 0.000000
-8.400400 0.000000
-8.379100 0.000000
-8.357800 0.000000
-8.336500 0.000000
-8.315100 0.000000
-8.293800 0.000000
-8.272500 0.000000
-8.251200 0.000000
-8.229800 0.000000
-8.208500 0.000000
-8.187200 0.000000
-8.165900 0.000000
-8.144500 0.000000
-8.123200 0.000000
-8.101900 0.000000
-8.080600 0.000000
-8.059300 0.000000
-8.037900 0.000000
-8.016600 0.000000
-7.995300 0.000000
-7.974000 0.000000
-7.952600 0.000000
-7.931300 0.000000
-7.910000 0.000000
-7.888700 0.000000
-7.867300 0.000000
-7.846000 0.000000
-7.824700 0.000000
-7.803400 0.000000
-7.782000 0.000000
-7.760700 0.000000
-7.739400 0.000000
-7.718100 0.000000
-7.696800 0.000000
-7.675400 0.000000
-7.654100 0.000000
-7.632800 0.000000
-7.611500 0.000000
-7.590100 0.000000
-7.568800 0.000000
-7.547500 0.000000
-7.526200 0.000000
-7.504800 0.000000
-7.483500 0.000000
-7.462200 0.000000
-7.440900 0.000000
-7.419500 0.000000
-7.398200 0.000000
-7.376900 0.000000
-7.355600 0.000000
-7.334300 0.000000
-7.312900 0.000000
-7.291600 0.000000
-7.270300 0.000000
-7.249000 0.000000
-7.227600 0.000000
-7.206300 0.000000
-7.185000 0.000000
-7.163700 0.000000
-7.142300 0.000000
-7.121000 0.000000
-7.099700 0.000000
-7.078400 0.000000
-7.057000 0.000000
-7.035700 0.000000
-7.014400 0.000000
-6.993100 0.000000
-6.971800 0.000000
-6.950400 0.000000
-6.929100 0.000000
-6.907800 0.000000
-6.886500 0.000000
-6.865100 0.000000
-6.843800 0.000000
-6.822500 0.000000
-6.801200 0.000000
-6.779800 0.000000
-6.758500 0.000000
-6.737200 0.000000
-6.715900 0.000000
-6.694500 0.000000
-6.673200 0.000000
-6.651900 0.000000
-6.630600 0.000000
-6.609200 0.000000
-6.587900 0.000000
-6.566600 0.000000
-6.545300 0.000000
-6.524000 0.000000
-6.502600 0.000000
-6.481300 0.000000
-6.460000 0.000000
-6.438700 0.000000
-6.417300 0.000000
-6.396000 0.000000
-6.374700 0.000000
-6.353400 0.000000
-6.332000 0.000000
-6.310700 0.000000
-6.289400 0.000000
-6.268100 0.000000
-6.246700 0.000000
-6.225400 0.000000
-6.204100 0.000000
-6.182800 0.000000
-6.161500 0.000000
-6.140100 0.000000
-6.118800 0.000000
-6.097500 0.000000
-6.076200 0.000000
-6.054800 0.000000
-6.033500 0.000000
-6.012200 0.000000
-5.990900 0.000000
-5.969500 0.000000
-5.948200 0.000000
-5.926900 0.000000
-5.905600 0.000000
-5.884200 0.000000
-5.862900 0.000000
-5.841600 0.000000
-5.820300 0.000000
-5.799000 0.000000
-5.777600 0.000000
-5.756300 0.000000
-5.735000 0.000000
-5.713700 0.000000
-5.692300 0.000000
-5.671000 0.000000
-5.649700 0.000000
-5.628400 0.000000
-5.607000 0.000000
-5.585700 0.000000
-5.564400 0.000000
-5.543100 0.000000
-5.521700 0.000000
-5.500400 0.000000
-5.479100 0.000000
-5.457800 0.000000
-5.436500 0.000000
-5.415100 0.000000
-5.393800 0.000000
-5.372500 0.000000
-5.351200 0.000000
-5.329800 0.000000
-5.308500 0.000000
-5.287200 0.000000
-5.265900 0.000000
-5.244500 0.000000
-5.223200 0.000000
-5.201900 0.000000
-5.180600 0.000000
-5.159200 0.000000
-5.137900 0.000000
-5.116600 0.000000
-5.095300 0.000000
-5.074000 0.000000
-5.052600 0.000000
-5.031300 0.000000
-5.010000 0.000000
-4.988700 0.000000
-4.967300 0.000000
-4.946000 0.000000
-4.924700 0.000000
-4.903400 0.000000
-4.882000 0.000000
-4.860700 0.000000
-4.839400 0.000000
-4.818100 0.000000
-4.796700 0.000000
-4.775400 0.000000
-4.754100 0.000000
-4.732800 0.000000
-4.711500 0.000000
-4.690100 0.000000
-4.668800 0.000000
-4.647500 0.000000
-4.626200 0.000000
-4.604800 0.000000
-4.583500 0.000000
-4.562200 0.000000
-4.540900 0.000000
-4.519500 0.000000
-4.498200 0.000000
-4.476900 0.000000
-4.455600 0.000000
-4.434200 0.000000
-4.412900 0.000000
-4.391600 0.000000
-4.370300 0.000000
-4.348900 0.000000
-4.327600 0.000000
-4.306300 0.000000
-4.285000 0.000000
-4.263700 0.000000
-4.242300 0.000000
-4.221000 0.000000
-4.199700 1.740900
-4.178400 4.793200
-4.157000 6.631900
-4.135700 9.095000
-4.114400 13.511100
-4.093100 15.908500
-4.071700 16.890800
-4.050400 15.610200
-4.029100 14.864000
-4.007800 18.797500
-3.986400 15.170000
-3.965100 13.015100
-3.943800 9.463600
-3.922500 7.964600
-3.901200 7.145200
-3.879800 6.363500
-3.858500 4.204300
-3.837200 2.419800
-3.815900 1.508000
-3.794500 0.999400
-3.773200 0.772000
-3.751900 0.613400
-3.730600 0.495300
-3.709200 0.365400
-3.687900 0.125000
-3.666600 0.003000
-3.645300 4.949700
-3.623900 12.981300
-3.602600 15.511100
-3.581300 16.065200
-3.560000 18.709300
-3.538700 21.686400
-3.517300 25.055300
-3.496000 22.791400
-3.474700 24.622900
-3.453400 23.837000
-3.432000 25.072600
-3.410700 20.511300
-3.389400 21.426100
-3.368100 22.416100
-3.346700 16.360800
-3.325400 15.272300
-3.304100 17.158500
-3.282800 23.953200
-3.261400 31.585500
-3.240100 4.976700
-3.218800 3.060600
-3.197500 1.784800
-3.176200 0.016200
-3.154800 0.000000
-3.133500 0.000000
-3.112200 0.000000
-3.090900 0.000000
-3.069500 0.000000
-3.048200 0.000000
-3.026900 0.000000
-3.005600 0.000000
-2.984200 0.000000
-2.962900 0.000000
-2.941600 0.000000
-2.920300 0.000000
-2.898900 0.000000
-2.877600 0.000000
-2.856300 0.000000
-2.835000 0.000000
-2.813700 0.000000
-2.792300 0.000000
-2.771000 0.000000
-2.749700 0.000000
-2.728400 0.000000
-2.707000 0.000000
-2.685700 0.000000
-2.664400 0.000000
-2.643100 0.000000
-2.621700 0.000000
-2.600400 0.000000
-2.579100 0.000000
-2.557800 0.000000
-2.536400 0.000000
-2.515100 0.000000
-2.493800 0.000000
-2.472500 0.000000
-2.451200 0.000000
-2.429800 0.000000
-2.408500 0.000000
-2.387200 0.000000
-2.365900 0.000000
-2.344500 0.000000
-2.323200 0.000000
-2.301900 0.000000
-2.280600 0.000000
-2.259200 0.000000
-2.237900 0.000000
-2.216600 0.000000
-2.195300 0.000000
-2.173900 0.000000
-2.152600 0.000000
-2.131300 0.000000
-2.110000 0.000000
-2.088600 0.000000
-2.067300 0.000000
-2.046000 0.000000
-2.024700 0.000000
-2.003400 0.000000
-1.982000 0.000000
-1.960700 0.000000
-1.939400 0.000000
-1.918100 0.000000
-1.896700 0.000000
-1.875400 0.000000
-1.854100 0.000000
-1.832800 0.000000
-1.811400 0.000000
-1.790100 0.000000
-1.768800 0.000000
-1.747500 0.000000
-1.726100 0.000000
-1.704800 0.000000
-1.683500 0.000000
-1.662200 0.000000
-1.640900 0.000000
-1.619500 0.000000
-1.598200 0.000000
-1.576900 0.000000
-1.555600 0.000000
-1.534200 0.000000
-1.512900 0.000000
-1.491600 0.000000
-1.470300 0.000000
-1.448900 0.000000
-1.427600 0.000000
-1.406300 0.000000
-1.385000 0.000000
-1.363600 0.000000
-1.342300 0.000000
-1.321000 0.000000
-1.299700 5.384200
-1.278400 8.155300
-1.257000 8.690100
-1.235700 9.271300
-1.214400 11.264600
-1.193100 13.347400
-1.171700 23.116200
-1.150400 20.846300
-1.129100 19.517100
-1.107800 19.421400
-1.086400 19.105800
-1.065100 24.776800
-1.043800 18.888700
-1.022500 28.378000
-1.001100 31.564600
-0.979800 21.976700
-0.958500 19.719600
-0.937200 24.869500
-0.915900 23.028600
-0.894500 12.478500
-0.873200 5.532500
-0.851900 0.999600
-0.830600 2.966800
-0.809200 4.675400
-0.787900 6.071500
-0.766600 7.385700
-0.745300 9.149200
-0.723900 11.863000
-0.702600 13.279100
-0.681300 14.049100
-0.660000 14.209500
-0.638600 12.927400
-0.617300 9.188100
-0.596000 6.128500
-0.574700 4.961800
-0.553400 4.199900
-0.532000 3.699000
-0.510700 4.039600
-0.489400 4.827800
-0.468100 5.649300
-0.446700 5.960100
-0.425400 6.695800
-0.404100 7.434100
-0.382800 6.669100
-0.361400 5.712100
-0.340100 5.365700
-0.318800 5.286100
-0.297500 5.297700
-0.276100 5.673800
-0.254800 6.079900
-0.233500 7.653700
-0.212200 7.297000
-0.190800 7.915700
-0.169500 8.191000
-0.148200 8.543800
-0.126900 9.104400
-0.105600 8.844900
-0.084200 8.674200
-0.062900 7.815200
-0.041600 7.023200
-0.020300 6.509900
0.001100 5.804900
0.022400 5.318100
0.043700 5.256000
0.065000 5.105400
0.086400 4.552600
0.107700 5.341100
0.129000 8.601600
0.150300 7.800100
0.171700 6.673900
0.193000 6.745000
0.214300 6.766000
0.235600 7.319500
0.256900 8.051800
0.278300 8.876400
0.299600 8.379200
0.320900 8.505200
0.342200 8.726100
0.363600 8.577800
0.384900 8.423000
0.406200 8.330600
0.427500 8.307600
0.448900 8.139800
0.470200 8.069700
0.491500 8.135500
0.512800 8.061200
0.534200 7.628800
0.555500 6.774700
0.576800 6.267900
0.598100 5.664800
0.619400 5.116100
0.640800 4.745100
0.662100 4.467900
0.683400 4.193300
0.704700 3.937900
0.726100 3.762400
0.747400 3.387900
0.768700 3.175400
0.790000 3.087500
0.811400 2.965600
0.832700 2.838600
0.854000 2.700300
0.875300 2.663800
0.896700 2.357400
0.918000 2.124200
0.939300 1.995700
0.960600 1.832600
0.981900 1.661400
1.003300 1.495000
1.024600 1.357100
1.045900 1.126100
1.067200 0.889700
1.088600 0.699900
1.109900 0.534900
1.131200 0.457000
1.152500 0.255200
1.173900 0.025000
1.195200 0.000600
1.216500 0.004700
1.237800 0.012800
1.259200 0.024800
1.280500 0.039700
1.301800 0.054500
1.323100 0.068900
1.344400 0.082900
1.365800 0.093700
1.387100 0.101500
1.408400 0.108500
1.429700 0.114700
1.451100 0.120300
1.472400 0.125000
1.493700 0.131900
1.515000 0.140600
1.536400 0.149400
1.557700 0.158500
1.579000 0.167600
1.600300 0.177000
1.621700 0.186600
1.643000 0.196200
1.664300 0.205600
1.685600 0.214400
1.706900 0.222600
1.728300 0.230200
1.749600 0.237300
1.770900 0.244100
1.792200 0.251400
1.813600 0.259400
1.834900 0.267800
1.856200 0.276500
1.877500 0.285300
1.898900 0.294300
1.920200 0.303300
1.941500 0.312400
1.962800 0.321600
1.984200 0.330900
2.005500 0.340200
2.026800 0.349700
2.048100 0.359200
2.069500 0.368900
2.090800 0.378700
2.112100 0.396900
2.133400 0.415900
2.154700 0.434200
2.176100 0.451700
2.197400 0.468300
2.218700 0.483900
2.240000 0.498500
2.261400 0.479700
2.282700 0.487200
2.304000 0.494600
2.325300 0.502100
2.346700 0.509500
2.368000 0.517000
2.389300 0.524400
2.410600 0.531800
2.432000 0.539100
2.453300 0.546400
2.474600 0.553900
2.495900 0.565700
2.517200 0.584900
2.538600 0.605800
2.559900 0.628500
2.581200 0.653000
2.602500 0.679500
2.623900 0.708500
2.645200 0.709000
2.666500 0.727800
2.687800 0.746900
2.709200 0.766200
2.730500 0.785800
2.751800 0.805800
2.773100 0.826200
2.794500 0.847900
2.815800 0.871200
2.837100 0.896300
2.858400 0.923300
2.879700 0.954000
2.901100 0.987300
2.922400 1.020800
2.943700 1.055600
2.965000 1.097000
2.986400 1.142900
3.007700 1.187000
3.029000 1.229100
3.050300 1.268700
3.071700 1.306000
3.093000 1.326900
3.114300 1.335200
3.135600 1.359800
3.157000 1.404800
3.178300 1.448500
3.199600 1.494100
3.220900 1.542200
3.242200 1.595500
3.263600 1.659000
3.284900 1.730100
3.306200 1.805300
3.327500 1.883800
3.348900 1.963500
3.370200 2.049900
3.391500 2.183000
3.412800 2.327400
3.434200 2.160500
3.455500 2.119200
3.476800 2.125600
3.498100 2.127800
3.519500 2.125800
3.540800 2.115400
3.562100 2.125300
3.583400 2.145300
3.604700 2.194300
3.626100 2.221600
3.647400 2.238800
3.668700 2.241800
3.690000 2.238200
3.711400 2.221600
3.732700 2.199700
3.754000 2.181500
3.775300 2.034300
3.796700 2.041100
3.818000 2.048100
3.839300 2.055300
3.860600 2.062600
3.882000 2.067900
3.903300 2.073700
3.924600 2.194700
3.945900 2.281100
3.967200 2.364400
3.988600 2.449600
4.009900 2.490300
4.031200 2.350200
4.052500 2.369000
4.073900 2.407000
4.095200 2.436100
4.116500 2.449600
4.137800 2.511900
4.159200 2.549300
4.180500 2.571100
4.201800 2.592700
4.223100 2.626200
4.244500 2.727300
4.265800 3.033300
4.287100 3.266900
4.308400 3.574600
4.329800 3.771100
4.351100 3.977100
4.372400 3.881100
4.393700 5.285600
4.415000 2.627900
4.436400 0.163900
4.457700 0.000000
4.479000 0.000000
4.500300 0.000000
4.521700 0.000000
4.543000 0.000000
4.564300 0.000000
4.585600 0.000000
4.607000 0.000000
4.628300 0.000000
4.649600 0.000000
4.670900 0.000000
4.692300 0.000000
4.713600 0.000000
4.734900 0.000000
4.756200 0.000000
4.777500 0.000000
4.798900 0.000000
4.820200 0.000000
4.841500 0.000000
4.862800 0.000000
4.884200 0.000000
4.905500 0.000000
4.926800 0.000000
4.948100 0.000000
4.969500 0.000000
4.990800 0.000000
5.012100 0.000000
5.033400 0.000000
5.054800 0.000000
5.076100 0.000000
5.097400 0.000000
5.118700 0.000000
5.140000 0.000000
5.161400 0.000000
5.182700 0.000000
5.204000 0.000000
5.225300 0.000000
5.246700 0.000000
5.268000 0.000000
5.289300 0.000000
5.310600 0.000000
5.332000 0.000000
5.353300 0.000000
5.374600 0.000000
5.395900 0.000000
5.417300 0.000000
5.438600 0.000000
5.459900 0.000000
5.481200 0.000000
5.502500 0.000000
5.523900 0.000000
5.545200 0.000000
5.566500 0.000000
5.587800 0.000000
5.609200 0.000000
5.630500 0.000000
5.651800 0.000000
5.673100 0.000000
5.694500 0.000000
5.715800 0.000000
5.737100 0.000000
5.758400 0.000000
5.779800 0.000000
5.801100 0.000000
5.822400 0.000000
5.843700 0.000000
5.865000 0.000000
5.886400 0.000000
5.907700 0.000000
5.929000 0.000000
5.950300 0.000000
5.971700 0.000000
5.993000 0.000000
6.014300 0.000000
6.035600 0.000000
6.057000 0.000000
6.078300 0.000000
6.099600 0.000000
6.120900 0.000000
6.142300 0.000000
6.163600 0.000000
6.184900 0.000000
6.206200 0.000000
6.227500 0.000000
6.248900 0.000000
6.270200 0.000000
6.291500 0.016900
6.312800 0.751000
6.334200 2.432400
6.355500 3.370600
6.376800 4.024800
6.398100 2.898700
6.419500 2.858300
6.440800 3.242900
6.462100 3.467700
6.483400 3.407000
6.504800 3.537000
6.526100 3.791300
6.547400 4.390100
6.568700 4.577700
6.590100 4.734400
6.611400 4.808900
6.632700 5.261300
6.654000 5.141600
6.675300 5.059000
6.696700 5.031400
6.718000 5.066600
6.739300 5.184100
6.760600 5.321300
6.782000 5.444900
6.803300 5.331500
6.824600 5.261100
6.845900 5.042900
6.867300 4.952600
6.888600 5.201000
6.909900 6.302800
6.931200 4.561900
6.952600 3.888000
6.973900 3.332300
6.995200 3.056200
7.016500 2.825600
7.037800 2.717600
7.059200 2.717400
7.080500 2.875000
7.101800 3.000400
7.123100 2.809100
7.144500 2.542400
7.165800 2.176800
7.187100 2.026400
7.208400 1.699300
7.229800 1.493100
7.251100 1.403700
7.272400 1.299500
7.293700 1.212100
7.315100 1.167700
7.336400 1.129200
7.357700 1.090600
7.379000 1.052800
7.400300 1.016600
7.421700 0.985800
7.443000 0.957700
7.464300 0.930200
7.485600 0.903700
7.507000 0.886400
7.528300 0.878500
7.549600 0.877300
7.570900 0.881300
7.592300 0.881900
7.613600 0.857600
7.634900 0.816600
7.656200 0.754600
7.677600 0.712300
7.698900 0.714900
7.720200 0.728700
7.741500 0.752900
7.762800 0.777800
7.784200 0.803300
7.805500 0.829300
7.826800 0.856000
7.848100 0.886400
7.869500 0.923200
7.890800 0.964900
7.912100 1.010300
7.933400 1.070300
7.954800 1.131800
7.976100 1.197100
7.997400 1.267200
8.018700 1.346900
8.040100 1.446800
8.061400 1.591100
8.082700 1.786200
8.104000 2.036300
8.125300 2.317400
8.146700 2.615700
8.168000 3.126600
8.189300 3.859000
8.210600 4.838100
8.232000 4.478900
8.253300 4.703500
8.274600 5.109100
8.295900 5.577400
8.317300 6.127900
8.338600 7.977500
8.359900 7.856400
8.381200 6.379800
8.402600 5.734300
8.423900 5.581700
8.445200 5.382700
8.466500 5.261400
8.487900 5.198200
8.509200 5.066900
8.530500 4.659700
8.551800 4.277800
8.573100 4.207400
8.594500 4.177000
8.615800 4.128200
8.637100 4.081200
8.658400 3.513900
8.679800 3.176900
8.701100 3.344500
8.722400 2.863400
8.743700 2.543300
8.765100 2.729100
8.786400 2.960100
8.807700 3.303800
8.829000 3.527200
8.850400 3.667700
8.871700 3.591500
8.893000 3.549600
8.914300 3.486900
8.935600 3.628700
8.957000 3.741100
8.978300 3.662300
8.999600 3.591700
9.020900 3.456600
9.042300 3.131100
9.063600 2.775300
9.084900 2.577000
9.106200 2.495000
9.127600 2.433200
9.148900 2.367700
9.170200 2.225100
9.191500 2.186900
9.212900 2.170100
9.234200 2.186000
9.255500 2.252200
9.276800 2.347900
9.298100 2.420100
9.319500 2.473200
9.340800 2.502000
9.362100 2.512800
9.383400 2.559200
9.404800 2.598200
9.426100 2.627400
9.447400 2.646600
9.468700 2.653000
9.490100 2.651700
9.511400 2.672600
9.532700 2.684100
9.554000 2.664400
9.575400 2.651900
9.596700 2.635800
9.618000 2.613800
9.639300 2.585700
9.660600 2.535500
9.682000 2.446500
9.703300 2.436300
9.724600 2.424400
9.745900 2.410200
9.767300 2.392100
9.788600 2.380000
9.809900 2.382100
9.831200 2.369700
9.852600 2.416900
9.873900 2.501400
9.895200 2.567300
9.916500 2.709800
9.937900 2.355800
9.959200 2.293600
9.980500 2.272000
10.001800 2.003000
10.023100 1.916000
10.044500 1.877600
10.065800 1.847600
10.087100 1.885700
10.108400 1.906900
10.129800 1.932800
10.151100 1.974200
10.172400 2.022400
10.193700 2.078500
10.215100 2.157400
10.236400 2.443700
10.257700 2.539800
10.279000 2.601700
10.300400 2.652800
10.321700 2.673600
10.343000 2.669000
10.364300 2.668500
10.385600 2.713100
10.407000 2.831600
10.428300 3.236200
10.449600 3.129200
10.470900 2.042500
10.492300 1.904500
10.513600 1.195200
10.534900 0.680400
10.556200 0.761000
10.577600 0.845900
10.598900 0.934400
10.620200 1.057400
10.641500 1.203100
10.662900 1.496500
10.684200 1.953500
10.705500 2.411400
10.726800 2.592900
10.748200 2.066300
10.769500 1.852000
10.790800 1.744300
10.812100 1.659800
10.833400 1.602000
10.854800 1.558600
10.876100 1.517300
10.897400 1.479200
10.918700 1.458300
10.940100 1.450300
10.961400 1.450500
10.982700 1.454500
11.004000 1.456600
11.025400 1.458100
11.046700 1.460800
11.068000 1.474200
11.089300 1.483700
11.110700 1.492700
11.132000 1.500900
11.153300 1.515200
11.174600 1.527900
11.195900 1.537900
11.217300 1.544000
11.238600 1.541600
11.259900 1.532200
11.281200 1.518200
11.302600 1.500300
11.323900 1.546900
11.345200 1.765900
11.366500 1.850400
11.387900 1.872100
11.409200 1.887200
11.430500 1.881300
11.451800 1.915300
11.473200 1.854400
11.494500 1.786800
11.515800 1.497500
11.537100 1.267300
11.558400 1.294300
11.579800 1.249700
11.601100 1.279700
11.622400 1.258800
11.643700 1.238600
11.665100 1.223400
11.686400 1.189400
11.707700 1.220400
11.729000 1.254600
11.750400 1.302000
11.771700 1.408100
11.793000 1.534800
11.814300 1.681700
11.835700 1.803400
11.857000 1.976200
11.878300 2.216200
11.899600 2.704500
11.920900 2.857500
11.942300 2.812500
11.963600 2.670800
11.984900 2.685500
12.006200 2.704900
12.027600 2.939600
12.048900 3.283800
12.070200 3.079700
12.091500 3.048100
12.112900 2.967900
12.134200 2.608400
12.155500 2.524200
12.176800 2.497000
12.198200 2.469700
12.219500 2.431400
12.240800 2.388800
12.262100 2.337200
12.283400 2.283200
12.304800 2.206400
12.326100 2.113900
12.347400 2.031400
12.368700 1.971000
12.390100 1.972500
12.411400 1.995200
12.432700 2.007700
12.454000 1.644300
12.475400 1.610600
12.496700 1.571100
12.518000 1.530900
12.539300 1.490400
12.560700 1.442900
12.582000 1.370400
12.603300 1.284800
12.624600 1.204200
12.645900 1.161000
12.667300 1.158800
12.688600 1.132100
12.709900 1.094900
12.731200 1.057400
12.752600 1.035200
12.773900 1.063000
12.795200 1.233300
12.816500 1.447500
12.837900 1.356500
12.859200 1.084700
12.880500 1.163000
12.901800 1.323800
12.923200 1.508200
12.944500 2.442500
12.965800 2.737100
12.987100 2.945200
13.008500 3.094000
13.029800 3.134400
13.051100 3.112800
13.072400 3.067100
13.093700 3.355100
13.115100 3.511300
13.136400 3.629900
13.157700 3.781000
13.179000 3.904100
13.200400 3.976100
13.221700 4.311900
13.243000 4.580200
13.264300 4.424200
13.285700 4.394000
13.307000 4.334000
13.328300 4.171500
13.349600 3.946200
13.371000 4.118300
13.392300 4.883900
13.413600 5.393600
13.434900 6.580400
13.456200 7.156200
13.477600 6.682500
13.498900 6.461100
13.520200 6.223300
13.541500 6.016700
13.562900 5.785800
13.584200 5.605900
13.605500 5.328900
13.626800 5.129200
13.648200 4.984200
13.669500 4.985700
13.690800 4.718000
13.712100 4.373300
13.733500 4.052100
13.754800 3.763600
13.776100 3.754500
13.797400 3.821300
13.818700 3.924000
13.840100 3.916500
13.861400 3.857100
13.882700 3.983500
13.904000 4.224100
13.925400 3.968600
13.946700 3.977100
13.968000 3.942300
13.989300 3.795900
14.010700 3.799800
14.032000 3.797500
14.053300 3.771000
14.074600 3.782000
14.096000 3.802500
14.117300 3.984400
14.138600 4.039900
14.159900 3.860300
14.181200 3.953400
14.202600 4.009600
14.223900 4.026700
14.245200 4.163600
14.266500 4.144100
14.287900 4.367200
14.309200 4.707200
14.330500 4.803000
14.351800 3.103600
14.373200 3.073300
14.394500 2.895900
14.415800 2.974900
14.437100 2.691700
14.458500 2.521700
14.479800 4.678800
14.501100 4.211500
14.522400 4.031000
14.543700 3.861500
14.565100 3.917500
14.586400 3.984700
14.607700 3.951500
14.629000 4.001000
14.650400 4.066700
14.671700 4.159700
14.693000 4.365700
14.714300 4.836700
14.735700 5.096100
14.757000 5.259200
14.778300 5.410600
14.799600 5.394400
14.821000 4.832400
14.842300 4.135500
14.863600 3.992800
14.884900 4.249400
14.906200 4.400800
14.927600 6.293200
14.948900 4.578600
14.970200 4.366000
14.991500 4.257200
15.012900 4.262000
15.034200 4.258800
15.055500 4.024000
15.076800 3.968700
15.098200 3.909900
15.119500 3.850400
15.140800 3.789400
15.162100 3.730000
15.183500 3.826600
15.204800 3.695900
15.226100 3.752200
15.247400 3.798700
15.268800 3.862400
15.290100 3.585700
15.311400 3.319000
15.332700 3.471500
15.354000 3.693800
15.375400 4.040000
15.396700 4.326000
15.418000 4.741800
15.439300 5.037700
15.460700 5.064600
15.482000 4.725100
15.503300 4.538000
15.524600 4.453300
15.546000 4.378000
15.567300 4.374600
15.588600 4.389700
15.609900 4.370600
15.631300 4.317600
15.652600 4.188800
15.673900 4.050000
15.695200 3.913500
15.716500 3.795600
15.737900 3.680300
15.759200 3.785700
15.780500 3.681000
15.801800 3.587800
15.823200 3.540100
15.844500 3.529500
15.865800 3.538900
15.887100 3.565800
15.908500 3.558700
15.929800 3.531300
15.951100 3.483200
15.972400 3.427400
15.993800 3.480300
16.015100 3.530400
16.036400 3.575600
16.057700 3.665200
16.079000 4.249100
16.100400 4.254500
16.121700 4.281300
16.143000 4.456900
16.164300 4.592700
16.185700 4.642900
16.207000 4.646700
16.228300 4.616100
16.249600 4.585900
16.271000 4.602700
16.292300 4.683900
16.313600 4.726600
16.334900 4.932800
16.356300 5.148300
16.377600 5.106800
16.398900 4.216200
16.420200 3.901200
16.441500 3.670900
16.462900 3.511700
16.484200 3.632200
16.505500 3.404100
16.526800 3.296200
16.548200 3.197600
16.569500 3.114100
16.590800 3.040300
16.612100 2.816400
16.633500 2.558500
16.654800 2.426700
16.676100 2.356800
16.697400 2.410000
16.718800 3.261500
16.740100 2.882400
16.761400 3.109000
16.782700 3.201700
16.804000 3.139000
16.825400 3.101600
16.846700 2.961200
16.868000 3.000100
16.889300 3.110000
16.910700 3.297600
16.932000 3.418800
16.953300 4.054600
16.974600 4.049700
16.996000 3.993300
17.017300 3.898000
17.038600 3.989800
17.059900 4.324800
17.081300 4.830600
17.102600 5.228700
17.123900 5.232200
17.145200 5.015900
17.166600 4.731900
17.187900 3.936200
17.209200 2.507100
17.230500 2.463600
17.251800 2.477000
17.273200 2.637500
17.294500 2.653500
17.315800 2.678200
17.337100 2.760300
17.358500 2.867300
17.379800 2.953500
17.401100 2.984700
17.422400 3.029800
17.443800 3.184300
17.465100 3.523900
17.486400 3.879200
17.507700 4.380500
17.529100 4.235700
17.550400 4.870200
17.571700 3.865500
17.593000 3.861000
17.614300 3.923400
17.635700 4.010400
17.657000 4.227800
17.678300 4.434800
17.699600 4.376900
17.721000 4.081600
17.742300 3.769100
17.763600 3.590800
17.784900 3.349100
17.806300 2.768900
17.827600 2.502700
17.848900 2.357400
17.870200 2.278800
17.891600 2.146400
17.912900 2.096000
17.934200 2.185800
17.955500 2.366300
17.976800 2.639700
17.998200 2.829200
18.019500 2.917600
18.040800 2.887000
18.062100 2.793600
18.083500 2.818200
18.104800 3.119400
18.126100 3.088300
18.147400 2.930200
18.168800 2.829300
18.190100 3.282300
18.211400 2.331900
18.232700 1.379700
18.254100 1.143300
18.275400 1.143500
18.296700 1.161900
18.318000 1.191000
18.339300 1.238800
18.360700 1.353100
18.382000 1.436100
18.403300 1.747100
18.424600 1.958800
18.446000 2.118700
18.467300 2.138700
18.488600 2.132200
18.509900 2.160900
18.531300 2.227800
18.552600 2.368500
18.573900 2.505200
18.595200 2.639000
18.616600 2.772000
18.637900 2.923800
18.659200 3.114000
18.680500 3.344600
18.701800 3.628400
18.723200 3.950500
18.744500 4.120100
18.765800 3.861700
18.787100 3.726600
18.808500 3.731100
18.829800 3.071400
18.851100 2.953200
18.872400 2.805200
18.893800 2.647300
18.915100 2.652100
18.936400 2.725000
18.957700 2.717200
18.979100 2.716200
19.000400 2.727600
19.021700 2.739600
19.043000 2.751900
19.064300 2.785600
19.085700 2.877700
19.107000 2.962400
19.128300 3.018200
19.149600 3.006000
19.171000 2.925400
19.192300 2.841800
19.213600 2.796700
19.234900 2.813000
19.256300 2.821000
19.277600 2.831000
19.298900 2.869300
19.320200 2.936700
19.341600 3.026200
19.362900 3.150900
19.384200 3.288500
19.405500 2.898500
19.426900 2.894300
19.448200 3.122400
19.469500 3.092800
19.490800 3.074100
19.512100 3.064100
19.533500 3.074600
19.554800 2.994300
19.576100 3.047300
19.597400 3.109200
19.618800 3.176200
19.640100 3.254100
19.661400 3.341500
19.682700 3.380500
19.704100 3.468000
19.725400 3.630600
19.746700 3.693000
19.768000 3.740200
19.789400 3.752300
19.810700 3.772600
19.832000 3.806400
19.853300 3.824600
19.874600 3.863500
19.896000 3.909000
19.917300 3.956600
19.938600 4.016100
19.959900 4.251600
19.981300 4.219000
20.002600 4.120400
20.023900 3.943800
20.045200 3.665200
20.066600 3.431000
20.087900 3.252600
20.109200 3.132700
20.130500 3.067300
20.151900 3.069900
20.173200 3.080400
20.194500 3.325200
20.215800 3.330500
20.237100 3.437900
20.258500 3.706600
20.279800 3.748500
20.301100 3.791700
20.322400 3.845800
20.343800 3.831900
20.365100 3.963500
20.386400 4.268100
20.407700 4.262200
20.429100 4.326900
20.450400 5.442600
20.471700 4.440800
20.493000 3.852600
20.514400 3.641400
20.535700 3.402000
20.557000 3.186600
20.578300 3.020000
20.599600 2.735400
20.621000 2.669500
20.642300 2.801000
20.663600 3.279400
20.684900 3.928900
20.706300 3.368600
20.727600 3.211200
20.748900 2.805800
20.770200 2.760200
20.791600 2.712500
20.812900 2.657900
20.834200 2.591600
20.855500 2.564100
20.876900 2.540700
20.898200 2.629200
20.919500 2.634200
20.940800 2.634900
20.962100 2.649300
20.983500 2.678800
21.004800 2.879000
21.026100 3.184700
21.047400 2.647400
21.068800 2.683800
21.090100 2.730100
21.111400 2.851200
21.132700 2.935300
21.154100 3.153400
21.175400 3.411900
21.196700 3.547500
21.218000 3.691500
21.239400 3.808500
21.260700 3.622900
21.282000 3.623900
21.303300 3.659800
21.324600 3.713800
21.346000 3.678900
21.367300 3.644500
21.388600 3.660400
21.409900 3.544600
21.431300 3.389800
21.452600 3.212500
21.473900 3.144100
21.495200 3.073300
21.516600 2.986900
21.537900 2.788000
21.559200 2.632400
21.580500 2.544000
21.601900 2.732400
21.623200 2.685900
21.644500 2.657700
21.665800 2.633800
21.687200 2.609400
21.708500 2.727700
21.729800 2.746100
21.751100 2.733200
21.772400 2.670200
21.793800 2.746000
21.815100 2.975800
21.836400 3.185400
21.857700 3.279200
21.879100 3.269800
21.900400 2.997800
21.921700 2.629200
21.943000 2.318100
21.964400 2.206200
21.985700 2.135600
22.007000 2.077100
22.028300 2.021700
22.049700 1.958400
22.071000 1.918000
22.092300 2.363300
22.113600 3.312700
22.134900 4.287900
22.156300 5.273100
22.177600 6.071600
22.198900 6.031000
22.220200 5.499600
22.241600 5.038400
22.262900 4.511300
22.284200 4.036300
22.305500 3.543600
22.326900 2.917400
22.348200 2.608400
22.369500 2.346700
22.390800 2.216400
22.412200 2.132900
22.433500 2.056300
22.454800 2.010400
22.476100 2.051000
22.497400 2.176300
22.518800 2.326500
22.540100 2.556300
22.561400 2.764500
22.582700 3.093900
22.604100 3.459700
22.625400 3.823500
22.646700 4.265300
22.668000 4.659100
22.689400 3.480300
22.710700 3.588100
22.732000 3.743800
22.753300 3.907000
22.774700 4.221900
22.796000 4.735800
22.817300 5.323800
22.838600 5.430500
22.859900 5.272100
22.881300 5.225400
22.902600 5.080200
22.923900 4.997600
22.945200 4.868000
22.966600 4.832500
22.987900 4.662300
23.009200 4.309200
23.030500 3.647400
23.051900 3.613100
23.073200 3.907700
23.094500 4.953400
23.115800 5.521500
23.137200 5.427100
23.158500 5.311700
23.179800 5.186100
23.201100 5.895700
23.222400 5.742500
23.243800 5.490500
23.265100 5.246400
23.286400 5.118600
23.307700 5.224900
23.329100 5.377200
23.350400 6.158500
23.371700 5.869800
23.393000 5.267400
23.414400 4.829400
23.435700 4.578900
23.457000 4.491500
23.478300 4.491000
23.499700 4.590600
23.521000 4.694200
23.542300 4.738000
23.563600 4.668300
23.584900 4.437100
23.606300 4.246900
23.627600 4.027300
23.648900 3.589100
23.670200 3.263300
23.691600 3.077000
23.712900 2.966900
23.734200 2.888400
23.755500 2.812200
23.776900 2.709200
23.798200 2.547700
23.819500 2.337100
23.840800 1.949600
23.862200 1.494700
23.883500 1.320200
23.904800 1.163300
23.926100 1.031400
23.947500 0.993000
23.968800 0.927900
23.990100 0.864600
24.011400 0.809400
24.032700 0.874100
24.054100 1.385100
24.075400 0.518600
24.096700 0.092000
24.118000 0.038900
24.139400 0.015400
24.160700 0.003700
24.182000 0.000000
24.203300 0.000000
24.224700 0.000000
24.246000 0.000000
24.267300 0.000000
24.288600 0.000000
24.310000 0.000000
24.331300 0.000000
24.352600 0.000000
24.373900 0.000000
24.395200 0.000000
24.416600 0.000000
24.437900 0.000000
24.459200 0.000000
24.480500 0.000000
24.501900 0.000000
24.523200 0.000000
24.544500 0.000000
24.565800 0.000000
24.587200 0.000000
24.608500 0.000000
24.629800 0.000000
24.651100 0.000000
24.672500 0.000000
24.693800 0.000000
24.715100 0.000000
24.736400 0.000000
24.757700 0.000000
24.779100 0.000000
24.800400 0.000000
24.821700 0.000000
24.843000 0.000000
24.864400 0.000000
24.885700 0.000000
24.907000 0.000000
24.928300 0.000000
24.949700 0.000000
24.971000 0.000000
24.992300 0.000000
25.013600 0.000000
25.035000 0.000000
25.056300 0.000000
25.077600 0.000000
25.098900 0.000000
25.120200 0.000000
25.141600 0.000000
25.162900 0.000000
25.184200 0.000000
25.205500 0.000000
25.226900 0.000000
25.248200 0.000000
25.269500 0.000000
25.290800 0.000000
25.312200 0.000000
25.333500 0.000000
25.354800 0.000000
25.376100 0.000000
25.397500 0.000000
25.418800 0.000000
25.440100 0.000000
25.461400 0.000000
25.482700 0.000000
25.504100 0.000000
25.525400 0.000000
25.546700 0.000000
25.568000 0.000000
25.589400 0.000000
25.610700 0.000000
25.632000 0.000000
25.653300 0.000000
25.674700 0.000000
25.696000 0.000000
25.717300 0.000000
25.738600 0.000000
25.760000 0.000000
25.781300 0.000000
25.802600 0.000000
25.823900 0.000000
25.845200 0.000000
25.866600 0.000000
25.887900 0.000000
25.909200 0.000000
25.930500 0.000000
25.951900 0.000000
25.973200 0.000000
25.994500 0.000000
26.015800 0.000000
26.037200 0.000000
26.058500 0.000000
26.079800 0.000000
26.101100 0.000000
26.122500 0.000000
e
