set title 'mp-1220515 - Density of States'
set xlabel 'Energy (eV)'
set ylabel 'DOS (states/eV)'
set grid
set xrange [-10:10]
set yrange [0:16.947]
set xzeroaxis lt -1
set terminal png size 800,600
set output 'mp-1220515_dos_gnuplot.png'
plot '-' using 1:2 with lines title 'DOS'
-28.474700 0.000000
-28.444200 0.000000
-28.413800 0.000000
-28.383300 0.000000
-28.352800 0.000000
-28.322400 0.000000
-28.291900 0.000000
-28.261400 0.000000
-28.231000 0.000000
-28.200500 0.000000
-28.170100 0.000000
-28.139600 0.000000
-28.109100 0.000000
-28.078700 0.000000
-28.048200 0.000000
-28.017700 0.000000
-27.987300 0.000000
-27.956800 0.000000
-27.926300 0.000000
-27.895900 0.000000
-27.865400 0.000000
-27.834900 0.000000
-27.804500 0.000000
-27.774000 0.000000
-27.743600 0.000000
-27.713100 0.000000
-27.682600 0.000000
-27.652200 0.000000
-27.621700 0.000000
-27.591200 0.000000
-27.560800 0.000000
-27.530300 0.000000
-27.499800 0.000000
-27.469400 0.000000
-27.438900 0.000000
-27.408500 0.000000
-27.378000 0.000000
-27.347500 0.000000
-27.317100 0.000000
-27.286600 0.000000
-27.256100 0.000000
-27.225700 0.000000
-27.195200 0.000000
-27.164700 0.000000
-27.134300 0.000000
-27.103800 0.000000
-27.073400 0.000000
-27.042900 0.000000
-27.012400 0.000000
-26.982000 0.000000
-26.951500 0.000000
-26.921000 0.000000
-26.890600 0.000000
-26.860100 0.000000
-26.829600 0.000000
-26.799200 0.000000
-26.768700 0.000000
-26.738300 0.000000
-26.707800 0.000000
-26.677300 0.000000
-26.646900 0.000000
-26.616400 0.000000
-26.585900 0.000000
-26.555500 0.000000
-26.525000 0.000000
-26.494500 0.000000
-26.464100 0.000000
-26.433600 0.000000
-26.403200 0.000000
-26.372700 0.000000
-26.342200 0.000000
-26.311800 0.000000
-26.281300 0.000000
-26.250800 0.000000
-26.220400 0.000000
-26.189900 0.000000
-26.159400 0.000000
-26.129000 0.000000
-26.098500 0.000000
-26.068100 0.000000
-26.037600 0.000000
-26.007100 0.000000
-25.976700 0.000000
-25.946200 0.000000
-25.915700 0.000000
-25.885300 0.000000
-25.854800 0.000000
-25.824300 0.000000
-25.793900 0.000000
-25.763400 0.000000
-25.733000 0.000000
-25.702500 15.073300
-25.672000 5.945400
-25.641600 14.514600
-25.611100 18.790400
-25.580600 27.363900
-25.550200 19.339900
-25.519700 23.437200
-25.489200 4.198300
-25.458800 3.400500
-25.428300 5.320500
-25.397800 26.752700
-25.367400 33.831700
-25.336900 15.722000
-25.306500 8.473700
-25.276000 21.671500
-25.245500 33.422000
-25.215100 30.887900
-25.184600 22.934200
-25.154100 21.452600
-25.123700 19.502900
-25.093200 14.286500
-25.062700 15.960600
-25.032300 7.166100
-25.001800 0.000000
-24.971400 0.000000
-24.940900 0.000000
-24.910400 0.000000
-24.880000 11.293000
-24.849500 8.367300
-24.819000 16.726800
-24.788600 41.221800
-24.758100 12.860700
-24.727600 9.557400
-24.697200 7.912000
-24.666700 10.423300
-24.636300 26.542000
-24.605800 5.711500
-24.575300 9.448400
-24.544900 51.724500
-24.514400 37.569600
-24.483900 16.881800
-24.453500 22.518900
-24.423000 31.396500
-24.392500 51.871900
-24.362100 33.623000
-24.331600 17.549800
-24.301200 7.247200
-24.270700 0.000000
-24.240200 0.000000
-24.209800 0.000000
-24.179300 0.000000
-24.148800 0.000000
-24.118400 0.000000
-24.087900 0.000000
-24.057400 0.000000
-24.027000 0.000000
-23.996500 0.000000
-23.966100 0.000000
-23.935600 0.000000
-23.905100 0.000000
-23.874700 0.000000
-23.844200 0.000000
-23.813700 0.000000
-23.783300 0.000000
-23.752800 0.000000
-23.722300 0.000000
-23.691900 0.000000
-23.661400 0.000000
-23.631000 0.000000
-23.600500 0.000000
-23.570000 0.000000
-23.539600 0.000000
-23.509100 0.000000
-23.478600 0.000000
-23.448200 0.000000
-23.417700 0.000000
-23.387200 0.000000
-23.356800 0.000000
-23.326300 0.000000
-23.295900 0.000000
-23.265400 0.000000
-23.234900 0.000000
-23.204500 0.000000
-23.174000 0.000000
-23.143500 0.000000
-23.113100 0.000000
-23.082600 0.000000
-23.052100 0.000000
-23.021700 0.000000
-22.991200 0.000000
-22.960800 0.000000
-22.930300 0.000000
-22.899800 0.000000
-22.869400 0.000000
-22.838900 0.000000
-22.808400 0.000000
-22.778000 0.000000
-22.747500 0.000000
-22.717000 0.000000
-22.686600 0.000000
-22.656100 0.000000
-22.625600 0.000000
-22.595200 0.000000
-22.564700 0.000000
-22.534300 0.000000
-22.503800 0.000000
-22.473300 0.000000
-22.442900 0.000000
-22.412400 0.000000
-22.381900 0.000000
-22.351500 0.000000
-22.321000 0.000000
-22.290500 0.000000
-22.260100 0.000000
-22.229600 0.000000
-22.199200 0.000000
-22.168700 0.000000
-22.138200 0.000000
-22.107800 0.000000
-22.077300 0.000000
-22.046800 0.000000
-22.016400 0.000000
-21.985900 0.000000
-21.955400 0.000000
-21.925000 0.000000
-21.894500 0.000000
-21.864100 0.000000
-21.833600 0.000000
-21.803100 0.000000
-21.772700 0.000000
-21.742200 0.000000
-21.711700 0.000000
-21.681300 0.000000
-21.650800 0.000000
-21.620300 0.000000
-21.589900 0.000000
-21.559400 0.000000
-21.529000 0.000000
-21.498500 0.000000
-21.468000 0.000000
-21.437600 0.000000
-21.407100 0.000000
-21.376600 0.000000
-21.346200 0.000000
-21.315700 0.000000
-21.285200 0.000000
-21.254800 0.000000
-21.224300 0.000000
-21.193900 0.000000
-21.163400 0.000000
-21.132900 0.000000
-21.102500 0.000000
-21.072000 0.000000
-21.041500 0.000000
-21.011100 0.000000
-20.980600 0.000000
-20.950100 0.000000
-20.919700 0.000000
-20.889200 0.000000
-20.858800 0.000000
-20.828300 0.000000
-20.797800 0.000000
-20.767400 0.000000
-20.736900 0.000000
-20.706400 0.000000
-20.676000 0.000000
-20.645500 0.000000
-20.615000 0.000000
-20.584600 0.000000
-20.554100 0.000000
-20.523700 0.000000
-20.493200 0.000000
-20.462700 0.000000
-20.432300 0.000000
-20.401800 0.000000
-20.371300 0.000000
-20.340900 0.000000
-20.310400 0.000000
-20.279900 0.000000
-20.249500 0.000000
-20.219000 0.000000
-20.188600 0.000000
-20.158100 0.000000
-20.127600 0.000000
-20.097200 0.000000
-20.066700 0.000000
-20.036200 0.000000
-20.005800 0.000000
-19.975300 0.000000
-19.944800 0.000000
-19.914400 0.000000
-19.883900 0.000000
-19.853400 0.000000
-19.823000 0.000000
-19.792500 0.000000
-19.762100 0.000000
-19.731600 0.000000
-19.701100 0.000000
-19.670700 0.000000
-19.640200 0.000000
-19.609700 0.000000
-19.579300 0.000000
-19.548800 0.000000
-19.518300 0.000000
-19.487900 0.000000
-19.457400 0.000000
-19.427000 0.000000
-19.396500 0.000000
-19.366000 0.000000
-19.335600 0.000000
-19.305100 0.000000
-19.274600 0.000000
-19.244200 0.000000
-19.213700 0.000000
-19.183200 0.000000
-19.152800 0.000000
-19.122300 0.000000
-19.091900 0.000000
-19.061400 0.000000
-19.030900 0.000000
-19.000500 0.000000
-18.970000 0.000000
-18.939500 0.000000
-18.909100 0.000000
-18.878600 0.000000
-18.848100 0.000000
-18.817700 0.000000
-18.787200 0.000000
-18.756800 0.000000
-18.726300 0.000000
-18.695800 0.000000
-18.665400 0.000000
-18.634900 0.000000
-18.604400 0.000000
-18.574000 0.000000
-18.543500 0.000000
-18.513000 0.000000
-18.482600 0.000000
-18.452100 0.000000
-18.421700 0.000000
-18.391200 0.000000
-18.360700 0.000000
-18.330300 0.000000
-18.299800 0.000000
-18.269300 0.000000
-18.238900 0.000000
-18.208400 0.000000
-18.177900 0.000000
-18.147500 0.000000
-18.117000 0.000000
-18.086600 0.000000
-18.056100 0.000000
-18.025600 0.000000
-17.995200 0.000000
-17.964700 0.000000
-17.934200 0.000000
-17.903800 0.000000
-17.873300 0.000000
-17.842800 0.000000
-17.812400 0.000000
-17.781900 0.000000
-17.751500 0.000000
-17.721000 0.000000
-17.690500 0.000000
-17.660100 0.000000
-17.629600 0.000000
-17.599100 0.000000
-17.568700 0.000000
-17.538200 0.000000
-17.507700 0.000000
-17.477300 0.000000
-17.446800 0.000000
-17.416400 0.000000
-17.385900 0.000000
-17.355400 0.000000
-17.325000 0.000000
-17.294500 0.000000
-17.264000 0.000000
-17.233600 0.000000
-17.203100 0.000000
-17.172600 0.000000
-17.142200 0.000000
-17.111700 0.000000
-17.081200 0.000000
-17.050800 0.000000
-17.020300 0.000000
-16.989900 0.000000
-16.959400 0.000000
-16.928900 0.000000
-16.898500 0.000000
-16.868000 0.000000
-16.837500 0.000000
-16.807100 0.000000
-16.776600 0.000000
-16.746100 0.000000
-16.715700 0.000000
-16.685200 0.000000
-16.654800 0.000000
-16.624300 0.000000
-16.593800 0.000000
-16.563400 0.000000
-16.532900 0.000000
-16.502400 0.000000
-16.472000 0.000000
-16.441500 0.000000
-16.411000 0.000000
-16.380600 0.000000
-16.350100 0.000000
-16.319700 0.000000
-16.289200 0.000000
-16.258700 0.000000
-16.228300 0.000000
-16.197800 0.000000
-16.167300 0.000000
-16.136900 0.000000
-16.106400 0.000000
-16.075900 0.000000
-16.045500 0.000000
-16.015000 0.000000
-15.984600 0.000000
-15.954100 0.000000
-15.923600 0.000000
-15.893200 0.000000
-15.862700 0.000000
-15.832200 0.000000
-15.801800 0.000000
-15.771300 0.000000
-15.740800 0.000000
-15.710400 0.000000
-15.679900 0.000000
-15.649500 0.000000
-15.619000 0.000000
-15.588500 0.000000
-15.558100 0.000000
-15.527600 0.000000
-15.497100 0.000000
-15.466700 0.000000
-15.436200 0.000000
-15.405700 0.000000
-15.375300 0.000000
-15.344800 0.000000
-15.314400 0.000000
-15.283900 0.000000
-15.253400 0.000000
-15.223000 0.000000
-15.192500 0.000000
-15.162000 0.000000
-15.131600 0.000000
-15.101100 0.000000
-15.070600 0.000000
-15.040200 0.000000
-15.009700 0.000000
-14.979300 0.000000
-14.948800 0.000000
-14.918300 0.000000
-14.887900 0.000000
-14.857400 0.000000
-14.826900 0.000000
-14.796500 0.000000
-14.766000 0.000000
-14.735500 0.000000
-14.705100 0.000000
-14.674600 0.000000
-14.644200 0.000000
-14.613700 0.000000
-14.583200 0.000000
-14.552800 0.000000
-14.522300 0.000000
-14.491800 0.000000
-14.461400 0.000000
-14.430900 0.000000
-14.400400 0.000000
-14.370000 0.000000
-14.339500 0.000000
-14.309000 0.000000
-14.278600 0.000000
-14.248100 0.000000
-14.217700 0.000000
-14.187200 0.000000
-14.156700 0.000000
-14.126300 0.000000
-14.095800 0.000000
-14.065300 0.000000
-14.034900 0.000000
-14.004400 0.000000
-13.973900 0.000000
-13.943500 0.000000
-13.913000 0.000000
-13.882600 0.000000
-13.852100 0.000000
-13.821600 0.000000
-13.791200 0.000000
-13.760700 0.000000
-13.730200 0.000000
-13.699800 0.000000
-13.669300 0.000000
-13.638800 0.000000
-13.608400 0.000000
-13.577900 0.000000
-13.547500 0.000000
-13.517000 0.000000
-13.486500 0.000000
-13.456100 0.000000
-13.425600 0.000000
-13.395100 0.000000
-13.364700 0.000000
-13.334200 0.000000
-13.303700 0.000000
-13.273300 0.000000
-13.242800 0.000000
-13.212400 0.000000
-13.181900 0.000000
-13.151400 0.000000
-13.121000 0.000000
-13.090500 0.000000
-13.060000 0.000000
-13.029600 0.000000
-12.999100 0.000000
-12.968600 0.000000
-12.938200 0.000000
-12.907700 0.000000
-12.877300 0.000000
-12.846800 0.000000
-12.816300 0.000000
-12.785900 0.000000
-12.755400 0.000000
-12.724900 0.000000
-12.694500 0.000000
-12.664000 0.000000
-12.633500 0.000000
-12.603100 0.000000
-12.572600 0.000000
-12.542200 0.000000
-12.511700 0.000000
-12.481200 0.000000
-12.450800 0.000000
-12.420300 0.000000
-12.389800 0.000000
-12.359400 0.000000
-12.328900 0.000000
-12.298400 0.000000
-12.268000 0.000000
-12.237500 0.000000
-12.207100 0.000000
-12.176600 0.000000
-12.146100 0.000000
-12.115700 0.000000
-12.085200 0.000000
-12.054700 0.000000
-12.024300 0.000000
-11.993800 0.000000
-11.963300 0.000000
-11.932900 0.000000
-11.902400 0.000000
-11.872000 0.000000
-11.841500 0.000000
-11.811000 0.000000
-11.780600 0.000000
-11.750100 0.000000
-11.719600 0.000000
-11.689200 0.000000
-11.658700 0.000000
-11.628200 0.000000
-11.597800 0.000000
-11.567300 0.000000
-11.536800 0.000000
-11.506400 0.000000
-11.475900 0.000000
-11.445500 0.000000
-11.415000 0.000000
-11.384500 0.000000
-11.354100 0.000000
-11.323600 0.000000
-11.293100 0.000000
-11.262700 0.000000
-11.232200 0.000000
-11.201700 0.000000
-11.171300 0.000000
-11.140800 0.000000
-11.110400 0.000000
-11.079900 0.000000
-11.049400 0.000000
-11.019000 0.000000
-10.988500 0.000000
-10.958000 0.000000
-10.927600 0.000000
-10.897100 0.000000
-10.866600 0.000000
-10.836200 0.000000
-10.805700 0.000000
-10.775300 0.000000
-10.744800 0.000000
-10.714300 0.000000
-10.683900 0.000000
-10.653400 0.000000
-10.622900 0.000000
-10.592500 0.000000
-10.562000 0.000000
-10.531500 0.000000
-10.501100 0.000000
-10.470600 0.000000
-10.440200 0.000000
-10.409700 0.000000
-10.379200 0.000000
-10.348800 0.000000
-10.318300 0.000000
-10.287800 0.000000
-10.257400 0.000000
-10.226900 0.000000
-10.196400 0.000000
-10.166000 0.000000
-10.135500 0.000000
-10.105100 0.000000
-10.074600 0.000000
-10.044100 0.000000
-10.013700 0.000000
-9.983200 0.000000
-9.952700 0.000000
-9.922300 0.000000
-9.891800 0.000000
-9.861300 0.000000
-9.830900 0.000000
-9.800400 0.000000
-9.770000 0.000000
-9.739500 0.000000
-9.709000 0.000000
-9.678600 0.000000
-9.648100 0.000000
-9.617600 0.000000
-9.587200 0.000000
-9.556700 0.000000
-9.526200 0.000000
-9.495800 0.000000
-9.465300 0.000000
-9.434900 0.000000
-9.404400 0.000000
-9.373900 0.000000
-9.343500 0.000000
-9.313000 0.000000
-9.282500 0.000000
-9.252100 0.000000
-9.221600 0.000000
-9.191100 0.000000
-9.160700 0.000000
-9.130200 0.000000
-9.099800 0.000000
-9.069300 0.000000
-9.038800 0.000000
-9.008400 0.000000
-8.977900 0.000000
-8.947400 0.000000
-8.917000 0.000000
-8.886500 0.000000
-8.856000 0.000000
-8.825600 0.000000
-8.795100 0.000000
-8.764600 0.000000
-8.734200 0.000000
-8.703700 0.000000
-8.673300 0.000000
-8.642800 0.000000
-8.612300 0.000000
-8.581900 0.000000
-8.551400 0.000000
-8.520900 0.000000
-8.490500 0.000000
-8.460000 0.000000
-8.429500 0.000000
-8.399100 0.000000
-8.368600 0.000000
-8.338200 0.000000
-8.307700 0.000000
-8.277200 0.000000
-8.246800 0.000000
-8.216300 0.000000
-8.185800 0.000000
-8.155400 0.000000
-8.124900 0.000000
-8.094400 0.000000
-8.064000 0.000000
-8.033500 0.000000
-8.003100 0.000000
-7.972600 0.000000
-7.942100 0.000000
-7.911700 0.000000
-7.881200 0.000000
-7.850700 0.000000
-7.820300 0.000000
-7.789800 0.000000
-7.759300 0.000000
-7.728900 0.000000
-7.698400 0.000000
-7.668000 0.000000
-7.637500 0.000000
-7.607000 0.000000
-7.576600 0.000000
-7.546100 0.000000
-7.515600 0.000000
-7.485200 0.000000
-7.454700 0.000000
-7.424200 0.000000
-7.393800 0.000000
-7.363300 0.000000
-7.332900 0.000000
-7.302400 0.000000
-7.271900 0.000000
-7.241500 0.000000
-7.211000 0.000000
-7.180500 0.000000
-7.150100 0.000000
-7.119600 0.000000
-7.089100 0.000000
-7.058700 0.000000
-7.028200 0.000000
-6.997800 0.000000
-6.967300 0.000000
-6.936800 0.000000
-6.906400 0.000000
-6.875900 0.000000
-6.845400 0.000000
-6.815000 0.000000
-6.784500 0.000000
-6.754000 0.000000
-6.723600 0.000000
-6.693100 0.000000
-6.662700 0.000000
-6.632200 0.000000
-6.601700 0.000000
-6.571300 0.000000
-6.540800 0.000000
-6.510300 0.000000
-6.479900 0.000000
-6.449400 0.000000
-6.418900 0.000000
-6.388500 0.022200
-6.358000 0.093400
-6.327500 0.206400
-6.297100 0.320500
-6.266600 0.434700
-6.236200 0.464600
-6.205700 0.410000
-6.175200 0.343900
-6.144800 0.356100
-6.114300 0.368300
-6.083800 0.380500
-6.053400 0.392700
-6.022900 0.404900
-5.992400 0.417200
-5.962000 0.429400
-5.931500 0.441200
-5.901100 0.445500
-5.870600 0.442000
-5.840100 0.438000
-5.809700 0.434000
-5.779200 0.432000
-5.748700 0.438200
-5.718300 0.447300
-5.687800 0.456400
-5.657300 0.465600
-5.626900 0.474700
-5.596400 0.483800
-5.566000 0.492900
-5.535500 0.502000
-5.505000 0.511200
-5.474600 0.520300
-5.444100 0.530400
-5.413600 0.607300
-5.383200 0.743500
-5.352700 0.940100
-5.322200 1.047300
-5.291800 1.220400
-5.261300 1.382800
-5.230900 1.469300
-5.200400 1.512500
-5.169900 1.657000
-5.139500 2.663300
-5.109000 3.891000
-5.078500 4.569800
-5.048100 4.989600
-5.017600 4.951200
-4.987100 4.301500
-4.956700 3.419100
-4.926200 3.361300
-4.895800 3.588000
-4.865300 3.872100
-4.834800 3.984500
-4.804400 3.949000
-4.773900 3.968200
-4.743400 3.987400
-4.713000 3.938000
-4.682500 4.037000
-4.652000 4.038000
-4.621600 4.157800
-4.591100 4.307000
-4.560700 5.461500
-4.530200 11.092600
-4.499700 5.211400
-4.469300 4.849900
-4.438800 5.115100
-4.408300 3.794000
-4.377900 2.022200
-4.347400 2.588300
-4.316900 15.406000
-4.286500 3.765700
-4.256000 3.758700
-4.225600 3.427600
-4.195100 3.284700
-4.164600 3.129700
-4.134200 4.158200
-4.103700 3.678900
-4.073200 2.997000
-4.042800 2.635600
-4.012300 2.276400
-3.981800 1.822000
-3.951400 1.677500
-3.920900 1.565300
-3.890500 1.618200
-3.860000 1.514000
-3.829500 1.409800
-3.799100 1.305600
-3.768600 1.201400
-3.738100 1.097300
-3.707700 0.993100
-3.677200 0.888900
-3.646700 2.149600
-3.616300 0.000000
-3.585800 0.000000
-3.555300 0.000000
-3.524900 0.000000
-3.494400 0.000000
-3.464000 0.000000
-3.433500 0.000000
-3.403000 0.000000
-3.372600 0.000000
-3.342100 0.000000
-3.311600 0.000000
-3.281200 0.000000
-3.250700 0.000000
-3.220200 0.000000
-3.189800 0.000000
-3.159300 0.000000
-3.128900 0.000000
-3.098400 0.000000
-3.067900 0.000000
-3.037500 0.000000
-3.007000 0.000000
-2.976500 0.000000
-2.946100 0.000000
-2.915600 0.000000
-2.885100 0.000000
-2.854700 0.000000
-2.824200 0.000000
-2.793800 0.000000
-2.763300 0.000000
-2.732800 0.000000
-2.702400 0.000000
-2.671900 0.000000
-2.641400 0.000000
-2.611000 0.000000
-2.580500 0.000000
-2.550000 0.000000
-2.519600 0.000000
-2.489100 0.000000
-2.458700 0.000000
-2.428200 0.000000
-2.397700 0.000000
-2.367300 0.000000
-2.336800 0.000000
-2.306300 0.000000
-2.275900 0.000000
-2.245400 0.000000
-2.214900 0.000000
-2.184500 0.000000
-2.154000 0.000000
-2.123600 0.000000
-2.093100 0.000000
-2.062600 0.000000
-2.032200 0.000000
-2.001700 0.000000
-1.971200 0.000000
-1.940800 0.000000
-1.910300 0.000000
-1.879800 0.000000
-1.849400 0.000000
-1.818900 0.000000
-1.788500 0.000000
-1.758000 0.000000
-1.727500 0.000000
-1.697100 0.000000
-1.666600 0.000000
-1.636100 0.000000
-1.605700 0.000000
-1.575200 0.000000
-1.544700 0.000000
-1.514300 0.000000
-1.483800 0.000000
-1.453400 0.000000
-1.422900 0.000000
-1.392400 0.000000
-1.362000 0.000000
-1.331500 0.000000
-1.301000 0.000000
-1.270600 0.000000
-1.240100 0.000000
-1.209600 0.000000
-1.179200 0.000000
-1.148700 0.000000
-1.118300 0.000000
-1.087800 0.000000
-1.057300 0.000000
-1.026900 0.000000
-0.996400 0.000000
-0.965900 0.000000
-0.935500 0.000000
-0.905000 0.000000
-0.874500 0.000000
-0.844100 0.000000
-0.813600 0.000000
-0.783100 0.000000
-0.752700 0.000000
-0.722200 0.000000
-0.691800 0.000000
-0.661300 0.000000
-0.630800 0.000000
-0.600400 0.000000
-0.569900 0.000000
-0.539400 0.000000
-0.509000 0.000000
-0.478500 0.001000
-0.448000 0.020400
-0.417600 0.054900
-0.387100 0.400800
-0.356700 0.696600
-0.326200 0.830200
-0.295700 1.058400
-0.265300 1.219300
-0.234800 1.041500
-0.204300 1.061300
-0.173900 1.047400
-0.143400 1.094600
-0.112900 1.141700
-0.082500 1.188900
-0.052000 1.236000
-0.021600 1.278900
0.008900 1.314900
0.039400 1.346000
0.069800 1.370400
0.100300 1.389900
0.130800 1.411400
0.161200 1.449900
0.191700 1.510100
0.222200 1.574600
0.252600 1.642200
0.283100 1.719800
0.313500 1.813300
0.344000 1.917300
0.374500 2.021100
0.404900 2.124800
0.435400 2.228500
0.465900 2.332000
0.496300 2.445900
0.526800 2.736400
0.557300 4.916200
0.587700 4.151000
0.618200 2.513500
0.648600 3.023700
0.679100 2.484200
0.709600 2.369100
0.740000 2.338700
0.770500 2.350800
0.801000 2.402800
0.831400 2.520100
0.861900 2.765200
0.892400 3.191200
0.922800 3.282700
0.953300 4.802600
0.983700 5.401500
1.014200 6.195700
1.044700 11.138400
1.075100 4.177600
1.105600 3.373100
1.136100 3.557000
1.166500 4.804700
1.197000 3.390600
1.227500 1.137000
1.257900 0.479800
1.288400 0.295600
1.318800 0.191400
1.349300 0.424000
1.379800 0.704800
1.410200 1.338000
1.440700 2.374800
1.471200 2.642100
1.501600 3.056000
1.532100 3.723100
1.562600 4.762800
1.593000 4.583700
1.623500 5.330800
1.653900 4.654900
1.684400 4.984600
1.714900 6.521700
1.745300 9.152400
1.775800 11.141100
1.806300 4.949600
1.836700 3.858700
1.867200 4.284500
1.897700 7.280000
1.928100 8.339600
1.958600 10.173800
1.989100 11.482700
2.019500 6.798500
2.050000 3.567600
2.080400 10.911000
2.110900 12.811400
2.141400 12.121300
2.171800 7.784600
2.202300 8.055300
2.232800 12.179700
2.263200 13.551400
2.293700 12.264400
2.324200 12.360000
2.354600 11.786600
2.385100 9.666100
2.415500 6.514600
2.446000 6.427400
2.476500 7.398000
2.506900 10.284700
2.537400 12.210600
2.567900 7.870600
2.598300 7.998300
2.628800 8.390700
2.659300 9.547800
2.689700 11.185900
2.720200 9.898000
2.750600 8.657500
2.781100 6.832700
2.811600 5.107100
2.842000 5.185400
2.872500 5.747600
2.903000 5.587900
2.933400 5.669300
2.963900 4.970200
2.994400 4.673900
3.024800 3.706000
3.055300 3.169800
3.085700 2.824800
3.116200 2.629300
3.146700 2.409700
3.177100 2.179300
3.207600 2.042500
3.238100 1.927800
3.268500 1.839700
3.299000 1.772800
3.329500 1.721200
3.359900 1.688000
3.390400 1.648400
3.420800 1.618000
3.451300 1.638800
3.481800 1.686200
3.512200 1.875800
3.542700 2.403300
3.573200 1.560000
3.603600 1.317800
3.634100 1.122400
3.664600 1.093700
3.695000 1.065200
3.725500 1.036600
3.755900 1.004700
3.786400 0.956200
3.816900 0.899300
3.847300 0.847600
3.877800 0.791600
3.908300 0.742600
3.938700 0.684700
3.969200 0.657200
3.999700 0.697700
4.030100 0.817200
4.060600 0.935300
4.091000 1.047700
4.121500 1.159700
4.152000 1.296500
4.182400 1.510300
4.212900 1.773800
4.243400 2.083900
4.273800 2.367000
4.304300 3.114000
4.334800 3.400100
4.365200 3.363400
4.395700 3.409400
4.426100 3.790500
4.456600 3.953500
4.487100 3.985300
4.517500 3.788000
4.548000 3.723200
4.578500 3.701300
4.608900 4.272700
4.639400 3.295400
4.669900 3.025700
4.700300 3.302000
4.730800 3.782900
4.761300 5.678300
4.791700 3.910200
4.822200 3.432200
4.852600 3.069400
4.883100 3.045300
4.913600 3.231000
4.944000 3.585200
4.974500 3.977400
5.005000 4.513400
5.035400 4.982700
5.065900 4.834400
5.096400 3.921200
5.126800 3.282900
5.157300 2.947300
5.187700 2.681200
5.218200 2.223500
5.248700 2.068800
5.279100 1.935100
5.309600 1.901900
5.340100 2.236900
5.370500 3.056500
5.401000 5.452700
5.431500 3.101300
5.461900 3.813900
5.492400 5.216700
5.522800 5.302900
5.553300 5.252600
5.583800 4.600400
5.614200 4.484000
5.644700 4.466600
5.675200 4.623000
5.705600 4.507300
5.736100 4.569800
5.766600 4.907200
5.797000 5.221300
5.827500 6.672200
5.857900 6.117500
5.888400 5.447300
5.918900 4.134000
5.949300 3.673100
5.979800 3.155700
6.010300 2.693200
6.040700 2.175800
6.071200 1.793100
6.101700 1.642000
6.132100 1.620100
6.162600 1.636100
6.193000 1.655500
6.223500 2.138300
6.254000 2.662900
6.284400 3.595100
6.314900 4.414700
6.345400 4.469400
6.375800 4.095900
6.406300 3.707300
6.436800 3.280800
6.467200 2.897600
6.497700 2.434900
6.528100 2.297800
6.558600 1.865600
6.589100 1.684300
6.619500 1.581300
6.650000 1.492900
6.680500 1.796700
6.710900 2.190500
6.741400 1.406700
6.771900 1.202900
6.802300 1.290900
6.832800 1.425300
6.863200 1.545500
6.893700 1.636500
6.924200 1.709300
6.954600 1.772800
6.985100 1.830300
7.015600 1.967300
7.046000 2.194400
7.076500 2.539300
7.107000 2.727800
7.137400 2.717900
7.167900 2.616800
7.198300 3.066900
7.228800 3.352600
7.259300 3.805000
7.289700 3.955800
7.320200 4.131400
7.350700 4.041400
7.381100 4.165200
7.411600 4.254200
7.442100 4.152100
7.472500 4.465700
7.503000 4.520600
7.533500 4.659500
7.563900 4.747800
7.594400 4.839700
7.624800 5.022400
7.655300 4.458400
7.685800 4.387000
7.716200 4.343200
7.746700 4.400400
7.777200 4.622400
7.807600 4.678000
7.838100 4.701500
7.868600 4.665900
7.899000 4.759600
7.929500 4.750300
7.959900 4.563500
7.990400 4.325000
8.020900 4.421600
8.051300 4.445400
8.081800 4.587500
8.112300 4.982700
8.142700 5.617800
8.173200 6.699700
8.203700 6.437400
8.234100 5.722800
8.264600 5.540800
8.295000 5.802300
8.325500 6.097800
8.356000 5.760300
8.386400 5.831800
8.416900 5.161100
8.447400 4.499200
8.477800 4.600600
8.508300 4.763500
8.538800 4.756500
8.569200 4.992400
8.599700 5.048900
8.630100 5.069200
8.660600 4.956900
8.691100 4.912700
8.721500 4.911600
8.752000 5.098900
8.782500 5.667700
8.812900 5.748200
8.843400 5.700900
8.873900 5.673500
8.904300 5.893100
8.934800 6.192700
8.965200 6.535600
8.995700 6.807100
9.026200 6.562100
9.056600 7.147600
9.087100 8.449500
9.117600 8.937900
9.148000 9.650100
9.178500 9.888300
9.209000 7.825600
9.239400 6.885700
9.269900 6.176600
9.300300 7.285000
9.330800 9.407800
9.361300 9.647300
9.391700 10.182000
9.422200 7.983500
9.452700 6.532400
9.483100 7.140400
9.513600 7.970400
9.544100 8.751500
9.574500 7.496100
9.605000 8.552400
9.635400 8.156600
9.665900 7.456900
9.696400 7.543800
9.726800 6.923000
9.757300 6.412100
9.787800 6.292800
9.818200 7.202700
9.848700 6.140300
9.879200 6.571000
9.909600 6.820100
9.940100 6.215700
9.970600 5.365700
10.001000 5.331500
10.031500 5.445400
10.061900 7.678700
10.092400 7.986500
10.122900 8.050600
10.153300 6.927200
10.183800 5.457600
10.214300 4.822400
10.244700 3.807400
10.275200 2.714100
10.305700 2.424700
10.336100 2.305000
10.366600 2.340700
10.397000 2.413800
10.427500 2.478900
10.458000 2.550400
10.488400 2.522500
10.518900 2.438700
10.549400 2.471900
10.579800 2.531600
10.610300 2.620400
10.640800 2.701700
10.671200 2.810200
10.701700 3.003500
10.732100 3.297900
10.762600 3.523600
10.793100 4.160100
10.823500 4.197800
10.854000 3.849400
10.884500 3.788100
10.914900 3.840800
10.945400 3.853700
10.975900 3.595100
11.006300 3.290800
11.036800 2.987200
11.067200 2.872100
11.097700 2.861600
11.128200 2.851200
11.158600 2.864200
11.189100 2.866600
11.219600 2.857600
11.250000 2.907000
11.280500 3.058900
11.311000 3.319500
11.341400 3.694100
11.371900 4.027800
11.402300 4.221300
11.432800 4.215200
11.463300 3.892400
11.493700 3.421400
11.524200 3.168100
11.554700 2.892300
11.585100 2.621400
11.615600 2.373400
11.646100 2.110100
11.676500 1.904600
11.707000 1.758500
11.737400 1.718100
11.767900 1.829200
11.798400 2.121300
11.828800 2.306400
11.859300 2.660600
11.889800 2.447800
11.920200 2.494300
11.950700 2.771500
11.981200 3.158300
12.011600 3.173500
12.042100 2.919600
12.072500 2.543100
12.103000 2.378700
12.133500 2.451200
12.163900 2.698100
12.194400 3.172300
12.224900 2.689500
12.255300 2.924900
12.285800 3.443400
12.316300 4.047900
12.346700 4.471600
12.377200 4.682800
12.407600 4.666400
12.438100 4.614900
12.468600 4.520800
12.499000 4.366200
12.529500 4.314800
12.560000 4.278000
12.590400 4.055900
12.620900 4.179900
12.651400 4.525900
12.681800 4.756800
12.712300 4.973800
12.742800 5.913200
12.773200 6.564400
12.803700 7.753200
12.834100 7.568000
12.864600 6.603100
12.895100 4.513400
12.925500 2.519000
12.956000 2.065200
12.986500 2.020700
13.016900 2.075100
13.047400 2.239700
13.077900 2.416500
13.108300 2.508200
13.138800 2.618000
13.169200 2.635300
13.199700 2.619300
13.230200 2.651700
13.260600 2.714300
13.291100 2.825100
13.321600 3.021000
13.352000 2.917400
13.382500 2.777900
13.413000 3.325700
13.443400 3.911900
13.473900 4.081200
13.504300 4.168000
13.534800 3.893200
13.565300 3.885600
13.595700 3.820500
13.626200 3.673300
13.656700 3.164500
13.687100 2.873000
13.717600 2.828500
13.748100 2.747000
13.778500 2.761700
13.809000 2.844900
13.839400 2.878300
13.869900 2.980800
13.900400 3.344400
13.930800 3.568200
13.961300 3.889900
13.991800 4.158000
14.022200 4.862200
14.052700 5.582600
14.083200 2.882000
14.113600 3.209900
14.144100 3.247800
14.174500 3.351000
14.205000 3.316000
14.235500 3.355600
14.265900 3.481200
14.296400 3.793800
14.326900 4.493800
14.357300 4.743200
14.387800 4.522900
14.418300 4.228900
14.448700 3.931400
14.479200 3.299300
14.509600 2.195700
14.540100 1.799800
14.570600 1.726800
14.601000 1.714700
14.631500 1.756600
14.662000 1.741500
14.692400 1.709100
14.722900 1.658500
14.753400 1.609600
14.783800 1.568500
14.814300 1.547100
14.844700 1.548700
14.875200 1.565500
14.905700 1.624600
14.936100 1.716600
14.966600 1.772300
14.997100 1.813900
15.027500 1.852300
15.058000 1.879600
15.088500 1.901000
15.118900 1.913000
15.149400 1.966300
15.179800 1.954000
15.210300 1.854400
15.240800 1.651400
15.271200 1.550000
15.301700 1.558900
15.332200 1.576400
15.362600 1.599300
15.393100 1.633800
15.423600 1.709600
15.454000 1.793200
15.484500 1.775800
15.515000 1.693500
15.545400 1.672400
15.575900 1.664900
15.606300 1.647800
15.636800 1.613500
15.667300 1.594500
15.697700 1.618300
15.728200 1.690500
15.758700 1.637500
15.789100 1.581400
15.819600 1.515500
15.850100 1.458800
15.880500 1.441000
15.911000 1.438700
15.941400 1.467200
15.971900 1.578400
16.002400 1.586000
16.032800 1.478000
16.063300 1.359500
16.093800 1.313400
16.124200 1.331800
16.154700 1.358700
16.185200 1.386000
16.215600 1.412300
16.246100 1.459500
16.276500 1.462100
16.307000 1.497000
16.337500 1.545200
16.367900 1.617200
16.398400 1.763200
16.428900 1.914600
16.459300 1.999700
16.489800 2.052400
16.520300 2.046600
16.550700 2.038500
16.581200 2.096000
16.611600 2.320000
16.642100 3.191700
16.672600 3.303700
16.703000 3.324900
16.733500 3.336200
16.764000 2.745400
16.794400 2.586600
16.824900 3.764600
16.855400 1.513300
16.885800 1.563800
16.916300 1.634300
16.946700 1.760500
16.977200 1.936300
17.007700 2.408400
17.038100 2.931200
17.068600 3.061200
17.099100 2.874400
17.129500 2.772600
17.160000 2.747100
17.190500 2.630500
17.220900 2.917600
17.251400 2.915600
17.281800 3.082800
17.312300 3.445500
17.342800 4.130300
17.373200 4.151000
17.403700 3.478400
17.434200 2.628200
17.464600 1.970700
17.495100 1.445600
17.525600 1.036100
17.556000 0.847700
17.586500 0.580400
17.616900 0.575700
17.647400 0.634300
17.677900 0.767700
17.708300 0.971200
17.738800 1.311000
17.769300 1.766400
17.799700 2.235600
17.830200 2.862600
17.860700 2.449600
17.891100 2.755600
17.921600 2.765600
17.952000 2.938300
17.982500 3.007300
18.013000 2.981200
18.043400 2.964200
18.073900 2.928700
18.104400 2.929200
18.134800 2.866300
18.165300 2.725900
18.195800 2.585300
18.226200 2.439100
18.256700 2.358800
18.287200 2.380700
18.317600 2.327500
18.348100 1.877500
18.378500 2.489700
18.409000 3.907500
18.439500 3.810000
18.469900 3.990800
18.500400 3.917500
18.530900 4.420000
18.561300 5.026700
18.591800 3.094600
18.622300 2.688500
18.652700 2.452300
18.683200 2.412300
18.713600 2.389400
18.744100 2.338000
18.774600 2.016800
18.805000 1.778400
18.835500 2.196100
18.866000 2.124500
18.896400 2.261400
18.926900 2.740100
18.957400 2.318600
18.987800 2.470700
19.018300 2.590400
19.048700 2.588600
19.079200 2.569100
19.109700 2.609600
19.140100 2.909400
19.170600 3.449600
19.201100 3.642000
19.231500 3.826200
19.262000 3.322000
19.292500 3.028000
19.322900 2.806000
19.353400 2.703700
19.383800 2.654700
19.414300 2.591800
19.444800 2.510300
19.475200 2.413000
19.505700 2.366500
19.536200 2.440500
19.566600 2.597300
19.597100 2.867600
19.627600 3.156900
19.658000 3.279100
19.688500 3.432100
19.718900 3.429800
19.749400 3.516200
19.779900 3.870300
19.810300 4.494000
19.840800 4.673700
19.871300 4.798800
19.901700 4.822400
19.932200 4.373600
19.962700 4.043500
19.993100 3.866800
20.023600 3.423700
20.054000 3.154100
20.084500 3.622200
20.115000 3.849600
20.145400 4.214300
20.175900 5.014600
20.206400 6.799000
20.236800 7.848700
20.267300 8.343500
20.297800 7.221000
20.328200 6.614100
20.358700 5.848900
20.389100 5.298800
20.419600 5.393400
20.450100 5.237000
20.480500 5.212600
20.511000 5.093000
20.541500 5.739100
20.571900 6.370200
20.602400 7.251400
20.632900 7.297300
20.663300 6.108100
20.693800 6.645700
20.724200 6.628900
20.754700 5.244500
20.785200 4.955600
20.815600 4.604600
20.846100 3.948700
20.876600 3.773200
20.907000 3.757900
20.937500 3.288300
20.968000 3.102000
20.998400 3.029800
21.028900 3.078500
21.059400 3.294800
21.089800 3.372900
21.120300 3.598500
21.150700 3.750500
21.181200 3.529900
21.211700 3.369100
21.242100 3.167400
21.272600 3.008200
21.303100 3.004100
21.333500 3.198600
21.364000 3.478500
21.394500 3.668300
21.424900 3.736300
21.455400 4.058200
21.485800 4.383200
21.516300 4.170400
21.546800 3.800200
21.577200 3.632900
21.607700 3.598900
21.638200 3.610000
21.668600 3.655300
21.699100 3.579300
21.729600 3.481900
21.760000 3.557100
21.790500 3.718900
21.820900 3.825900
21.851400 3.823300
21.881900 3.719800
21.912300 3.491200
21.942800 3.202400
21.973300 3.052200
22.003700 2.990900
22.034200 2.875200
22.064700 2.729200
22.095100 2.632200
22.125600 2.600400
22.156000 2.609600
22.186500 2.547400
22.217000 2.549200
22.247400 2.211200
22.277900 2.297000
22.308400 2.303300
22.338800 2.317000
22.369300 2.472000
22.399800 2.813700
22.430200 3.491100
22.460700 3.858900
22.491100 4.545700
22.521600 5.195600
22.552100 3.206400
22.582500 2.743600
22.613000 2.633100
22.643500 2.572000
22.673900 2.591500
22.704400 2.626500
22.734900 2.614700
22.765300 2.593500
22.795800 2.591100
22.826200 2.595400
22.856700 2.603700
22.887200 2.670600
22.917600 2.582000
22.948100 2.516800
22.978600 2.483700
23.009000 2.485900
23.039500 2.524900
23.070000 2.584500
23.100400 2.651100
23.130900 2.729600
23.161300 2.767300
23.191800 2.826400
23.222300 2.887800
23.252700 2.876000
23.283200 2.889600
23.313700 2.900700
23.344100 2.942300
23.374600 3.028000
23.405100 3.041200
23.435500 3.038100
23.466000 3.022900
23.496400 2.975200
23.526900 2.998600
23.557400 3.179300
23.587800 3.409000
23.618300 3.479000
23.648800 3.132400
23.679200 2.865400
23.709700 2.708400
23.740200 2.546800
23.770600 2.390200
23.801100 2.295500
23.831600 2.233900
23.862000 2.187900
23.892500 2.073900
23.922900 1.926900
23.953400 1.802600
23.983900 1.820200
24.014300 1.877400
24.044800 1.958400
24.075300 2.047000
24.105700 2.152800
24.136200 2.307900
24.166700 2.522100
24.197100 2.723000
24.227600 3.019200
24.258000 3.583500
24.288500 3.884100
24.319000 4.265900
24.349400 3.408900
24.379900 2.769100
24.410400 2.620200
24.440800 2.539100
24.471300 2.463700
24.501800 2.474300
24.532200 2.800100
24.562700 3.011000
24.593100 3.113600
24.623600 2.981100
24.654100 2.934200
24.684500 2.894900
24.715000 2.917000
24.745500 2.947200
24.775900 2.997200
24.806400 3.248800
24.836900 3.412600
24.867300 3.501100
24.897800 4.011600
24.928200 3.375700
24.958700 3.147300
24.989200 2.972400
25.019600 2.816900
25.050100 2.732900
25.080600 2.883200
25.111000 2.423200
25.141500 2.226100
25.172000 2.009400
25.202400 1.823000
25.232900 1.667000
25.263300 1.644400
25.293800 1.631700
25.324300 1.632300
25.354700 1.655800
25.385200 1.694700
25.415700 1.715900
25.446100 1.707200
25.476600 1.665600
25.507100 1.632500
25.537500 1.615700
25.568000 1.628100
25.598400 1.660100
25.628900 1.692900
25.659400 1.710400
25.689800 1.728200
25.720300 1.753800
25.750800 1.824100
25.781200 1.912800
25.811700 2.007400
25.842200 2.082400
25.872600 2.156700
25.903100 2.225900
25.933500 2.283100
25.964000 2.223500
25.994500 2.026300
26.024900 1.890600
26.055400 1.792300
26.085900 1.848200
26.116300 2.020300
26.146800 2.015800
26.177300 2.014200
26.207700 1.918800
26.238200 1.896300
26.268600 1.928700
26.299100 1.988800
26.329600 2.080700
26.360000 2.189900
26.390500 2.285700
26.421000 2.438500
26.451400 2.629900
26.481900 2.689100
26.512400 2.781000
26.542800 2.875100
26.573300 2.923000
26.603800 3.161500
26.634200 3.359100
26.664700 3.219100
26.695100 3.313200
26.725600 3.305100
26.756100 3.306000
26.786500 3.286100
26.817000 3.185000
26.847500 2.952900
26.877900 2.906300
26.908400 2.811400
26.938900 2.733500
26.969300 2.789900
26.999800 2.977500
27.030200 3.209100
27.060700 3.673000
27.091200 4.354800
27.121600 5.658500
27.152100 4.187900
27.182600 3.822900
27.213000 3.637800
27.243500 3.525500
27.274000 3.547300
27.304400 3.413500
27.334900 3.367500
27.365300 3.448300
27.395800 3.676200
27.426300 3.882100
27.456700 3.613500
27.487200 3.382300
27.517700 3.164400
27.548100 3.110400
27.578600 2.853800
27.609100 2.907600
27.639500 3.155000
27.670000 3.002100
27.700400 2.822400
27.730900 2.694700
27.761400 2.504700
27.791800 2.214200
27.822300 1.947000
27.852800 1.732200
27.883200 1.565300
27.913700 1.394700
27.944200 1.221300
27.974600 1.080400
28.005100 0.969400
28.035500 0.884300
28.066000 0.815900
28.096500 0.764900
28.126900 0.729500
28.157400 0.695900
28.187900 0.666400
28.218300 0.628700
28.248800 0.569400
28.279300 0.515200
28.309700 0.489800
28.340200 0.470000
28.370600 0.425700
28.401100 0.372300
28.431600 0.309000
28.462000 0.264200
28.492500 0.227800
28.523000 0.194500
28.553400 0.165600
28.583900 0.142600
28.614400 0.125700
28.644800 0.113500
28.675300 0.104400
28.705700 0.097700
28.736200 0.093500
28.766700 0.090900
28.797100 0.106500
28.827600 0.137800
28.858100 0.102200
28.888500 0.080500
28.919000 0.080900
28.949500 0.079100
28.979900 0.078300
29.010400 0.068600
29.040900 0.059800
29.071300 0.051900
29.101800 0.045000
29.132200 0.039100
29.162700 0.034200
29.193200 0.030200
29.223600 0.026800
29.254100 0.023700
29.284600 0.020700
29.315000 0.017900
29.345500 0.015300
29.376000 0.012900
29.406400 0.010600
29.436900 0.008600
29.467300 0.006700
29.497800 0.005100
29.528300 0.003600
29.558700 0.002300
29.589200 0.001300
29.619700 0.000600
29.650100 0.000200
29.680600 0.000000
29.711100 0.000000
29.741500 0.000000
29.772000 0.000000
29.802400 0.000000
29.832900 0.000000
29.863400 0.000000
29.893800 0.000000
29.924300 0.000000
29.954800 0.000000
29.985200 0.000000
30.015700 0.000000
30.046200 0.000000
30.076600 0.000000
30.107100 0.000000
30.137500 0.000000
30.168000 0.000000
30.198500 0.000000
30.228900 0.000000
30.259400 0.000000
30.289900 0.000000
30.320300 0.000000
30.350800 0.000000
30.381300 0.000000
30.411700 0.000000
30.442200 0.000000
30.472600 0.000000
30.503100 0.000000
30.533600 0.000000
30.564000 0.000000
30.594500 0.000000
30.625000 0.000000
30.655400 0.000000
30.685900 0.000000
30.716400 0.000000
30.746800 0.000000
30.777300 0.000000
30.807700 0.000000
30.838200 0.000000
30.868700 0.000000
30.899100 0.000000
30.929600 0.000000
30.960100 0.000000
30.990500 0.000000
31.021000 0.000000
31.051500 0.000000
31.081900 0.000000
31.112400 0.000000
31.142800 0.000000
31.173300 0.000000
31.203800 0.000000
31.234200 0.000000
31.264700 0.000000
31.295200 0.000000
31.325600 0.000000
31.356100 0.000000
31.386600 0.000000
31.417000 0.000000
31.447500 0.000000
31.477900 0.000000
31.508400 0.000000
31.538900 0.000000
31.569300 0.000000
31.599800 0.000000
31.630300 0.000000
31.660700 0.000000
31.691200 0.000000
31.721700 0.000000
31.752100 0.000000
31.782600 0.000000
31.813100 0.000000
31.843500 0.000000
31.874000 0.000000
31.904400 0.000000
31.934900 0.000000
31.965400 0.000000
31.995800 0.000000
32.026300 0.000000
32.056800 0.000000
32.087200 0.000000
32.117700 0.000000
32.148200 0.000000
32.178600 0.000000
32.209100 0.000000
32.239500 0.000000
32.270000 0.000000
32.300500 0.000000
32.330900 0.000000
32.361400 0.000000
32.391900 0.000000
32.422300 0.000000
32.452800 0.000000
e
