set title 'mp-10851 - Density of States'
set xlabel 'Energy (eV)'
set ylabel 'DOS (states/eV)'
set grid
set xrange [-10:10]
set yrange [0:22.321]
set xzeroaxis lt -1
set terminal png size 800,600
set output 'mp-10851_dos_gnuplot.png'
plot '-' using 1:2 with lines title 'DOS'
-20.892500 0.000000
-20.871100 0.000000
-20.849700 0.000000
-20.828300 0.000000
-20.807000 0.000000
-20.785600 0.000000
-20.764200 0.000000
-20.742800 0.000000
-20.721400 0.000000
-20.700000 0.000000
-20.678700 0.000000
-20.657300 0.000000
-20.635900 0.000000
-20.614500 0.000000
-20.593100 0.000000
-20.571800 0.000000
-20.550400 0.000000
-20.529000 0.000000
-20.507600 0.000000
-20.486200 0.000000
-20.464900 0.000000
-20.443500 0.000000
-20.422100 0.000000
-20.400700 0.000000
-20.379300 0.000000
-20.357900 0.000000
-20.336600 0.000000
-20.315200 0.000000
-20.293800 0.000000
-20.272400 0.000000
-20.251000 0.000000
-20.229700 0.000000
-20.208300 0.000000
-20.186900 0.000000
-20.165500 0.000000
-20.144100 0.000000
-20.122800 0.000000
-20.101400 0.000000
-20.080000 0.000000
-20.058600 0.000000
-20.037200 0.000000
-20.015800 0.000000
-19.994500 0.000000
-19.973100 0.000000
-19.951700 0.000000
-19.930300 0.000000
-19.908900 0.000000
-19.887600 0.000000
-19.866200 0.000000
-19.844800 0.000000
-19.823400 0.000000
-19.802000 0.000000
-19.780600 0.000000
-19.759300 0.000000
-19.737900 0.000000
-19.716500 0.000000
-19.695100 0.000000
-19.673700 0.000000
-19.652400 0.000000
-19.631000 0.000000
-19.609600 0.000000
-19.588200 0.000000
-19.566800 0.000000
-19.545500 0.000000
-19.524100 0.000000
-19.502700 0.000000
-19.481300 0.000000
-19.459900 0.000000
-19.438500 0.000000
-19.417200 0.000000
-19.395800 0.000000
-19.374400 0.000000
-19.353000 0.000000
-19.331600 0.000000
-19.310300 0.000000
-19.288900 0.000000
-19.267500 0.000000
-19.246100 0.000000
-19.224700 0.000000
-19.203400 0.000000
-19.182000 0.000000
-19.160600 0.000000
-19.139200 0.000000
-19.117800 0.000000
-19.096400 0.000000
-19.075100 0.000000
-19.053700 0.000000
-19.032300 0.000000
-19.010900 0.000000
-18.989500 0.000000
-18.968200 0.000000
-18.946800 0.000500
-18.925400 0.074300
-18.904000 0.272900
-18.882600 0.596500
-18.861200 1.031500
-18.839900 1.445200
-18.818500 1.597800
-18.797100 1.673700
-18.775700 1.766400
-18.754300 2.003000
-18.733000 2.255800
-18.711600 2.524800
-18.690200 2.810100
-18.668800 3.240200
-18.647400 3.902400
-18.626100 4.549400
-18.604700 5.182400
-18.583300 6.438100
-18.561900 7.815800
-18.540500 8.593300
-18.519100 9.061800
-18.497800 14.866100
-18.476400 8.553000
-18.455000 3.236400
-18.433600 0.000000
-18.412200 0.000000
-18.390900 0.000000
-18.369500 0.000000
-18.348100 0.409200
-18.326700 1.321900
-18.305300 1.078100
-18.284000 1.260800
-18.262600 1.461900
-18.241200 1.681300
-18.219800 1.919100
-18.198400 2.175300
-18.177000 2.472800
-18.155700 3.690200
-18.134300 5.118700
-18.112900 8.229600
-18.091500 9.377000
-18.070100 9.993700
-18.048800 10.033800
-18.027400 8.378900
-18.006000 5.375000
-17.984600 3.224400
-17.963200 2.569100
-17.941900 1.945700
-17.920500 1.554900
-17.899100 1.376200
-17.877700 1.240100
-17.856300 1.110500
-17.834900 0.987200
-17.813600 0.870400
-17.792200 0.759900
-17.770800 0.655800
-17.749400 0.558200
-17.728000 0.466900
-17.706700 0.382000
-17.685300 0.303500
-17.663900 0.224300
-17.642500 1.318000
-17.621100 1.824900
-17.599700 2.477900
-17.578400 3.803600
-17.557000 7.440100
-17.535600 11.629800
-17.514200 14.175600
-17.492800 7.369500
-17.471500 4.786000
-17.450100 4.138800
-17.428700 3.589200
-17.407300 3.137300
-17.385900 2.811100
-17.364600 2.525300
-17.343200 2.264400
-17.321800 2.028200
-17.300400 1.816900
-17.279000 1.704300
-17.257600 1.596900
-17.236300 1.484200
-17.214900 1.366200
-17.193500 1.242900
-17.172100 1.114300
-17.150700 0.973700
-17.129400 0.956400
-17.108000 0.798400
-17.086600 0.652900
-17.065200 0.519800
-17.043800 0.399100
-17.022500 0.290800
-17.001100 0.194800
-16.979700 0.111300
-16.958300 68.342400
-16.936900 166.522300
-16.915500 0.000000
-16.894200 0.000000
-16.872800 0.000000
-16.851400 0.000000
-16.830000 0.000000
-16.808600 0.000000
-16.787300 0.000000
-16.765900 0.000000
-16.744500 0.000000
-16.723100 0.000000
-16.701700 0.000000
-16.680300 0.000000
-16.659000 0.000000
-16.637600 0.000000
-16.616200 0.000000
-16.594800 0.000000
-16.573400 0.000000
-16.552100 0.000000
-16.530700 0.000000
-16.509300 0.000000
-16.487900 0.000000
-16.466500 0.000000
-16.445200 0.000000
-16.423800 0.000000
-16.402400 0.000000
-16.381000 0.000000
-16.359600 0.000000
-16.338200 0.000000
-16.316900 0.000000
-16.295500 0.000000
-16.274100 0.000000
-16.252700 0.000000
-16.231300 0.000000
-16.210000 0.000000
-16.188600 0.000000
-16.167200 0.000000
-16.145800 0.000000
-16.124400 0.000000
-16.103100 0.000000
-16.081700 0.000000
-16.060300 0.000000
-16.038900 0.000000
-16.017500 0.000000
-15.996100 0.000000
-15.974800 0.000000
-15.953400 0.000000
-15.932000 0.000000
-15.910600 0.000000
-15.889200 0.000000
-15.867900 0.000000
-15.846500 0.000000
-15.825100 0.000000
-15.803700 0.000000
-15.782300 0.000000
-15.760900 0.000000
-15.739600 0.000000
-15.718200 0.000000
-15.696800 0.000000
-15.675400 0.000000
-15.654000 0.000000
-15.632700 0.000000
-15.611300 0.000000
-15.589900 0.000000
-15.568500 0.000000
-15.547100 0.000000
-15.525800 0.000000
-15.504400 0.000000
-15.483000 0.000000
-15.461600 0.000000
-15.440200 0.000000
-15.418800 0.000000
-15.397500 0.000000
-15.376100 0.000000
-15.354700 0.000000
-15.333300 0.000000
-15.311900 0.000000
-15.290600 0.000000
-15.269200 0.000000
-15.247800 0.000000
-15.226400 0.000000
-15.205000 0.000000
-15.183700 0.000000
-15.162300 0.000000
-15.140900 0.000000
-15.119500 0.000000
-15.098100 0.000000
-15.076700 0.000000
-15.055400 0.000000
-15.034000 0.000000
-15.012600 0.000000
-14.991200 0.000000
-14.969800 0.000000
-14.948500 0.000000
-14.927100 0.000000
-14.905700 0.000000
-14.884300 0.000000
-14.862900 0.000000
-14.841600 0.000000
-14.820200 0.000000
-14.798800 0.000000
-14.777400 0.000000
-14.756000 0.000000
-14.734600 0.000000
-14.713300 0.000000
-14.691900 0.000000
-14.670500 0.000000
-14.649100 0.000000
-14.627700 0.000000
-14.606400 0.000000
-14.585000 0.000000
-14.563600 0.000000
-14.542200 0.000000
-14.520800 0.000000
-14.499400 0.000000
-14.478100 0.000000
-14.456700 0.000000
-14.435300 0.000000
-14.413900 0.000000
-14.392500 0.000000
-14.371200 0.000000
-14.349800 0.000000
-14.328400 0.000000
-14.307000 0.000000
-14.285600 0.000000
-14.264300 0.000000
-14.242900 0.000000
-14.221500 0.000000
-14.200100 0.000000
-14.178700 0.000000
-14.157300 0.000000
-14.136000 0.000000
-14.114600 0.000000
-14.093200 0.000000
-14.071800 0.000000
-14.050400 0.000000
-14.029100 0.000000
-14.007700 0.000000
-13.986300 0.000000
-13.964900 0.000000
-13.943500 0.000000
-13.922200 0.000000
-13.900800 0.000000
-13.879400 0.000000
-13.858000 0.000000
-13.836600 0.000000
-13.815200 0.000000
-13.793900 0.000000
-13.772500 0.000000
-13.751100 0.000000
-13.729700 0.000000
-13.708300 0.000000
-13.687000 0.000000
-13.665600 0.000000
-13.644200 0.000000
-13.622800 0.000000
-13.601400 0.000000
-13.580000 0.000000
-13.558700 0.000000
-13.537300 0.000000
-13.515900 0.000000
-13.494500 0.000000
-13.473100 0.000000
-13.451800 0.000000
-13.430400 0.000000
-13.409000 0.000000
-13.387600 0.000000
-13.366200 0.000000
-13.344900 0.000000
-13.323500 0.000000
-13.302100 0.000000
-13.280700 0.000000
-13.259300 0.000000
-13.237900 0.000000
-13.216600 0.000000
-13.195200 0.000000
-13.173800 0.000000
-13.152400 0.000000
-13.131000 0.000000
-13.109700 0.000000
-13.088300 0.000000
-13.066900 0.000000
-13.045500 0.000000
-13.024100 0.000000
-13.002800 0.000000
-12.981400 0.000000
-12.960000 0.000000
-12.938600 0.000000
-12.917200 0.000000
-12.895800 0.000000
-12.874500 0.000000
-12.853100 0.000000
-12.831700 0.000000
-12.810300 0.000000
-12.788900 0.000000
-12.767600 0.000000
-12.746200 0.000000
-12.724800 0.000000
-12.703400 0.000000
-12.682000 0.000000
-12.660600 0.000000
-12.639300 0.000000
-12.617900 0.000000
-12.596500 0.000000
-12.575100 0.000000
-12.553700 0.000000
-12.532400 0.000000
-12.511000 0.000000
-12.489600 0.000000
-12.468200 0.000000
-12.446800 0.000000
-12.425500 0.000000
-12.404100 0.000000
-12.382700 0.000000
-12.361300 0.000000
-12.339900 0.000000
-12.318500 0.000000
-12.297200 0.000000
-12.275800 0.000000
-12.254400 0.000000
-12.233000 0.000000
-12.211600 0.000000
-12.190300 0.000000
-12.168900 0.000000
-12.147500 0.000000
-12.126100 0.000000
-12.104700 0.000000
-12.083400 0.000000
-12.062000 0.000000
-12.040600 0.000000
-12.019200 0.000000
-11.997800 0.000000
-11.976400 0.000000
-11.955100 0.000000
-11.933700 0.000000
-11.912300 0.000000
-11.890900 0.000000
-11.869500 0.000000
-11.848200 0.000000
-11.826800 0.000000
-11.805400 0.000000
-11.784000 0.000000
-11.762600 0.000000
-11.741300 0.000000
-11.719900 0.000000
-11.698500 0.000000
-11.677100 0.000000
-11.655700 0.000000
-11.634300 0.000000
-11.613000 0.000000
-11.591600 0.000000
-11.570200 0.000000
-11.548800 0.000000
-11.527400 0.000000
-11.506100 0.000000
-11.484700 0.000000
-11.463300 0.000000
-11.441900 0.000000
-11.420500 0.000000
-11.399100 0.000000
-11.377800 0.000000
-11.356400 0.000000
-11.335000 0.000000
-11.313600 0.000000
-11.292200 0.000000
-11.270900 0.000000
-11.249500 0.000000
-11.228100 0.000000
-11.206700 0.000000
-11.185300 0.000000
-11.164000 0.000000
-11.142600 0.000000
-11.121200 0.000000
-11.099800 0.000000
-11.078400 0.000000
-11.057000 0.000000
-11.035700 0.000000
-11.014300 0.000000
-10.992900 0.000000
-10.971500 0.000000
-10.950100 0.000000
-10.928800 0.000000
-10.907400 0.000000
-10.886000 0.000000
-10.864600 0.000000
-10.843200 0.000000
-10.821900 0.000000
-10.800500 0.000000
-10.779100 0.000000
-10.757700 0.000000
-10.736300 0.000000
-10.714900 0.000000
-10.693600 0.000000
-10.672200 0.000000
-10.650800 0.000000
-10.629400 0.000000
-10.608000 0.000000
-10.586700 0.000000
-10.565300 0.000000
-10.543900 0.000000
-10.522500 0.000000
-10.501100 0.000000
-10.479700 0.000000
-10.458400 0.000000
-10.437000 0.000000
-10.415600 0.000000
-10.394200 0.000000
-10.372800 0.000000
-10.351500 0.000000
-10.330100 0.000000
-10.308700 0.000000
-10.287300 0.000000
-10.265900 0.000000
-10.244600 0.000000
-10.223200 0.000000
-10.201800 0.000000
-10.180400 0.000000
-10.159000 0.000000
-10.137600 0.000000
-10.116300 0.000000
-10.094900 0.000000
-10.073500 0.000000
-10.052100 0.000000
-10.030700 0.000000
-10.009400 0.000000
-9.988000 0.000000
-9.966600 0.000000
-9.945200 0.000000
-9.923800 0.000000
-9.902500 0.000000
-9.881100 0.000000
-9.859700 0.000000
-9.838300 0.000000
-9.816900 0.000000
-9.795500 0.000000
-9.774200 0.000000
-9.752800 0.000000
-9.731400 0.000000
-9.710000 0.000000
-9.688600 0.000000
-9.667300 0.000000
-9.645900 0.000000
-9.624500 0.000000
-9.603100 0.000000
-9.581700 0.000000
-9.560300 0.000000
-9.539000 0.000000
-9.517600 0.000000
-9.496200 0.000000
-9.474800 0.000000
-9.453400 0.000000
-9.432100 0.000000
-9.410700 0.000000
-9.389300 0.000000
-9.367900 0.000000
-9.346500 0.000000
-9.325200 0.000000
-9.303800 0.000000
-9.282400 0.000000
-9.261000 0.009100
-9.239600 0.035200
-9.218200 0.064100
-9.196900 0.095800
-9.175500 0.130300
-9.154100 0.167700
-9.132700 0.207800
-9.111300 0.250700
-9.090000 0.296500
-9.068600 0.345100
-9.047200 0.396400
-9.025800 0.450600
-9.004400 0.507600
-8.983100 0.567400
-8.961700 0.486800
-8.940300 0.527400
-8.918900 0.568200
-8.897500 0.609000
-8.876100 0.650100
-8.854800 0.691000
-8.833400 0.730900
-8.812000 0.769700
-8.790600 0.807400
-8.769200 0.843900
-8.747900 0.879400
-8.726500 0.913700
-8.705100 0.946900
-8.683700 0.979000
-8.662300 1.010000
-8.641000 1.073000
-8.619600 1.150700
-8.598200 1.234000
-8.576800 1.322900
-8.555400 1.417300
-8.534000 1.517300
-8.512700 1.622900
-8.491300 1.734000
-8.469900 1.867500
-8.448500 2.033100
-8.427100 2.226900
-8.405800 2.448900
-8.384400 2.703800
-8.363000 4.082900
-8.341600 6.635600
-8.320200 9.879100
-8.298800 11.303800
-8.277500 6.599000
-8.256100 3.660600
-8.234700 2.397800
-8.213300 1.944300
-8.191900 1.635300
-8.170600 1.398900
-8.149200 1.223500
-8.127800 1.065800
-8.106400 0.921900
-8.085000 0.791600
-8.063700 0.675200
-8.042300 0.572400
-8.020900 0.483500
-7.999500 0.408200
-7.978100 0.066400
-7.956700 0.082700
-7.935400 0.100800
-7.914000 0.120700
-7.892600 0.141500
-7.871200 0.160100
-7.849800 0.179800
-7.828500 0.200500
-7.807100 0.222400
-7.785700 0.245300
-7.764300 0.269300
-7.742900 0.294500
-7.721600 0.320700
-7.700200 0.348000
-7.678800 0.376400
-7.657400 0.405900
-7.636000 0.436500
-7.614600 0.468200
-7.593300 0.500900
-7.571900 0.534800
-7.550500 0.569800
-7.529100 0.605800
-7.507700 0.643000
-7.486400 0.681200
-7.465000 0.720500
-7.443600 0.761000
-7.422200 0.802900
-7.400800 0.883300
-7.379400 1.026400
-7.358100 1.232400
-7.336700 1.560400
-7.315300 1.936800
-7.293900 2.206700
-7.272500 2.357400
-7.251200 2.396100
-7.229800 3.873200
-7.208400 4.100600
-7.187000 4.279000
-7.165600 4.408500
-7.144300 4.488900
-7.122900 4.520400
-7.101500 4.503000
-7.080100 4.436500
-7.058700 4.321100
-7.037300 4.156700
-7.016000 3.110700
-6.994600 2.917800
-6.973200 2.441000
-6.951800 2.033100
-6.930400 1.280200
-6.909100 1.134400
-6.887700 1.025500
-6.866300 0.959700
-6.844900 0.913700
-6.823500 0.869000
-6.802200 0.825500
-6.780800 0.783200
-6.759400 0.742100
-6.738000 0.702200
-6.716600 0.663600
-6.695200 0.626100
-6.673900 0.589900
-6.652500 0.554900
-6.631100 0.521100
-6.609700 0.488600
-6.588300 0.652700
-6.567000 0.560900
-6.545600 0.472700
-6.524200 0.388000
-6.502800 0.306800
-6.481400 0.229100
-6.460000 0.155000
-6.438700 0.084500
-6.417300 0.017400
-6.395900 0.853200
-6.374500 1.124900
-6.353100 1.414800
-6.331800 1.722900
-6.310400 2.049300
-6.289000 2.393800
-6.267600 2.756500
-6.246200 3.137500
-6.224900 2.922000
-6.203500 2.349800
-6.182100 2.429700
-6.160700 2.508400
-6.139300 2.585800
-6.117900 2.662000
-6.096600 2.737000
-6.075200 2.577400
-6.053800 2.571900
-6.032400 2.556600
-6.011000 2.531200
-5.989700 2.496000
-5.968300 2.450800
-5.946900 2.380600
-5.925500 2.316900
-5.904100 2.243400
-5.882800 2.160100
-5.861400 2.102600
-5.840000 2.060300
-5.818600 2.013300
-5.797200 1.961500
-5.775800 1.904900
-5.754500 1.843600
-5.733100 1.777500
-5.711700 1.706600
-5.690300 1.631000
-5.668900 1.561700
-5.647600 1.504600
-5.626200 1.446200
-5.604800 1.382700
-5.583400 1.312700
-5.562000 1.236100
-5.540700 1.176000
-5.519300 1.129400
-5.497900 1.078600
-5.476500 1.023800
-5.455100 0.964800
-5.433700 0.938800
-5.412400 1.059300
-5.391000 1.281100
-5.369600 1.601900
-5.348200 2.125400
-5.326800 3.106100
-5.305500 7.809800
-5.284100 9.685700
-5.262700 10.812700
-5.241300 12.487000
-5.219900 12.683700
-5.198500 10.743500
-5.177200 6.888200
-5.155800 8.263800
-5.134400 9.792300
-5.113000 8.270700
-5.091600 6.993900
-5.070300 5.961600
-5.048900 4.686000
-5.027500 4.836700
-5.006100 4.981400
-4.984700 5.120200
-4.963400 5.252900
-4.942000 5.278700
-4.920600 5.866400
-4.899200 7.744500
-4.877800 6.073200
-4.856400 5.209900
-4.835100 5.659800
-4.813700 3.925700
-4.792300 2.507900
-4.770900 1.406400
-4.749500 0.365500
-4.728200 0.445300
-4.706800 2.044700
-4.685400 3.906900
-4.664000 6.178000
-4.642600 6.766600
-4.621300 7.515400
-4.599900 7.606900
-4.578500 7.637000
-4.557100 7.410500
-4.535700 6.902900
-4.514300 6.227800
-4.493000 5.607900
-4.471600 5.034700
-4.450200 4.469700
-4.428800 4.098300
-4.407400 3.376700
-4.386100 2.499200
-4.364700 1.690700
-4.343300 1.020000
-4.321900 0.517700
-4.300500 0.260300
-4.279100 0.000000
-4.257800 0.000000
-4.236400 0.000000
-4.215000 0.000000
-4.193600 0.000000
-4.172200 0.000000
-4.150900 0.000000
-4.129500 0.000000
-4.108100 0.000000
-4.086700 0.000000
-4.065300 0.000000
-4.044000 0.000000
-4.022600 0.000000
-4.001200 0.000000
-3.979800 0.000000
-3.958400 0.000000
-3.937000 0.000000
-3.915700 0.000000
-3.894300 0.000000
-3.872900 0.000000
-3.851500 0.000000
-3.830100 0.000000
-3.808800 0.000000
-3.787400 0.000000
-3.766000 0.000000
-3.744600 0.000000
-3.723200 0.000000
-3.701900 0.000000
-3.680500 0.000000
-3.659100 0.000000
-3.637700 0.000000
-3.616300 0.000000
-3.594900 0.000000
-3.573600 0.000000
-3.552200 0.000000
-3.530800 0.000000
-3.509400 0.000000
-3.488000 0.000000
-3.466700 0.000000
-3.445300 0.000000
-3.423900 0.000000
-3.402500 0.000000
-3.381100 0.000000
-3.359700 0.000000
-3.338400 0.000000
-3.317000 0.000000
-3.295600 0.000000
-3.274200 0.000000
-3.252800 0.000000
-3.231500 0.000000
-3.210100 0.000000
-3.188700 0.000000
-3.167300 0.000000
-3.145900 0.000000
-3.124600 0.000000
-3.103200 0.000000
-3.081800 0.000000
-3.060400 0.000000
-3.039000 0.000000
-3.017600 0.000000
-2.996300 0.000000
-2.974900 0.000000
-2.953500 0.000000
-2.932100 0.000000
-2.910700 0.000000
-2.889400 0.000000
-2.868000 0.000000
-2.846600 0.000000
-2.825200 0.000000
-2.803800 3.349300
-2.782500 6.985500
-2.761100 9.801800
-2.739700 16.098200
-2.718300 12.555500
-2.696900 12.982800
-2.675500 12.166800
-2.654200 10.502300
-2.632800 7.768500
-2.611400 11.388600
-2.590000 9.171000
-2.568600 15.284500
-2.547300 11.400900
-2.525900 9.783700
-2.504500 7.413100
-2.483100 6.178700
-2.461700 5.551200
-2.440400 5.388500
-2.419000 6.952800
-2.397600 6.308500
-2.376200 1.663400
-2.354800 1.345400
-2.333400 1.190700
-2.312100 1.172900
-2.290700 4.909600
-2.269300 5.550700
-2.247900 7.288900
-2.226500 8.250400
-2.205200 9.902800
-2.183800 12.612100
-2.162400 13.335300
-2.141000 12.406400
-2.119600 9.390100
-2.098200 6.226700
-2.076900 0.231800
-2.055500 0.208100
-2.034100 0.746000
-2.012700 1.721100
-1.991300 3.134300
-1.970000 6.674100
-1.948600 10.443500
-1.927200 17.005500
-1.905800 14.627600
-1.884400 11.479500
-1.863100 6.669900
-1.841700 5.500600
-1.820300 10.576700
-1.798900 10.569700
-1.777500 15.354200
-1.756100 14.861700
-1.734800 18.142800
-1.713400 20.222200
-1.692000 9.874800
-1.670600 2.563900
-1.649200 1.106000
-1.627900 2.606600
-1.606500 3.586600
-1.585100 4.195800
-1.563700 4.020200
-1.542300 4.279000
-1.521000 4.659000
-1.499600 5.099900
-1.478200 5.601900
-1.456800 6.182100
-1.435400 7.403800
-1.414000 12.552700
-1.392700 12.208100
-1.371300 9.512000
-1.349900 5.725200
-1.328500 11.729800
-1.307100 15.080400
-1.285800 10.312800
-1.264400 10.205700
-1.243000 9.869100
-1.221600 9.344700
-1.200200 7.665300
-1.178800 6.675100
-1.157500 5.562200
-1.136100 5.053100
-1.114700 5.237600
-1.093300 5.809400
-1.071900 5.824700
-1.050600 6.190700
-1.029200 6.650700
-1.007800 7.158700
-0.986400 8.159400
-0.965000 9.401900
-0.943700 9.469500
-0.922300 7.836200
-0.900900 6.889000
-0.879500 6.296900
-0.858100 5.244600
-0.836700 4.189500
-0.815400 3.482800
-0.794000 3.092900
-0.772600 2.862100
-0.751200 2.778500
-0.729800 3.201000
-0.708500 3.648900
-0.687100 4.975700
-0.665700 6.611300
-0.644300 7.949500
-0.622900 9.640000
-0.601600 11.049100
-0.580200 20.291600
-0.558800 6.505700
-0.537400 5.547200
-0.516000 5.088300
-0.494600 5.185400
-0.473300 5.857700
-0.451900 8.221200
-0.430500 9.975400
-0.409100 10.235100
-0.387700 9.837800
-0.366400 9.265200
-0.345000 7.415500
-0.323600 4.718500
-0.302200 3.313400
-0.280800 4.633500
-0.259400 5.856600
-0.238100 7.264600
-0.216700 6.295000
-0.195300 6.202100
-0.173900 6.097200
-0.152500 5.984800
-0.131200 6.154300
-0.109800 6.642500
-0.088400 7.728100
-0.067000 9.548500
-0.045600 11.412600
-0.024300 12.052700
-0.002900 9.870000
0.018500 6.498800
0.039900 4.882800
0.061300 4.574300
0.082700 4.919400
0.104000 4.453100
0.125400 5.375800
0.146800 6.370100
0.168200 7.100700
0.189600 8.287900
0.210900 10.364600
0.232300 13.019600
0.253700 15.310700
0.275100 8.064900
0.296500 3.508700
0.317800 0.725400
0.339200 0.136900
0.360600 0.000000
0.382000 0.000000
0.403400 0.000000
0.424800 0.000000
0.446100 0.000000
0.467500 0.000000
0.488900 0.000000
0.510300 0.000000
0.531700 0.000000
0.553000 0.000000
0.574400 0.000000
0.595800 0.000000
0.617200 0.000000
0.638600 0.000000
0.659900 0.000000
0.681300 0.000000
0.702700 0.000000
0.724100 0.000000
0.745500 0.000000
0.766900 0.000000
0.788200 0.000000
0.809600 0.000000
0.831000 0.000000
0.852400 0.000000
0.873800 0.000000
0.895100 0.000000
0.916500 0.000000
0.937900 0.000000
0.959300 0.000000
0.980700 0.000000
1.002100 0.000000
1.023400 0.000000
1.044800 0.000000
1.066200 0.000000
1.087600 0.000000
1.109000 0.000000
1.130300 0.000000
1.151700 0.000000
1.173100 0.000000
1.194500 0.000000
1.215900 0.000000
1.237200 0.000000
1.258600 0.000000
1.280000 0.000000
1.301400 0.000000
1.322800 0.000000
1.344200 0.000000
1.365500 0.000000
1.386900 0.000000
1.408300 0.000000
1.429700 0.000000
1.451100 0.000000
1.472400 0.000000
1.493800 0.000000
1.515200 0.000000
1.536600 0.000000
1.558000 0.000000
1.579300 0.000000
1.600700 0.000000
1.622100 0.000000
1.643500 0.000000
1.664900 0.000000
1.686300 0.000000
1.707600 0.000000
1.729000 0.000000
1.750400 0.000000
1.771800 0.000000
1.793200 0.000000
1.814500 0.000000
1.835900 0.000000
1.857300 0.000000
1.878700 0.000000
1.900100 0.000000
1.921500 0.000000
1.942800 0.000000
1.964200 0.000000
1.985600 0.000000
2.007000 0.000000
2.028400 0.000000
2.049700 0.000000
2.071100 0.000000
2.092500 0.000000
2.113900 0.000000
2.135300 0.000000
2.156600 0.000000
2.178000 0.000000
2.199400 0.000000
2.220800 0.000000
2.242200 0.000000
2.263600 0.000000
2.284900 0.000000
2.306300 0.000000
2.327700 0.000000
2.349100 0.000000
2.370500 0.000000
2.391800 0.000000
2.413200 0.000000
2.434600 0.000000
2.456000 0.000000
2.477400 0.000000
2.498700 0.000000
2.520100 0.000000
2.541500 0.000000
2.562900 0.000000
2.584300 0.000000
2.605700 0.000000
2.627000 0.000000
2.648400 0.000000
2.669800 0.000000
2.691200 0.000000
2.712600 0.000000
2.733900 0.000000
2.755300 0.000000
2.776700 0.000000
2.798100 0.000000
2.819500 0.000000
2.840900 0.000000
2.862200 0.000000
2.883600 0.000000
2.905000 0.000000
2.926400 0.000000
2.947800 0.000000
2.969100 0.000000
2.990500 0.000000
3.011900 0.000000
3.033300 0.000000
3.054700 0.000000
3.076000 0.000000
3.097400 0.000000
3.118800 0.000000
3.140200 0.000000
3.161600 0.000000
3.183000 0.000000
3.204300 0.000000
3.225700 0.000000
3.247100 0.000000
3.268500 0.000000
3.289900 0.000000
3.311200 0.000000
3.332600 0.000000
3.354000 0.000000
3.375400 0.000000
3.396800 0.000000
3.418100 0.000000
3.439500 0.000000
3.460900 0.000000
3.482300 0.000000
3.503700 0.000000
3.525100 0.000000
3.546400 0.000000
3.567800 0.000000
3.589200 0.000000
3.610600 0.000000
3.632000 0.000000
3.653300 0.000000
3.674700 0.000000
3.696100 0.000000
3.717500 0.000000
3.738900 0.000000
3.760200 0.000000
3.781600 0.000000
3.803000 0.000000
3.824400 0.000000
3.845800 0.000000
3.867200 0.000000
3.888500 0.000000
3.909900 0.000000
3.931300 0.000000
3.952700 0.000000
3.974100 0.000000
3.995400 0.000000
4.016800 0.000000
4.038200 0.000000
4.059600 0.000000
4.081000 0.000000
4.102400 0.000000
4.123700 0.000000
4.145100 0.000000
4.166500 0.000000
4.187900 0.000000
4.209300 0.000000
4.230600 0.000000
4.252000 0.000000
4.273400 0.000000
4.294800 0.000000
4.316200 0.000000
4.337500 0.000000
4.358900 0.000000
4.380300 0.000000
4.401700 0.000000
4.423100 0.000000
4.444500 0.000000
4.465800 0.000000
4.487200 0.000000
4.508600 0.000000
4.530000 0.000000
4.551400 0.000000
4.572700 0.000000
4.594100 0.000000
4.615500 0.000000
4.636900 0.000000
4.658300 0.000000
4.679600 0.000000
4.701000 0.000000
4.722400 0.000000
4.743800 0.000000
4.765200 0.000000
4.786600 0.000000
4.807900 0.000000
4.829300 0.000000
4.850700 0.000000
4.872100 0.000000
4.893500 0.000000
4.914800 0.000000
4.936200 0.000000
4.957600 0.000000
4.979000 0.000000
5.000400 0.000000
5.021800 0.000000
5.043100 0.000000
5.064500 0.000000
5.085900 0.000000
5.107300 0.000000
5.128700 0.000000
5.150000 0.000000
5.171400 0.000000
5.192800 0.000000
5.214200 0.000000
5.235600 0.000000
5.256900 0.000000
5.278300 0.000000
5.299700 0.000000
5.321100 0.000000
5.342500 0.000000
5.363900 0.000000
5.385200 0.000000
5.406600 0.000000
5.428000 0.000000
5.449400 0.000000
5.470800 0.000000
5.492100 0.000000
5.513500 0.000000
5.534900 0.000000
5.556300 0.000000
5.577700 0.000000
5.599000 0.000000
5.620400 0.000000
5.641800 0.000000
5.663200 0.000000
5.684600 0.000000
5.706000 0.000000
5.727300 0.000000
5.748700 0.000000
5.770100 0.000000
5.791500 0.000000
5.812900 0.000000
5.834200 0.000000
5.855600 0.000000
5.877000 0.000000
5.898400 0.000200
5.919800 0.001300
5.941200 0.003200
5.962500 0.006100
5.983900 0.009800
6.005300 0.014400
6.026700 0.019900
6.048100 0.026300
6.069400 0.033600
6.090800 0.041800
6.112200 0.050900
6.133600 0.060900
6.155000 0.071800
6.176300 0.083500
6.197700 0.096200
6.219100 0.109800
6.240500 0.124200
6.261900 0.139500
6.283300 0.155700
6.304600 0.172800
6.326000 0.190800
6.347400 0.209600
6.368800 0.229400
6.390200 0.249900
6.411500 0.271400
6.432900 0.287800
6.454300 0.297200
6.475700 0.306000
6.497100 0.314200
6.518400 0.321900
6.539800 0.328900
6.561200 0.335300
6.582600 0.341100
6.604000 0.346300
6.625400 0.351000
6.646700 0.355000
6.668100 0.358400
6.689500 0.361200
6.710900 0.363500
6.732300 0.370100
6.753600 0.380600
6.775000 0.391100
6.796400 0.401800
6.817800 0.412600
6.839200 0.423600
6.860500 0.434600
6.881900 0.445700
6.903300 0.457000
6.924700 0.468400
6.946100 0.479900
6.967500 0.491500
6.988800 0.503200
7.010200 0.515100
7.031600 0.527000
7.053000 0.539100
7.074400 0.551300
7.095700 0.563600
7.117100 0.576000
7.138500 0.588600
7.159900 0.603900
7.181300 0.632600
7.202700 0.660700
7.224000 0.687900
7.245400 0.714400
7.266800 0.740200
7.288200 0.765200
7.309600 0.789700
7.330900 0.814200
7.352300 0.838700
7.373700 0.863200
7.395100 0.887600
7.416500 0.912100
7.437800 0.936500
7.459200 0.961000
7.480600 0.985500
7.502000 1.009900
7.523400 0.945200
7.544800 0.966200
7.566100 0.987500
7.587500 1.020100
7.608900 1.072600
7.630300 1.122200
7.651700 1.168900
7.673000 1.212700
7.694400 1.253600
7.715800 1.291600
7.737200 1.326800
7.758600 1.359000
7.779900 1.383300
7.801300 1.392800
7.822700 1.401100
7.844100 1.408000
7.865500 1.413700
7.886900 1.418000
7.908200 1.421100
7.929600 1.422900
7.951000 1.423400
7.972400 1.422700
7.993800 1.420600
8.015100 1.417300
8.036500 1.412700
8.057900 1.406800
8.079300 1.408100
8.100700 1.427700
8.122100 1.446100
8.143400 1.463400
8.164800 1.479600
8.186200 1.494700
8.207600 1.508700
8.229000 1.521600
8.250300 1.801500
8.271700 1.808000
8.293100 2.208700
8.314500 2.113800
8.335900 1.995400
8.357200 1.853500
8.378600 1.643100
8.400000 1.493400
8.421400 1.357400
8.442800 1.234900
8.464200 1.126000
8.485500 1.030700
8.506900 0.512600
8.528300 0.426300
8.549700 0.457900
8.571100 0.491000
8.592400 0.525700
8.613800 0.562000
8.635200 0.599800
8.656600 0.639100
8.678000 0.680100
8.699300 0.722500
8.720700 0.766600
8.742100 0.812200
8.763500 0.859300
8.784900 0.919700
8.806300 0.989100
8.827600 1.063300
8.849000 1.674200
8.870400 2.381900
8.891800 3.606400
8.913200 4.398400
8.934500 5.004100
8.955900 5.738300
8.977300 6.370800
8.998700 7.078700
9.020100 7.886600
9.041500 9.723100
9.062800 9.411600
9.084200 7.315800
9.105600 5.554600
9.127000 4.129000
9.148400 3.059800
9.169700 2.474900
9.191100 2.302100
9.212500 2.271300
9.233900 2.533700
9.255300 3.159200
9.276600 3.105800
9.298000 2.605200
9.319400 2.674100
9.340800 2.831200
9.362200 3.076500
9.383600 3.410000
9.404900 3.831600
9.426300 4.563400
9.447700 5.606000
9.469100 6.122400
9.490500 6.529800
9.511800 8.071100
9.533200 8.270900
9.554600 8.714200
9.576000 7.441600
9.597400 6.550400
9.618700 5.744800
9.640100 5.053900
9.661500 4.653000
9.682900 4.319300
9.704300 4.043800
9.725700 3.826500
9.747000 4.030300
9.768400 5.285100
9.789800 7.921300
9.811200 14.815600
9.832600 14.030700
9.853900 9.973600
9.875300 5.919200
9.896700 1.510000
9.918100 2.294800
9.939500 3.226800
9.960900 3.945300
9.982200 4.655200
10.003600 5.503600
10.025000 6.392500
10.046400 7.266600
10.067800 8.126000
10.089100 8.909900
10.110500 9.323700
10.131900 11.870000
10.153300 8.411300
10.174700 3.560700
10.196000 0.782400
10.217400 0.326300
10.238800 0.298900
10.260200 0.278800
10.281600 0.397400
10.303000 0.818400
10.324300 1.455300
10.345700 2.315300
10.367100 5.082000
10.388500 8.631900
10.409900 9.674200
10.431200 10.973800
10.452600 9.738100
10.474000 8.429700
10.495400 7.067100
10.516800 7.195600
10.538100 6.809600
10.559500 6.154300
10.580900 5.602300
10.602300 8.161300
10.623700 1.821300
10.645100 2.192000
10.666400 3.101100
10.687800 4.226500
10.709200 5.319000
10.730600 6.364200
10.752000 7.362300
10.773300 7.399500
10.794700 7.057500
10.816100 6.474500
10.837500 6.132100
10.858900 5.712200
10.880200 5.618300
10.901600 4.904200
10.923000 3.916500
10.944400 3.081000
10.965800 2.529000
10.987200 1.963600
11.008500 1.795700
11.029900 1.558500
11.051300 1.664100
11.072700 1.785900
11.094100 1.909500
11.115400 2.034900
11.136800 2.162100
11.158200 2.291100
11.179600 2.421900
11.201000 2.554500
11.222400 2.688900
11.243700 3.841800
11.265100 3.337000
11.286500 2.850000
11.307900 2.898100
11.329300 2.955600
11.350600 3.022600
11.372000 3.099100
11.393400 3.185100
11.414800 3.280600
11.436200 3.385500
11.457500 3.293600
11.478900 3.402400
11.500300 3.507900
11.521700 3.609900
11.543100 3.708500
11.564500 3.654300
11.585800 3.416400
11.607200 3.418600
11.628600 3.351300
11.650000 3.283300
11.671400 3.179800
11.692700 3.123600
11.714100 3.072100
11.735500 3.025300
11.756900 3.035500
11.778300 3.590700
11.799600 3.982100
11.821000 4.416300
11.842400 4.367000
11.863800 4.434400
11.885200 4.515500
11.906600 4.670200
11.927900 4.814200
11.949300 4.320500
11.970700 4.201300
11.992100 4.256500
12.013500 4.710100
12.034800 4.880700
12.056200 5.068100
12.077600 5.278600
12.099000 5.551700
12.120400 6.033200
12.141800 6.383500
12.163100 4.700200
12.184500 4.815500
12.205900 4.945200
12.227300 5.089800
12.248700 5.275400
12.270000 5.327400
12.291400 7.692400
12.312800 6.483100
12.334200 15.162700
12.355600 6.689200
12.376900 6.686900
12.398300 6.612600
12.419700 6.463200
12.441100 6.304000
12.462500 6.396200
12.483900 6.483800
12.505200 6.566600
12.526600 6.490200
12.548000 6.375800
12.569400 5.977900
12.590800 5.047300
12.612100 4.929600
12.633500 4.852300
12.654900 4.792100
12.676300 4.749200
12.697700 4.723500
12.719000 4.708400
12.740400 3.840900
12.761800 3.735600
12.783200 3.634000
12.804600 3.536200
12.826000 3.456000
12.847300 3.397000
12.868700 3.340200
12.890100 3.285600
12.911500 3.277400
12.932900 3.443600
12.954200 4.255000
12.975600 5.127200
12.997000 5.984100
13.018400 6.825900
13.039800 7.652400
13.061200 7.505100
13.082500 6.742600
13.103900 7.310200
13.125300 7.084400
13.146700 7.587900
13.168100 8.235300
13.189400 8.126800
13.210800 7.402500
13.232200 6.823100
13.253600 5.960200
13.275000 5.115000
13.296300 4.597400
13.317700 4.334000
13.339100 4.083700
13.360500 3.825700
13.381900 3.676200
13.403300 3.771300
13.424600 3.514600
13.446000 3.210600
13.467400 2.926000
13.488800 3.140600
13.510200 2.897400
13.531500 5.354500
13.552900 4.052600
13.574300 3.189600
13.595700 3.228900
13.617100 3.316000
13.638400 3.486300
13.659800 3.756600
13.681200 4.979500
13.702600 6.434400
13.724000 6.730500
13.745400 9.357300
13.766700 9.045000
13.788100 8.275300
13.809500 7.805700
13.830900 7.142100
13.852300 6.404600
13.873600 5.572800
13.895000 4.518400
13.916400 5.331600
13.937800 1.293500
13.959200 1.125600
13.980500 1.061000
14.001900 1.009800
14.023300 0.985100
14.044700 0.976100
14.066100 0.961700
14.087500 0.942100
14.108800 0.917000
14.130200 0.886600
14.151600 0.850900
14.173000 0.809800
14.194400 0.897700
14.215700 1.003600
14.237100 1.264400
14.258500 1.595100
14.279900 1.995800
14.301300 2.466400
14.322700 3.355100
14.344000 3.917800
14.365400 4.207200
14.386800 4.294500
14.408200 4.351300
14.429600 5.037900
14.450900 5.430100
14.472300 5.905200
14.493700 5.293000
14.515100 5.114900
14.536500 4.790800
14.557800 4.303900
14.579200 3.892700
14.600600 3.557300
14.622000 3.297700
14.643400 3.113900
14.664800 3.036200
14.686100 3.009100
14.707500 3.122600
14.728900 3.151000
14.750300 3.233500
14.771700 3.670300
14.793000 3.911800
14.814400 4.041600
14.835800 4.208100
14.857200 4.411400
14.878600 5.481800
14.899900 5.844600
14.921300 5.857600
14.942700 5.784000
14.964100 5.282800
14.985500 5.387100
15.006900 5.493400
15.028200 5.601700
15.049600 5.712000
15.071000 6.012700
15.092400 5.006200
15.113800 4.777900
15.135100 5.088800
15.156500 5.682800
15.177900 6.188900
15.199300 7.611100
15.220700 8.416200
15.242100 8.456500
15.263400 7.591300
15.284800 6.603100
15.306200 5.776600
15.327600 5.233900
15.349000 5.586300
15.370300 5.931800
15.391700 5.512800
15.413100 6.019300
15.434500 6.715800
15.455900 7.194300
15.477200 7.274600
15.498600 6.336900
15.520000 4.602900
15.541400 4.109500
15.562800 3.906100
15.584200 3.856800
15.605500 3.828900
15.626900 3.798400
15.648300 3.765100
15.669700 3.729100
15.691100 3.690200
15.712400 5.509000
15.733800 3.214600
15.755200 2.386800
15.776600 2.399300
15.798000 2.450700
15.819300 2.501700
15.840700 2.550700
15.862100 2.597800
15.883500 2.684600
15.904900 2.715500
15.926300 3.031600
15.947600 3.614400
15.969000 3.619600
15.990400 3.605500
16.011800 3.572300
16.033200 3.477300
16.054500 3.379000
16.075900 3.287100
16.097300 3.201700
16.118700 3.122600
16.140100 3.049900
16.161500 2.687800
16.182800 2.752900
16.204200 2.802100
16.225600 2.856000
16.247000 2.923200
16.268400 2.991400
16.289700 3.060700
16.311100 3.131100
16.332500 3.204400
16.353900 3.293200
16.375300 3.399700
16.396600 3.524000
16.418000 3.666100
16.439400 3.828100
16.460800 5.405300
16.482200 4.671800
16.503600 3.825000
16.524900 2.978000
16.546300 2.958000
16.567700 0.805000
16.589100 1.005200
16.610500 1.185500
16.631800 1.374100
16.653200 1.571400
16.674600 1.777600
16.696000 1.992500
16.717400 2.216300
16.738700 2.564600
16.760100 4.428700
16.781500 8.006600
16.802900 7.736700
16.824300 7.903900
16.845700 7.296000
16.867000 6.226100
16.888400 5.342600
16.909800 4.045500
16.931200 3.713800
16.952600 3.259200
16.973900 2.863500
16.995300 2.526600
17.016700 2.248400
17.038100 2.020000
17.059500 1.838800
17.080800 1.840800
17.102200 2.082400
17.123600 2.299900
17.145000 3.110300
17.166400 4.121700
17.187800 4.558500
17.209100 5.880000
17.230500 6.415100
17.251900 6.156100
17.273300 5.028900
17.294700 5.699600
17.316000 6.284600
17.337400 6.785400
17.358800 7.202200
17.380200 8.505200
17.401600 7.379300
17.423000 6.235200
17.444300 5.850800
17.465700 4.851000
17.487100 5.524800
17.508500 4.303300
17.529900 4.555400
17.551200 4.885400
17.572600 5.293500
17.594000 5.779400
17.615400 6.294900
17.636800 6.924600
17.658100 7.416600
17.679500 6.712100
17.700900 6.232700
17.722300 5.700100
17.743700 5.193900
17.765100 4.742900
17.786400 5.198800
17.807800 5.575700
17.829200 4.765500
17.850600 3.784800
17.872000 2.992000
17.893300 2.361300
17.914700 2.004300
17.936100 2.210800
17.957500 2.432100
17.978900 2.668300
18.000200 2.919300
18.021600 4.746300
18.043000 5.083200
18.064400 5.285500
18.085800 5.425500
18.107200 5.494800
18.128500 5.493500
18.149900 5.628100
18.171300 3.814400
18.192700 2.352300
18.214100 1.934900
18.235400 1.875200
18.256800 1.814800
18.278200 1.753600
18.299600 1.691700
18.321000 1.629100
18.342400 1.565600
18.363700 1.961200
18.385100 2.140200
18.406500 2.434000
18.427900 2.849800
18.449300 4.063100
18.470600 3.805400
18.492000 3.767400
18.513400 4.701600
18.534800 5.283600
18.556200 7.966500
18.577500 6.443200
18.598900 6.441400
18.620300 6.194700
18.641700 4.746500
18.663100 2.702700
18.684500 2.406100
18.705800 2.157400
18.727200 1.956400
18.748600 1.799900
18.770000 1.690000
18.791400 1.586700
18.812700 1.489800
18.834100 1.399300
18.855500 1.315200
18.876900 1.237500
18.898300 1.166200
18.919600 1.101400
18.941000 1.043000
18.962400 0.992700
18.983800 0.946000
19.005200 0.901100
19.026600 0.857900
19.047900 0.816600
19.069300 0.777000
19.090700 0.739100
19.112100 0.703100
19.133500 0.668800
19.154800 0.681800
19.176200 0.651700
19.197600 0.611600
19.219000 0.572100
19.240400 0.533200
19.261800 0.494900
19.283100 0.457100
19.304500 0.419900
19.325900 0.383300
19.347300 0.347200
19.368700 0.311700
19.390000 0.276800
19.411400 0.242400
19.432800 0.208600
19.454200 0.175400
19.475600 0.142800
19.496900 0.125800
19.518300 0.113600
19.539700 0.102000
19.561100 0.091000
19.582500 0.080700
19.603900 0.071000
19.625200 0.061900
19.646600 0.053400
19.668000 0.045600
19.689400 0.038300
19.710800 0.031700
19.732100 0.025800
19.753500 0.020400
19.774900 0.015700
19.796300 0.011600
19.817700 0.008100
19.839000 0.005200
19.860400 0.003000
19.881800 0.001400
19.903200 0.000400
19.924600 0.000000
19.946000 0.000000
19.967300 0.000000
19.988700 0.000000
20.010100 0.000000
20.031500 0.000000
20.052900 0.000000
20.074200 0.000000
20.095600 0.000000
20.117000 0.000000
20.138400 0.000000
20.159800 0.000000
20.181100 0.000000
20.202500 0.000000
20.223900 0.000000
20.245300 0.000000
20.266700 0.000000
20.288100 0.000000
20.309400 0.000000
20.330800 0.000000
20.352200 0.000000
20.373600 0.000000
20.395000 0.000000
20.416300 0.000000
20.437700 0.000000
20.459100 0.000000
20.480500 0.000000
20.501900 0.000000
20.523300 0.000000
20.544600 0.000000
20.566000 0.000000
20.587400 0.000000
20.608800 0.000000
20.630200 0.000000
20.651500 0.000000
20.672900 0.000000
20.694300 0.000000
20.715700 0.000000
20.737100 0.000000
20.758400 0.000000
20.779800 0.000000
20.801200 0.000000
20.822600 0.000000
20.844000 0.000000
20.865400 0.000000
20.886700 0.000000
20.908100 0.000000
20.929500 0.000000
20.950900 0.000000
20.972300 0.000000
20.993600 0.000000
21.015000 0.000000
21.036400 0.000000
21.057800 0.000000
21.079200 0.000000
21.100500 0.000000
21.121900 0.000000
21.143300 0.000000
21.164700 0.000000
21.186100 0.000000
21.207500 0.000000
21.228800 0.000000
21.250200 0.000000
21.271600 0.000000
21.293000 0.000000
21.314400 0.000000
21.335700 0.000000
21.357100 0.000000
21.378500 0.000000
21.399900 0.000000
21.421300 0.000000
21.442700 0.000000
21.464000 0.000000
21.485400 0.000000
21.506800 0.000000
21.528200 0.000000
21.549600 0.000000
21.570900 0.000000
21.592300 0.000000
21.613700 0.000000
21.635100 0.000000
21.656500 0.000000
21.677800 0.000000
21.699200 0.000000
21.720600 0.000000
21.742000 0.000000
21.763400 0.000000
21.784800 0.000000
21.806100 0.000000
21.827500 0.000000
21.848900 0.000000
21.870300 0.000000
e
