set title 'mp-999307 - Density of States'
set xlabel 'Energy (eV)'
set ylabel 'DOS (states/eV)'
set grid
set xrange [-10:10]
set yrange [0:6.201]
set xzeroaxis lt -1
set terminal png size 800,600
set output 'mp-999307_dos_gnuplot.png'
plot '-' using 1:2 with lines title 'DOS'
-43.624100 0.000000
-43.578200 0.000000
-43.532400 0.000000
-43.486500 0.000000
-43.440700 0.000000
-43.394800 0.000000
-43.348900 0.000000
-43.303100 0.000000
-43.257200 0.000000
-43.211300 0.000000
-43.165500 0.000000
-43.119600 0.000000
-43.073800 0.000000
-43.027900 0.000000
-42.982000 0.000000
-42.936200 0.000000
-42.890300 0.000000
-42.844500 0.000000
-42.798600 0.000000
-42.752700 0.000000
-42.706900 0.000000
-42.661000 0.000000
-42.615200 0.000000
-42.569300 0.000000
-42.523400 0.000000
-42.477600 0.000000
-42.431700 0.000000
-42.385800 0.000000
-42.340000 0.000000
-42.294100 0.000000
-42.248300 0.000000
-42.202400 0.000000
-42.156500 0.000000
-42.110700 0.000000
-42.064800 0.000000
-42.019000 0.000000
-41.973100 0.000000
-41.927200 0.000000
-41.881400 0.000000
-41.835500 0.000000
-41.789600 0.000000
-41.743800 0.000000
-41.697900 0.000000
-41.652100 0.000000
-41.606200 0.000000
-41.560300 0.000000
-41.514500 0.000000
-41.468600 0.000000
-41.422800 0.000000
-41.376900 0.000000
-41.331000 0.000000
-41.285200 0.000000
-41.239300 0.000000
-41.193400 0.000000
-41.147600 0.000000
-41.101700 0.000000
-41.055900 0.000000
-41.010000 0.000000
-40.964100 0.000000
-40.918300 0.000000
-40.872400 0.000000
-40.826600 0.000000
-40.780700 0.000000
-40.734800 0.000000
-40.689000 0.000000
-40.643100 0.000000
-40.597200 0.000000
-40.551400 0.000000
-40.505500 0.000000
-40.459700 0.000000
-40.413800 0.000000
-40.367900 0.000000
-40.322100 0.000000
-40.276200 0.000000
-40.230400 0.000000
-40.184500 0.000000
-40.138600 0.000000
-40.092800 0.000000
-40.046900 0.000000
-40.001000 0.000000
-39.955200 0.000000
-39.909300 0.000000
-39.863500 0.000000
-39.817600 0.000000
-39.771700 0.000000
-39.725900 0.000000
-39.680000 0.000000
-39.634200 0.000000
-39.588300 0.000000
-39.542400 0.000000
-39.496600 0.000000
-39.450700 7.226100
-39.404800 9.166800
-39.359000 6.969700
-39.313100 5.380400
-39.267300 4.622300
-39.221400 5.067500
-39.175500 4.016800
-39.129700 4.011200
-39.083800 3.966800
-39.038000 3.973900
-38.992100 5.994100
-38.946200 11.153600
-38.900400 32.637900
-38.854500 36.324200
-38.808600 35.623200
-38.762800 8.879300
-38.716900 8.224400
-38.671100 5.911300
-38.625200 5.056600
-38.579300 6.063400
-38.533500 4.508900
-38.487600 4.474600
-38.441800 4.458800
-38.395900 4.785100
-38.350000 5.018800
-38.304200 6.155700
-38.258300 9.290500
-38.212400 7.871600
-38.166600 0.000000
-38.120700 0.000000
-38.074900 0.000000
-38.029000 0.000000
-37.983100 0.000000
-37.937300 0.000000
-37.891400 0.000000
-37.845600 0.000000
-37.799700 0.000000
-37.753800 0.000000
-37.708000 0.000000
-37.662100 0.000000
-37.616200 0.000000
-37.570400 0.000000
-37.524500 0.000000
-37.478700 0.000000
-37.432800 0.000000
-37.386900 0.000000
-37.341100 0.000000
-37.295200 0.000000
-37.249400 0.000000
-37.203500 0.000000
-37.157600 0.000000
-37.111800 0.000000
-37.065900 0.000000
-37.020000 0.000000
-36.974200 0.000000
-36.928300 0.000000
-36.882500 0.000000
-36.836600 0.000000
-36.790700 0.000000
-36.744900 0.000000
-36.699000 0.000000
-36.653200 0.000000
-36.607300 0.000000
-36.561400 0.000000
-36.515600 0.000000
-36.469700 0.000000
-36.423800 0.000000
-36.378000 0.000000
-36.332100 0.000000
-36.286300 0.000000
-36.240400 0.000000
-36.194500 0.000000
-36.148700 0.000000
-36.102800 0.000000
-36.057000 0.000000
-36.011100 0.000000
-35.965200 0.000000
-35.919400 0.000000
-35.873500 0.000000
-35.827700 0.000000
-35.781800 0.000000
-35.735900 0.000000
-35.690100 0.000000
-35.644200 0.000000
-35.598300 0.000000
-35.552500 0.000000
-35.506600 0.000000
-35.460800 0.000000
-35.414900 0.000000
-35.369000 0.000000
-35.323200 0.000000
-35.277300 0.000000
-35.231500 0.000000
-35.185600 0.000000
-35.139700 0.000000
-35.093900 0.000000
-35.048000 0.000000
-35.002100 0.000000
-34.956300 0.000000
-34.910400 0.000000
-34.864600 0.000000
-34.818700 0.000000
-34.772800 0.000000
-34.727000 0.000000
-34.681100 0.000000
-34.635300 0.000000
-34.589400 0.000000
-34.543500 0.000000
-34.497700 0.000000
-34.451800 0.000000
-34.405900 0.000000
-34.360100 0.000000
-34.314200 0.000000
-34.268400 0.000000
-34.222500 0.000000
-34.176600 0.000000
-34.130800 0.000000
-34.084900 0.000000
-34.039100 0.000000
-33.993200 0.000000
-33.947300 0.000000
-33.901500 0.000000
-33.855600 0.000000
-33.809700 0.000000
-33.763900 0.000000
-33.718000 0.000000
-33.672200 0.000000
-33.626300 0.000000
-33.580400 0.000000
-33.534600 0.000000
-33.488700 0.000000
-33.442900 0.000000
-33.397000 0.000000
-33.351100 0.000000
-33.305300 0.000000
-33.259400 0.000000
-33.213500 0.000000
-33.167700 0.000000
-33.121800 0.000000
-33.076000 0.000000
-33.030100 0.000000
-32.984200 0.000000
-32.938400 0.000000
-32.892500 0.000000
-32.846700 0.000000
-32.800800 0.000000
-32.754900 0.000000
-32.709100 0.000000
-32.663200 0.000000
-32.617300 0.000000
-32.571500 0.000000
-32.525600 0.000000
-32.479800 0.000000
-32.433900 0.000000
-32.388000 0.000000
-32.342200 0.000000
-32.296300 0.000000
-32.250500 0.000000
-32.204600 0.000000
-32.158700 0.000000
-32.112900 0.000000
-32.067000 0.000000
-32.021100 0.000000
-31.975300 0.000000
-31.929400 0.000000
-31.883600 0.000000
-31.837700 0.000000
-31.791800 0.000000
-31.746000 0.000000
-31.700100 0.000000
-31.654300 0.000000
-31.608400 0.000000
-31.562500 0.000000
-31.516700 0.000000
-31.470800 0.000000
-31.424900 0.000000
-31.379100 0.000000
-31.333200 0.000000
-31.287400 0.000000
-31.241500 0.000000
-31.195600 0.000000
-31.149800 0.000000
-31.103900 0.000000
-31.058100 0.000000
-31.012200 0.000000
-30.966300 0.000000
-30.920500 0.000000
-30.874600 0.000000
-30.828700 0.000000
-30.782900 0.000000
-30.737000 0.000000
-30.691200 0.000000
-30.645300 0.000000
-30.599400 0.000000
-30.553600 0.000000
-30.507700 0.000000
-30.461900 0.000000
-30.416000 0.000000
-30.370100 0.000000
-30.324300 0.000000
-30.278400 0.000000
-30.232500 0.000000
-30.186700 0.000000
-30.140800 0.000000
-30.095000 0.000000
-30.049100 0.000000
-30.003200 0.000000
-29.957400 0.000000
-29.911500 0.000000
-29.865700 0.000000
-29.819800 0.000000
-29.773900 0.000000
-29.728100 0.000000
-29.682200 0.000000
-29.636400 0.000000
-29.590500 0.000000
-29.544600 0.000000
-29.498800 0.000000
-29.452900 0.000000
-29.407000 0.000000
-29.361200 0.000000
-29.315300 0.000000
-29.269500 0.000000
-29.223600 0.000000
-29.177700 0.000000
-29.131900 0.000000
-29.086000 0.000000
-29.040200 0.000000
-28.994300 0.000000
-28.948400 0.000000
-28.902600 0.000000
-28.856700 0.000000
-28.810800 0.000000
-28.765000 0.000000
-28.719100 0.000000
-28.673300 0.000000
-28.627400 0.000000
-28.581500 0.000000
-28.535700 0.000000
-28.489800 0.000000
-28.444000 0.000000
-28.398100 0.000000
-28.352200 0.000000
-28.306400 0.000000
-28.260500 0.000000
-28.214600 0.000000
-28.168800 0.000000
-28.122900 0.000000
-28.077100 0.000000
-28.031200 0.000000
-27.985300 0.000000
-27.939500 0.000000
-27.893600 0.000000
-27.847800 0.000000
-27.801900 0.000000
-27.756000 0.000000
-27.710200 0.000000
-27.664300 0.000000
-27.618400 0.000000
-27.572600 0.000000
-27.526700 0.000000
-27.480900 0.000000
-27.435000 0.000000
-27.389100 0.000000
-27.343300 0.000000
-27.297400 0.000000
-27.251600 0.000000
-27.205700 0.000000
-27.159800 0.000000
-27.114000 0.000000
-27.068100 0.000000
-27.022200 0.000000
-26.976400 0.000000
-26.930500 0.000000
-26.884700 0.000000
-26.838800 0.000000
-26.792900 0.000000
-26.747100 0.000000
-26.701200 0.000000
-26.655400 0.000000
-26.609500 0.000000
-26.563600 0.000000
-26.517800 0.000000
-26.471900 0.000000
-26.426000 0.000000
-26.380200 0.000000
-26.334300 0.000000
-26.288500 0.000000
-26.242600 0.000000
-26.196700 0.000000
-26.150900 0.000000
-26.105000 0.000000
-26.059200 0.000000
-26.013300 0.000000
-25.967400 0.000000
-25.921600 0.000000
-25.875700 0.000000
-25.829800 0.000000
-25.784000 0.000000
-25.738100 0.000000
-25.692300 0.000000
-25.646400 0.000000
-25.600500 0.000000
-25.554700 0.000000
-25.508800 0.000000
-25.463000 0.000000
-25.417100 0.000000
-25.371200 0.000000
-25.325400 0.000000
-25.279500 0.000000
-25.233600 0.000000
-25.187800 0.000000
-25.141900 0.000000
-25.096100 0.000000
-25.050200 0.000000
-25.004300 0.000000
-24.958500 0.000000
-24.912600 0.000000
-24.866800 0.000000
-24.820900 0.000000
-24.775000 0.000000
-24.729200 0.000000
-24.683300 0.000000
-24.637400 0.000000
-24.591600 0.000000
-24.545700 0.000000
-24.499900 0.000000
-24.454000 0.000000
-24.408100 0.000000
-24.362300 0.000000
-24.316400 0.000000
-24.270600 0.000000
-24.224700 0.000000
-24.178800 0.000000
-24.133000 0.000000
-24.087100 0.000000
-24.041200 0.000000
-23.995400 0.000000
-23.949500 0.000000
-23.903700 0.000000
-23.857800 0.000000
-23.811900 0.000000
-23.766100 0.000000
-23.720200 0.000000
-23.674400 0.000000
-23.628500 0.000000
-23.582600 0.000000
-23.536800 0.000000
-23.490900 0.000000
-23.445000 0.000000
-23.399200 0.000000
-23.353300 0.000000
-23.307500 0.000000
-23.261600 0.000000
-23.215700 0.000000
-23.169900 0.000000
-23.124000 0.000000
-23.078200 0.000000
-23.032300 0.000000
-22.986400 0.000000
-22.940600 0.000000
-22.894700 0.000000
-22.848900 0.000000
-22.803000 0.000000
-22.757100 0.000000
-22.711300 0.000000
-22.665400 0.000000
-22.619500 0.000000
-22.573700 0.000000
-22.527800 0.000000
-22.482000 0.000000
-22.436100 0.000000
-22.390200 0.000000
-22.344400 0.000000
-22.298500 0.000000
-22.252700 0.000000
-22.206800 0.000000
-22.160900 0.000000
-22.115100 0.000000
-22.069200 0.000000
-22.023300 0.000000
-21.977500 0.000000
-21.931600 0.000000
-21.885800 0.000000
-21.839900 0.000000
-21.794000 0.000000
-21.748200 0.000000
-21.702300 0.000000
-21.656500 0.000000
-21.610600 0.000000
-21.564700 0.000000
-21.518900 0.000000
-21.473000 0.000000
-21.427100 0.000000
-21.381300 0.000000
-21.335400 0.000000
-21.289600 0.000000
-21.243700 0.000000
-21.197800 0.000000
-21.152000 0.000000
-21.106100 0.000000
-21.060300 0.000000
-21.014400 0.000000
-20.968500 0.000000
-20.922700 0.000000
-20.876800 0.000000
-20.830900 0.000000
-20.785100 0.000000
-20.739200 0.000000
-20.693400 0.000000
-20.647500 0.000000
-20.601600 0.000000
-20.555800 0.000000
-20.509900 0.000000
-20.464100 0.000000
-20.418200 0.000000
-20.372300 0.000000
-20.326500 0.000000
-20.280600 0.000000
-20.234700 0.000000
-20.188900 0.000000
-20.143000 0.000000
-20.097200 0.000000
-20.051300 0.000000
-20.005400 0.000000
-19.959600 0.000000
-19.913700 0.000000
-19.867900 0.000000
-19.822000 0.000000
-19.776100 0.000000
-19.730300 0.000000
-19.684400 0.000000
-19.638500 0.000000
-19.592700 0.000000
-19.546800 0.000000
-19.501000 0.000000
-19.455100 0.000000
-19.409200 0.000000
-19.363400 0.000000
-19.317500 0.000000
-19.271700 0.000000
-19.225800 0.000000
-19.179900 0.000000
-19.134100 0.000000
-19.088200 0.000000
-19.042300 0.000000
-18.996500 0.000000
-18.950600 0.000000
-18.904800 0.000000
-18.858900 0.000000
-18.813000 0.000000
-18.767200 0.000000
-18.721300 0.000000
-18.675500 0.000000
-18.629600 0.000000
-18.583700 0.000000
-18.537900 0.000000
-18.492000 0.000000
-18.446100 0.000000
-18.400300 0.000000
-18.354400 0.000000
-18.308600 0.000000
-18.262700 0.000000
-18.216800 0.000000
-18.171000 0.000000
-18.125100 0.000000
-18.079300 0.000000
-18.033400 0.000000
-17.987500 0.000000
-17.941700 0.000000
-17.895800 0.000000
-17.849900 0.000000
-17.804100 0.000000
-17.758200 0.000000
-17.712400 0.000000
-17.666500 0.000000
-17.620600 0.000000
-17.574800 0.000000
-17.528900 0.000000
-17.483100 0.000000
-17.437200 0.000000
-17.391300 0.000000
-17.345500 0.000000
-17.299600 0.000000
-17.253700 0.000000
-17.207900 0.000000
-17.162000 0.000000
-17.116200 0.000000
-17.070300 0.000000
-17.024400 0.000000
-16.978600 0.000000
-16.932700 0.000000
-16.886900 0.000000
-16.841000 0.000000
-16.795100 0.000000
-16.749300 0.000000
-16.703400 0.000000
-16.657500 0.000000
-16.611700 0.000000
-16.565800 0.000000
-16.520000 0.000000
-16.474100 0.000000
-16.428200 0.000000
-16.382400 0.000000
-16.336500 0.000000
-16.290700 0.000000
-16.244800 0.000000
-16.198900 0.000000
-16.153100 0.000000
-16.107200 0.000000
-16.061400 0.000000
-16.015500 0.000000
-15.969600 0.000000
-15.923800 0.000000
-15.877900 0.000000
-15.832000 0.000000
-15.786200 0.000000
-15.740300 0.000000
-15.694500 0.000000
-15.648600 0.000000
-15.602700 0.000000
-15.556900 0.000000
-15.511000 0.000000
-15.465200 0.000000
-15.419300 0.000000
-15.373400 0.000000
-15.327600 0.000000
-15.281700 0.000000
-15.235800 0.000000
-15.190000 0.000000
-15.144100 0.000000
-15.098300 0.000000
-15.052400 0.000000
-15.006500 0.000000
-14.960700 0.000000
-14.914800 0.000000
-14.869000 0.000000
-14.823100 0.000000
-14.777200 0.000000
-14.731400 0.000000
-14.685500 0.000000
-14.639600 0.000000
-14.593800 0.000000
-14.547900 0.000000
-14.502100 0.000000
-14.456200 0.000000
-14.410300 0.000000
-14.364500 0.000000
-14.318600 0.000000
-14.272800 0.000000
-14.226900 0.000000
-14.181000 0.000000
-14.135200 0.000000
-14.089300 0.000000
-14.043400 0.000000
-13.997600 0.000000
-13.951700 0.000000
-13.905900 0.000000
-13.860000 0.000000
-13.814100 0.000000
-13.768300 0.000000
-13.722400 0.000000
-13.676600 0.000000
-13.630700 0.000000
-13.584800 0.000000
-13.539000 0.000000
-13.493100 0.000000
-13.447200 0.000000
-13.401400 0.000000
-13.355500 0.000000
-13.309700 0.000000
-13.263800 0.000000
-13.217900 0.000000
-13.172100 0.000000
-13.126200 0.000000
-13.080400 0.000000
-13.034500 0.000000
-12.988600 0.000000
-12.942800 0.000000
-12.896900 0.000000
-12.851000 0.000000
-12.805200 0.000000
-12.759300 0.000000
-12.713500 0.000000
-12.667600 0.000000
-12.621700 0.000000
-12.575900 0.000000
-12.530000 0.000000
-12.484200 0.000000
-12.438300 0.000000
-12.392400 0.000000
-12.346600 0.000000
-12.300700 0.000000
-12.254800 0.000000
-12.209000 0.000000
-12.163100 0.000000
-12.117300 0.000000
-12.071400 0.000000
-12.025500 0.000000
-11.979700 0.000000
-11.933800 0.000000
-11.888000 0.000000
-11.842100 0.000000
-11.796200 0.000000
-11.750400 0.000000
-11.704500 0.000000
-11.658600 0.000000
-11.612800 0.000000
-11.566900 0.000000
-11.521100 0.000000
-11.475200 0.000000
-11.429300 0.000000
-11.383500 0.000000
-11.337600 0.000000
-11.291800 0.000000
-11.245900 0.000000
-11.200000 0.000000
-11.154200 0.000000
-11.108300 0.000000
-11.062400 0.000000
-11.016600 0.000000
-10.970700 0.000000
-10.924900 0.000000
-10.879000 0.000000
-10.833100 0.000000
-10.787300 0.000000
-10.741400 0.000000
-10.695600 0.000000
-10.649700 0.000000
-10.603800 0.000000
-10.558000 0.000000
-10.512100 0.000000
-10.466200 0.000000
-10.420400 0.000000
-10.374500 0.000000
-10.328700 0.000000
-10.282800 0.000000
-10.236900 0.000000
-10.191100 0.000000
-10.145200 0.000000
-10.099400 0.066100
-10.053500 0.118800
-10.007600 0.155800
-9.961800 0.178800
-9.915900 0.200700
-9.870100 0.229800
-9.824200 0.254100
-9.778300 0.278200
-9.732500 0.297200
-9.686600 0.320300
-9.640700 0.346000
-9.594900 0.370800
-9.549000 0.392900
-9.503200 0.420000
-9.457300 0.451200
-9.411400 0.528900
-9.365600 0.576500
-9.319700 0.592100
-9.273900 0.628300
-9.228000 0.668100
-9.182100 0.702100
-9.136300 0.779600
-9.090400 0.842200
-9.044500 0.955300
-8.998700 1.408300
-8.952800 1.634700
-8.907000 1.616800
-8.861100 1.508100
-8.815200 1.498900
-8.769400 1.489300
-8.723500 1.457100
-8.677700 1.433900
-8.631800 1.435200
-8.585900 1.445500
-8.540100 1.439800
-8.494200 1.462600
-8.448300 1.503000
-8.402500 1.548700
-8.356600 1.535600
-8.310800 1.568700
-8.264900 1.730900
-8.219000 1.869000
-8.173200 2.038700
-8.127300 4.363300
-8.081500 3.774200
-8.035600 5.020900
-7.989700 4.736100
-7.943900 3.180900
-7.898000 1.833300
-7.852100 1.609100
-7.806300 1.489400
-7.760400 1.431400
-7.714600 1.324300
-7.668700 1.257600
-7.622800 1.340200
-7.577000 1.175000
-7.531100 1.162000
-7.485300 1.154600
-7.439400 1.173500
-7.393500 1.303200
-7.347700 1.414400
-7.301800 1.777400
-7.255900 1.433500
-7.210100 0.921800
-7.164200 0.729900
-7.118400 0.364900
-7.072500 0.333200
-7.026600 0.301700
-6.980800 0.272300
-6.934900 0.244400
-6.889100 0.225000
-6.843200 0.204900
-6.797300 0.186000
-6.751500 0.163700
-6.705600 0.145300
-6.659700 0.131800
-6.613900 0.117200
-6.568000 0.101400
-6.522200 0.085300
-6.476300 0.061300
-6.430400 0.040700
-6.384600 0.000000
-6.338700 0.000000
-6.292900 0.000000
-6.247000 0.000000
-6.201100 0.000000
-6.155300 0.000000
-6.109400 0.000000
-6.063500 0.000000
-6.017700 0.000000
-5.971800 0.000000
-5.926000 0.000000
-5.880100 0.000000
-5.834200 0.000000
-5.788400 0.000000
-5.742500 0.000000
-5.696700 0.000000
-5.650800 0.000000
-5.604900 0.000000
-5.559100 0.000000
-5.513200 0.000000
-5.467300 0.000000
-5.421500 0.000000
-5.375600 0.000000
-5.329800 0.000000
-5.283900 0.000000
-5.238000 0.000000
-5.192200 0.000000
-5.146300 0.000000
-5.100500 0.000000
-5.054600 0.000000
-5.008700 0.000000
-4.962900 0.000000
-4.917000 0.000000
-4.871100 0.000000
-4.825300 0.000000
-4.779400 0.000000
-4.733600 0.000000
-4.687700 0.000000
-4.641800 0.000000
-4.596000 0.000000
-4.550100 0.000000
-4.504300 0.000000
-4.458400 0.000000
-4.412500 0.000000
-4.366700 0.000000
-4.320800 0.000000
-4.274900 0.000000
-4.229100 0.000000
-4.183200 0.000000
-4.137400 0.000000
-4.091500 0.000000
-4.045600 0.000000
-3.999800 0.000000
-3.953900 0.000000
-3.908100 0.000000
-3.862200 0.000000
-3.816300 0.000000
-3.770500 0.000000
-3.724600 0.000000
-3.678700 0.000000
-3.632900 0.000000
-3.587000 0.000000
-3.541200 0.000000
-3.495300 0.000000
-3.449400 0.000000
-3.403600 0.000000
-3.357700 0.000000
-3.311900 0.000000
-3.266000 0.000000
-3.220100 0.000000
-3.174300 0.000000
-3.128400 0.000000
-3.082600 0.000000
-3.036700 0.000000
-2.990800 0.000000
-2.945000 0.000000
-2.899100 0.000000
-2.853200 0.000000
-2.807400 0.000000
-2.761500 0.000000
-2.715700 0.000000
-2.669800 0.000000
-2.623900 0.028900
-2.578100 0.042600
-2.532200 0.058100
-2.486400 0.064800
-2.440500 0.074800
-2.394600 0.085000
-2.348800 0.095700
-2.302900 0.107900
-2.257000 0.116600
-2.211200 0.122900
-2.165300 0.131400
-2.119500 0.139700
-2.073600 0.148200
-2.027700 0.156700
-1.981900 0.165400
-1.936000 0.174400
-1.890200 0.187000
-1.844300 0.199900
-1.798400 0.212600
-1.752600 0.225400
-1.706700 0.237900
-1.660800 0.250400
-1.615000 0.267600
-1.569100 0.287200
-1.523300 0.309400
-1.477400 0.333600
-1.431500 0.660200
-1.385700 0.852200
-1.339800 1.154000
-1.294000 1.183800
-1.248100 1.166100
-1.202200 1.143900
-1.156400 1.101700
-1.110500 1.093000
-1.064600 1.094300
-1.018800 1.172600
-0.972900 1.216900
-0.927100 1.444100
-0.881200 1.247200
-0.835300 1.234200
-0.789500 1.216000
-0.743600 1.259600
-0.697800 1.280400
-0.651900 1.546200
-0.606000 1.712700
-0.560200 2.130200
-0.514300 2.300800
-0.468400 2.456900
-0.422600 2.960500
-0.376700 2.894800
-0.330900 3.357900
-0.285000 3.035700
-0.239100 2.674100
-0.193300 2.546300
-0.147400 2.186800
-0.101600 2.064200
-0.055700 1.763400
-0.009800 1.792100
0.036000 1.849600
0.081900 2.061300
0.127800 2.002900
0.173600 2.216300
0.219500 2.414400
0.265300 2.335900
0.311200 2.046000
0.357100 1.603200
0.402900 1.918300
0.448800 1.715200
0.494600 1.913100
0.540500 2.095200
0.586400 2.256900
0.632200 2.513300
0.678100 2.675600
0.724000 2.763900
0.769800 2.668100
0.815700 2.689900
0.861500 2.871100
0.907400 2.696600
0.953300 2.057100
0.999100 1.851500
1.045000 1.828500
1.090800 1.969400
1.136700 2.088700
1.182600 2.076100
1.228400 2.142500
1.274300 2.206300
1.320200 2.342300
1.366000 2.427000
1.411900 2.392300
1.457700 2.297100
1.503600 2.283200
1.549500 2.353700
1.595300 2.248700
1.641200 2.085500
1.687000 2.125800
1.732900 2.288000
1.778800 2.537800
1.824600 3.120700
1.870500 3.409800
1.916400 4.006900
1.962200 5.064400
2.008100 4.311700
2.053900 5.637700
2.099800 5.182100
2.145700 3.583800
2.191500 2.039900
2.237400 1.638900
2.283200 1.917400
2.329100 2.030300
2.375000 2.123400
2.420800 2.859600
2.466700 3.075000
2.512600 3.066400
2.558400 3.087300
2.604300 2.667300
2.650100 2.984800
2.696000 2.501300
2.741900 2.330400
2.787700 2.554100
2.833600 2.629700
2.879400 2.313200
2.925300 2.327100
2.971200 2.490100
3.017000 2.560800
3.062900 2.531400
3.108800 2.374100
3.154600 2.209300
3.200500 2.154300
3.246300 2.103900
3.292200 2.004900
3.338100 1.917900
3.383900 1.949400
3.429800 2.010600
3.475600 2.082600
3.521500 2.123100
3.567400 2.286500
3.613200 2.481100
3.659100 2.562900
3.704900 2.688900
3.750800 2.132300
3.796700 2.304600
3.842500 2.861300
3.888400 2.823700
3.934300 2.955200
3.980100 2.861300
4.026000 2.629900
4.071800 2.151600
4.117700 2.242800
4.163600 2.130700
4.209400 2.029400
4.255300 2.013900
4.301100 1.640500
4.347000 1.701500
4.392900 1.776900
4.438700 2.325600
4.484600 2.486400
4.530500 2.282000
4.576300 1.814400
4.622200 1.762800
4.668000 2.247700
4.713900 2.739500
4.759800 2.994500
4.805600 3.382600
4.851500 3.104100
4.897300 2.819400
4.943200 2.557000
4.989100 2.594200
5.034900 2.629100
5.080800 2.678700
5.126700 2.720300
5.172500 2.770500
5.218400 3.068300
5.264200 3.238600
5.310100 3.541000
5.356000 3.638800
5.401800 3.798400
5.447700 3.820200
5.493500 3.873900
5.539400 3.545100
5.585300 3.366200
5.631100 3.696600
5.677000 3.555100
5.722900 3.394200
5.768700 3.463000
5.814600 3.234400
5.860400 3.385200
5.906300 3.524400
5.952200 3.723800
5.998000 3.810500
6.043900 3.635700
6.089700 3.488200
6.135600 2.925500
6.181500 2.504600
6.227300 2.393600
6.273200 2.304800
6.319100 2.270700
6.364900 2.262500
6.410800 2.235400
6.456600 2.351900
6.502500 2.377500
6.548400 2.536700
6.594200 2.787300
6.640100 2.822100
6.685900 3.135300
6.731800 2.703200
6.777700 2.416600
6.823500 2.393800
6.869400 2.531200
6.915300 2.822600
6.961100 2.846300
7.007000 2.749000
7.052800 2.671000
7.098700 2.701300
7.144600 2.816600
7.190400 3.307800
7.236300 3.184900
7.282100 3.215500
7.328000 3.045000
7.373900 3.592500
7.419700 2.785000
7.465600 2.714400
7.511500 2.794500
7.557300 2.693000
7.603200 2.274300
7.649000 2.269600
7.694900 2.267300
7.740800 2.252100
7.786600 2.253700
7.832500 2.250000
7.878300 2.294200
7.924200 2.416700
7.970100 2.303900
8.015900 2.034000
8.061800 2.048300
8.107700 1.992100
8.153500 1.912100
8.199400 1.832500
8.245200 1.789300
8.291100 1.790500
8.337000 1.885000
8.382800 2.137900
8.428700 2.398300
8.474500 2.685800
8.520400 3.007900
8.566300 2.952700
8.612100 2.878200
8.658000 2.750800
8.703900 2.452800
8.749700 2.296500
8.795600 2.145000
8.841400 1.877400
8.887300 1.779300
8.933200 1.682100
8.979000 1.587400
9.024900 1.492100
9.070700 1.413400
9.116600 1.354400
9.162500 1.311500
9.208300 1.270200
9.254200 1.253100
9.300100 1.217600
9.345900 1.196700
9.391800 1.111100
9.437600 1.112800
9.483500 1.124600
9.529400 1.130500
9.575200 1.181600
9.621100 1.190200
9.666900 1.166700
9.712800 1.132700
9.758700 1.079500
9.804500 1.038400
9.850400 1.017500
9.896200 0.996100
9.942100 1.001500
9.988000 1.035800
10.033800 1.105900
10.079700 1.249800
10.125600 1.025600
10.171400 0.599100
10.217300 0.579600
10.263100 0.540700
10.309000 0.510500
10.354900 0.486000
10.400700 0.451300
10.446600 0.720900
10.492400 0.602100
10.538300 0.571800
10.584200 0.497600
10.630000 0.486200
10.675900 0.476100
10.721800 0.466000
10.767600 0.474300
10.813500 0.481200
10.859300 1.180200
10.905200 0.816700
10.951100 0.881700
10.996900 0.739300
11.042800 0.939500
11.088600 1.108000
11.134500 1.153700
11.180400 1.167700
11.226200 1.352200
11.272100 1.153600
11.318000 1.296200
11.363800 1.471300
11.409700 1.827200
11.455500 1.921900
11.501400 2.192200
11.547300 2.557900
11.593100 2.573400
11.639000 2.557100
11.684800 2.382900
11.730700 2.341800
11.776600 2.385400
11.822400 2.383700
11.868300 2.273900
11.914200 2.200500
11.960000 2.028100
12.005900 2.022000
12.051700 2.015000
12.097600 2.016000
12.143500 1.943600
12.189300 2.103200
12.235200 2.381100
12.281000 2.889600
12.326900 3.210900
12.372800 2.733000
12.418600 2.283500
12.464500 2.059000
12.510400 2.133100
12.556200 1.868700
12.602100 1.831100
12.647900 1.375000
12.693800 1.212500
12.739700 0.999100
12.785500 0.973100
12.831400 0.967200
12.877200 0.952400
12.923100 0.965800
12.969000 1.004900
13.014800 1.071000
13.060700 1.182900
13.106600 1.050800
13.152400 0.713000
13.198300 0.661900
13.244100 0.617100
13.290000 0.583800
13.335900 0.560500
13.381700 0.678500
13.427600 0.702400
13.473400 0.752300
13.519300 0.757900
13.565200 0.778000
13.611000 0.796300
13.656900 0.848200
13.702800 0.914200
13.748600 0.991700
13.794500 1.100400
13.840300 1.278500
13.886200 1.256700
13.932100 1.184800
13.977900 1.189600
14.023800 1.135000
14.069600 1.214400
14.115500 1.259800
14.161400 1.271000
14.207200 1.283100
14.253100 1.335600
14.299000 1.390300
14.344800 1.398200
14.390700 1.434000
14.436500 1.462100
14.482400 1.491400
14.528300 1.538500
14.574100 1.542600
14.620000 1.580200
14.665800 1.606600
14.711700 1.657700
14.757600 1.683400
14.803400 1.707300
14.849300 1.743100
14.895200 1.787500
14.941000 1.836100
14.986900 1.818300
15.032700 1.817600
15.078600 1.858600
15.124500 1.893300
15.170300 1.843800
15.216200 1.833700
15.262000 1.868200
15.307900 1.919800
15.353800 1.989200
15.399600 2.405600
15.445500 2.235100
15.491400 2.467400
15.537200 2.796900
15.583100 2.812400
15.628900 2.662400
15.674800 2.827200
15.720700 2.197800
15.766500 1.785500
15.812400 1.473700
15.858200 1.520900
15.904100 1.001700
15.950000 0.711100
15.995800 0.403400
16.041700 0.316200
16.087600 0.250200
16.133400 0.194600
16.179300 0.144500
16.225100 0.111600
16.271000 0.000000
16.316900 0.018000
16.362700 0.030100
16.408600 0.081900
16.454400 0.117800
16.500300 0.157700
16.546200 0.212900
16.592000 0.307600
16.637900 0.411800
16.683700 0.544400
16.729600 0.661900
16.775500 0.673500
16.821300 0.726500
16.867200 0.784000
16.913100 0.910000
16.958900 0.903600
17.004800 0.841800
17.050600 0.729500
17.096500 0.743700
17.142400 0.733300
17.188200 0.724900
17.234100 0.678700
17.279900 0.675000
17.325800 0.667800
17.371700 0.660600
17.417500 0.641300
17.463400 0.635900
17.509300 0.688400
17.555100 0.792000
17.601000 0.834600
17.646800 0.782600
17.692700 0.777000
17.738600 0.750800
17.784400 0.730200
17.830300 0.737700
17.876100 0.727400
17.922000 0.729800
17.967900 0.726500
18.013700 0.719000
18.059600 0.789800
18.105500 0.686300
18.151300 0.683700
18.197200 0.694400
18.243000 0.714500
18.288900 0.733600
18.334800 0.805900
18.380600 0.849100
18.426500 0.927100
18.472300 0.948500
18.518200 0.987100
18.564100 1.006200
18.609900 1.018900
18.655800 1.065900
18.701700 1.034000
18.747500 0.994800
18.793400 0.971800
18.839200 0.961000
18.885100 0.953200
18.931000 0.948100
18.976800 0.950100
19.022700 0.952700
19.068500 0.948300
19.114400 0.994600
19.160300 1.010800
19.206100 1.028700
19.252000 1.037800
19.297900 1.035000
19.343700 1.041900
19.389600 1.052000
19.435400 1.123900
19.481300 1.180000
19.527200 1.156000
19.573000 1.176700
19.618900 1.220000
19.664700 1.270100
19.710600 1.311100
19.756500 1.364900
19.802300 1.396400
19.848200 1.422000
19.894100 1.387300
19.939900 1.422400
19.985800 1.438800
20.031600 1.443800
20.077500 1.462300
20.123400 1.432800
20.169200 1.428100
20.215100 1.418600
20.260900 1.401600
20.306800 1.470800
20.352700 1.493900
20.398500 1.586300
20.444400 1.667000
20.490300 1.651900
20.536100 1.538000
20.582000 1.570600
20.627800 1.588800
20.673700 1.573600
20.719600 1.554700
20.765400 1.551500
20.811300 1.514200
20.857100 1.440600
20.903000 1.357000
20.948900 1.322200
20.994700 1.322100
21.040600 1.326600
21.086500 1.334800
21.132300 1.540400
21.178200 1.398500
21.224000 1.391600
21.269900 1.406500
21.315800 1.421600
21.361600 1.444000
21.407500 1.466300
21.453300 1.483800
21.499200 1.593100
21.545100 1.624500
21.590900 1.620700
21.636800 1.626100
21.682700 1.596200
21.728500 1.599700
21.774400 1.646500
21.820200 1.699200
21.866100 1.889400
21.912000 2.121200
21.957800 1.740400
22.003700 1.603800
22.049500 1.670000
22.095400 1.761200
22.141300 1.910900
22.187100 1.952000
22.233000 2.030900
22.278900 2.105900
22.324700 2.435000
22.370600 2.185300
22.416400 2.099900
22.462300 2.111400
22.508200 1.896300
22.554000 1.964400
22.599900 1.984500
22.645700 1.635600
22.691600 1.481400
22.737500 1.319200
22.783300 1.149800
22.829200 1.018700
22.875100 0.932600
22.920900 0.755500
22.966800 0.774700
23.012600 0.704200
23.058500 0.655900
23.104400 0.615800
23.150200 0.609600
23.196100 0.627400
23.241900 0.718000
23.287800 0.796300
23.333700 0.901300
23.379500 0.954200
23.425400 1.138000
23.471200 1.330000
23.517100 1.473400
23.563000 1.380100
23.608800 1.389800
23.654700 1.602000
23.700600 1.667400
23.746400 1.719000
23.792300 1.794300
23.838100 1.971300
23.884000 1.663600
23.929900 1.784700
23.975700 1.997000
24.021600 2.133500
24.067400 1.962300
24.113300 2.087600
24.159200 2.171700
24.205000 2.317900
24.250900 2.290600
24.296800 2.170600
24.342600 2.065500
24.388500 2.146600
24.434300 2.160000
24.480200 2.054200
24.526100 2.228200
24.571900 2.163300
24.617800 2.382600
24.663600 2.568500
24.709500 1.928300
24.755400 2.053400
24.801200 2.169600
24.847100 2.350600
24.893000 2.438700
24.938800 2.558000
24.984700 2.560500
25.030500 2.709000
25.076400 2.647000
25.122300 2.503700
25.168100 2.523900
25.214000 2.795400
25.259800 2.295100
25.305700 2.270900
25.351600 2.229900
25.397400 2.355000
25.443300 2.452400
25.489200 2.547900
25.535000 2.713600
25.580900 2.699900
25.626700 2.525700
25.672600 2.333500
25.718500 2.328700
25.764300 2.296400
25.810200 2.486500
25.856000 2.337100
25.901900 2.668200
25.947800 2.706900
25.993600 2.047300
26.039500 1.918900
26.085400 1.776300
26.131200 1.607300
26.177100 1.487800
26.222900 1.416100
26.268800 1.341200
26.314700 1.373100
26.360500 1.415300
26.406400 1.462300
26.452200 1.671100
26.498100 1.651700
26.544000 1.618700
26.589800 1.582800
26.635700 1.541600
26.681600 1.563200
26.727400 1.571200
26.773300 1.612000
26.819100 1.562400
26.865000 1.550000
26.910900 1.545400
26.956700 1.551600
27.002600 1.549500
27.048400 1.562200
27.094300 1.601000
27.140200 1.600900
27.186000 1.569300
27.231900 1.567900
27.277800 1.603300
27.323600 1.521200
27.369500 1.467100
27.415300 1.453300
27.461200 1.425100
27.507100 1.401700
27.552900 1.390000
27.598800 1.424400
27.644600 1.348800
27.690500 1.355900
27.736400 1.347700
27.782200 1.377000
27.828100 1.360700
27.874000 1.386900
27.919800 1.295500
27.965700 1.167700
28.011500 1.080800
28.057400 1.011400
28.103300 0.957800
28.149100 0.921600
28.195000 0.883300
28.240800 0.846300
28.286700 0.825000
28.332600 0.829500
28.378400 0.817600
28.424300 0.892800
28.470200 0.958300
28.516000 1.066500
28.561900 1.200000
28.607700 1.352800
28.653600 1.560500
28.699500 1.610500
28.745300 1.655200
28.791200 1.670600
28.837000 1.643400
28.882900 1.622400
28.928800 1.639400
28.974600 1.777500
29.020500 2.181800
29.066400 2.419200
29.112200 2.593800
29.158100 2.980100
29.203900 3.257800
29.249800 2.295900
29.295700 2.242600
29.341500 2.273300
29.387400 2.463200
29.433200 2.247100
29.479100 2.087700
29.525000 1.972700
29.570800 1.933400
29.616700 1.900400
29.662500 1.825100
29.708400 1.789000
29.754300 1.721400
29.800100 1.654600
29.846000 1.630100
29.891900 1.651600
29.937700 1.682200
29.983600 1.559100
30.029400 1.573000
30.075300 1.591000
30.121200 1.631700
30.167000 1.622200
30.212900 1.587900
30.258700 1.564100
30.304600 1.456000
30.350500 1.445000
30.396300 1.261000
30.442200 1.311600
30.488100 1.031600
30.533900 0.980200
30.579800 0.986100
30.625600 0.958200
30.671500 0.973600
30.717400 1.216300
30.763200 1.175300
30.809100 1.222900
30.854900 1.398500
30.900800 1.413500
30.946700 1.489800
30.992500 1.543500
31.038400 1.651900
31.084300 1.859500
31.130100 1.981600
31.176000 1.942900
31.221800 1.877000
31.267700 1.728600
31.313600 1.545900
31.359400 1.369700
31.405300 1.264200
31.451100 1.153200
31.497000 1.081800
31.542900 1.032600
31.588700 1.014800
31.634600 0.924700
31.680500 0.916800
31.726300 0.908800
31.772200 0.918600
31.818000 1.036300
31.863900 1.137700
31.909800 1.121500
31.955600 1.107500
32.001500 1.146400
32.047300 1.140300
32.093200 1.114800
32.139100 1.094500
32.184900 1.063200
32.230800 1.085600
32.276700 1.362100
32.322500 1.226100
32.368400 1.336400
32.414200 1.409600
32.460100 1.399400
32.506000 1.476000
32.551800 1.509100
32.597700 1.436800
32.643500 1.326400
32.689400 1.148400
32.735300 1.065800
32.781100 1.024000
32.827000 0.949600
32.872900 0.864700
32.918700 0.747000
32.964600 0.778900
33.010400 0.658000
33.056300 0.700800
33.102200 1.033600
33.148000 1.112900
33.193900 1.381100
33.239700 1.703100
33.285600 1.790100
33.331500 1.711100
33.377300 1.684100
33.423200 1.705600
33.469100 1.466200
33.514900 1.335000
33.560800 1.171700
33.606600 1.086300
33.652500 1.080500
33.698400 1.100000
33.744200 1.214300
33.790100 1.140300
33.835900 1.138800
33.881800 1.178300
33.927700 1.200600
33.973500 1.208200
34.019400 1.220000
34.065300 1.255100
34.111100 1.285400
34.157000 1.348800
34.202800 1.414400
34.248700 1.462000
34.294600 1.549200
34.340400 1.614000
34.386300 1.658300
34.432100 1.678800
34.478000 1.742800
34.523900 1.756800
34.569700 1.801200
34.615600 1.856600
34.661500 1.882800
34.707300 1.841900
34.753200 1.780400
34.799000 1.790700
34.844900 1.690600
34.890800 1.672600
34.936600 1.609300
34.982500 1.624100
35.028300 1.730400
35.074200 1.733200
35.120100 1.753300
35.165900 1.757100
35.211800 1.680700
35.257700 1.707900
35.303500 1.772100
35.349400 1.943900
35.395200 2.245000
35.441100 2.297600
35.487000 2.302900
35.532800 2.234900
35.578700 2.230500
35.624500 2.116700
35.670400 2.104200
35.716300 2.054900
35.762100 1.957300
35.808000 1.939900
35.853900 1.928800
35.899700 1.914600
35.945600 1.850800
35.991400 1.755800
36.037300 1.827500
36.083200 1.929300
36.129000 2.321900
36.174900 2.205100
36.220700 2.173000
36.266600 2.132200
36.312500 2.107800
36.358300 2.026900
36.404200 1.926600
36.450000 1.913700
36.495900 2.079300
36.541800 1.953600
36.587600 2.217600
36.633500 2.379000
36.679400 2.192200
36.725200 2.342600
36.771100 2.624500
36.816900 2.280700
36.862800 2.166500
36.908700 2.135800
36.954500 2.090700
37.000400 1.947500
37.046200 1.883100
37.092100 1.850200
37.138000 1.811500
37.183800 1.793100
37.229700 1.715800
37.275600 1.683900
37.321400 1.716900
37.367300 1.792400
37.413100 1.891400
37.459000 1.971600
37.504900 2.293100
37.550700 2.193900
37.596600 2.087600
37.642400 2.035400
37.688300 2.041900
37.734200 2.141500
37.780000 2.333000
37.825900 2.457400
37.871800 2.306200
37.917600 2.217400
37.963500 2.395000
38.009300 2.268900
38.055200 2.226300
38.101100 2.216200
38.146900 2.234200
38.192800 2.154900
38.238600 2.140100
38.284500 2.156800
38.330400 2.153800
38.376200 2.161700
38.422100 2.157200
38.468000 2.176000
38.513800 2.271800
38.559700 2.534700
38.605500 2.294500
38.651400 2.332200
38.697300 2.374000
38.743100 2.536600
38.789000 2.370800
38.834800 2.353400
38.880700 2.385300
38.926600 2.373400
38.972400 2.434800
39.018300 2.847900
39.064200 2.465500
39.110000 2.247300
39.155900 2.317300
39.201700 2.656700
39.247600 2.590900
39.293500 2.547900
39.339300 2.559800
39.385200 2.501300
39.431000 2.343000
39.476900 2.229000
39.522800 2.179100
39.568600 2.152400
39.614500 2.033800
39.660400 2.013600
39.706200 2.056800
39.752100 2.455600
39.797900 2.286200
39.843800 2.232900
39.889700 2.174200
39.935500 2.063200
39.981400 2.041600
40.027200 2.111800
40.073100 2.151000
40.119000 2.255500
40.164800 2.118100
40.210700 2.133000
40.256600 2.161600
40.302400 2.138800
40.348300 2.162900
40.394100 2.074100
40.440000 2.018800
40.485900 2.029800
40.531700 2.267400
40.577600 2.313900
40.623400 2.148800
40.669300 2.030300
40.715200 1.904000
40.761000 2.021700
40.806900 2.019800
40.852800 2.029500
40.898600 2.089100
40.944500 2.117200
40.990300 2.028200
41.036200 2.002100
41.082100 1.938400
41.127900 1.950100
41.173800 1.944500
41.219600 1.927300
41.265500 1.967700
41.311400 1.985500
41.357200 2.010300
41.403100 2.035900
41.449000 2.047400
41.494800 2.064500
41.540700 2.212400
41.586500 2.348100
41.632400 2.224700
41.678300 2.185200
41.724100 2.170600
41.770000 2.415200
41.815800 2.156800
41.861700 2.063900
41.907600 1.995300
41.953400 2.051800
41.999300 2.083800
42.045200 2.155600
42.091000 2.446400
42.136900 2.026100
42.182700 1.933100
42.228600 1.907600
42.274500 2.059000
42.320300 2.108000
42.366200 2.216800
42.412000 1.654200
42.457900 1.424300
42.503800 1.320400
42.549600 1.440700
42.595500 1.361500
42.641400 1.330100
42.687200 1.327100
42.733100 1.337200
42.778900 1.411200
42.824800 1.433100
42.870700 1.537700
42.916500 1.416000
42.962400 1.408100
43.008200 1.254900
43.054100 1.082800
43.100000 0.929500
43.145800 0.708200
43.191700 0.648900
43.237500 0.602000
43.283400 0.508400
43.329300 0.479600
43.375100 0.456600
43.421000 0.410900
43.466900 0.344500
43.512700 0.306500
43.558600 0.275400
43.604400 0.247000
43.650300 0.195400
43.696200 0.162100
43.742000 0.066000
43.787900 0.039300
43.833700 0.028200
43.879600 0.020000
43.925500 0.013600
43.971300 0.000000
44.017200 0.000000
44.063100 0.000000
44.108900 0.000000
44.154800 0.000000
44.200600 0.000000
44.246500 0.000000
44.292400 0.000000
44.338200 0.000000
44.384100 0.000000
44.429900 0.000000
44.475800 0.000000
44.521700 0.000000
44.567500 0.000000
44.613400 0.000000
44.659300 0.000000
44.705100 0.000000
44.751000 0.000000
44.796800 0.000000
44.842700 0.000000
44.888600 0.000000
44.934400 0.000000
44.980300 0.000000
45.026100 0.000000
45.072000 0.000000
45.117900 0.000000
45.163700 0.000000
45.209600 0.000000
45.255500 0.000000
45.301300 0.000000
45.347200 0.000000
45.393000 0.000000
45.438900 0.000000
45.484800 0.000000
45.530600 0.000000
45.576500 0.000000
45.622300 0.000000
45.668200 0.000000
45.714100 0.000000
45.759900 0.000000
45.805800 0.000000
45.851700 0.000000
45.897500 0.000000
45.943400 0.000000
45.989200 0.000000
46.035100 0.000000
46.081000 0.000000
46.126800 0.000000
46.172700 0.000000
46.218500 0.000000
46.264400 0.000000
46.310300 0.000000
46.356100 0.000000
46.402000 0.000000
46.447900 0.000000
46.493700 0.000000
46.539600 0.000000
46.585400 0.000000
46.631300 0.000000
46.677200 0.000000
46.723000 0.000000
46.768900 0.000000
46.814700 0.000000
46.860600 0.000000
46.906500 0.000000
46.952300 0.000000
46.998200 0.000000
47.044100 0.000000
47.089900 0.000000
47.135800 0.000000
47.181600 0.000000
47.227500 0.000000
47.273400 0.000000
47.319200 0.000000
47.365100 0.000000
47.410900 0.000000
47.456800 0.000000
47.502700 0.000000
47.548500 0.000000
47.594400 0.000000
47.640300 0.000000
47.686100 0.000000
47.732000 0.000000
47.777800 0.000000
47.823700 0.000000
47.869600 0.000000
47.915400 0.000000
47.961300 0.000000
48.007100 0.000000
48.053000 0.000000
48.098900 0.000000
e
