set title 'mp-12787 - Density of States'
set xlabel 'Energy (eV)'
set ylabel 'DOS (states/eV)'
set grid
set xrange [-10:10]
set yrange [0:53.236]
set xzeroaxis lt -1
set terminal png size 800,600
set output 'mp-12787_dos_gnuplot.png'
plot '-' using 1:2 with lines title 'DOS'
-20.518000 0.000000
-20.499100 0.000000
-20.480300 0.000000
-20.461400 0.000000
-20.442500 0.000000
-20.423700 0.000000
-20.404800 0.000000
-20.385900 0.000000
-20.367100 0.000000
-20.348200 0.000000
-20.329300 0.000000
-20.310500 0.000000
-20.291600 0.000000
-20.272700 0.000000
-20.253900 0.000000
-20.235000 0.000000
-20.216100 0.000000
-20.197300 0.000000
-20.178400 0.000000
-20.159500 0.000000
-20.140700 0.000000
-20.121800 0.000000
-20.102900 0.000000
-20.084100 0.000000
-20.065200 0.000000
-20.046300 0.000000
-20.027500 0.000000
-20.008600 0.000000
-19.989700 0.000000
-19.970900 0.000000
-19.952000 0.000000
-19.933100 0.000000
-19.914300 0.000000
-19.895400 0.000000
-19.876500 0.000000
-19.857700 0.000000
-19.838800 0.000000
-19.819900 0.000000
-19.801100 0.000000
-19.782200 0.000000
-19.763300 0.000000
-19.744500 0.000000
-19.725600 0.000000
-19.706700 0.000000
-19.687900 0.000000
-19.669000 0.000000
-19.650100 0.000000
-19.631300 0.000000
-19.612400 0.000000
-19.593500 0.000000
-19.574700 0.000000
-19.555800 0.000000
-19.536900 0.000000
-19.518100 0.000000
-19.499200 0.000000
-19.480300 0.000000
-19.461400 0.000000
-19.442600 0.000000
-19.423700 0.000000
-19.404800 0.000000
-19.386000 0.000000
-19.367100 0.000000
-19.348200 0.000000
-19.329400 0.000000
-19.310500 0.000000
-19.291600 0.000000
-19.272800 0.000000
-19.253900 0.000000
-19.235000 0.000000
-19.216200 0.000000
-19.197300 0.000000
-19.178400 0.000000
-19.159600 0.000000
-19.140700 0.000000
-19.121800 0.000000
-19.103000 0.000000
-19.084100 0.000000
-19.065200 0.000000
-19.046400 0.000000
-19.027500 0.000000
-19.008600 0.000000
-18.989800 0.000000
-18.970900 0.000000
-18.952000 0.000000
-18.933200 0.000000
-18.914300 0.000000
-18.895400 0.000000
-18.876600 0.000000
-18.857700 0.000000
-18.838800 0.000000
-18.820000 0.000000
-18.801100 0.052400
-18.782200 0.650900
-18.763400 1.289700
-18.744500 1.964800
-18.725600 2.502800
-18.706800 2.952900
-18.687900 3.408400
-18.669000 3.919400
-18.650200 4.471400
-18.631300 5.090700
-18.612400 5.739800
-18.593600 6.359800
-18.574700 9.499500
-18.555800 7.943900
-18.537000 8.948500
-18.518100 10.627300
-18.499200 9.852200
-18.480400 9.933600
-18.461500 9.425000
-18.442600 9.036300
-18.423800 4.526900
-18.404900 6.020800
-18.386000 6.827900
-18.367200 7.687400
-18.348300 8.516800
-18.329400 8.374100
-18.310600 8.214300
-18.291700 7.855600
-18.272800 7.792600
-18.254000 5.644100
-18.235100 5.360400
-18.216200 5.311100
-18.197400 5.088200
-18.178500 5.150500
-18.159600 5.252600
-18.140700 5.342400
-18.121900 5.419900
-18.103000 5.493100
-18.084100 5.781900
-18.065300 6.279800
-18.046400 6.977000
-18.027500 6.861700
-18.008700 8.119100
-17.989800 8.992600
-17.970900 9.048100
-17.952100 10.194500
-17.933200 11.601900
-17.914300 11.733400
-17.895500 8.734900
-17.876600 11.769700
-17.857700 14.490700
-17.838900 10.340700
-17.820000 9.838700
-17.801100 8.439300
-17.782300 7.108300
-17.763400 6.075200
-17.744500 6.381400
-17.725700 5.806800
-17.706800 5.386900
-17.687900 5.133700
-17.669100 5.012300
-17.650200 4.876400
-17.631300 4.712000
-17.612500 4.519000
-17.593600 4.699700
-17.574700 4.481600
-17.555900 3.991400
-17.537000 3.678300
-17.518100 4.725000
-17.499300 7.430800
-17.480400 7.452200
-17.461500 7.457000
-17.442700 7.445500
-17.423800 7.417400
-17.404900 7.372900
-17.386100 6.406600
-17.367200 5.710700
-17.348300 4.733400
-17.329500 3.748200
-17.310600 8.197600
-17.291700 8.866900
-17.272900 8.192600
-17.254000 7.719800
-17.235100 7.521600
-17.216300 8.208300
-17.197400 7.192700
-17.178500 6.359600
-17.159700 5.820600
-17.140800 5.422400
-17.121900 4.845300
-17.103100 4.470400
-17.084200 4.095300
-17.065300 3.719900
-17.046500 3.381200
-17.027600 3.113700
-17.008700 2.829800
-16.989900 2.580900
-16.971000 2.341800
-16.952100 2.112600
-16.933300 1.888900
-16.914400 1.637200
-16.895500 1.287000
-16.876700 0.884700
-16.857800 0.469600
-16.838900 48.375200
-16.820000 45.315400
-16.801200 156.129900
-16.782300 119.937500
-16.763400 84.293700
-16.744600 44.925200
-16.725700 0.000000
-16.706800 0.000000
-16.688000 0.000000
-16.669100 0.000000
-16.650200 0.000000
-16.631400 0.000000
-16.612500 0.000000
-16.593600 0.000000
-16.574800 0.000000
-16.555900 0.000000
-16.537000 0.000000
-16.518200 0.000000
-16.499300 0.000000
-16.480400 0.000000
-16.461600 0.000000
-16.442700 0.000000
-16.423800 0.000000
-16.405000 0.000000
-16.386100 0.000000
-16.367200 0.000000
-16.348400 0.000000
-16.329500 0.000000
-16.310600 0.000000
-16.291800 0.000000
-16.272900 0.000000
-16.254000 0.000000
-16.235200 0.000000
-16.216300 0.000000
-16.197400 0.000000
-16.178600 0.000000
-16.159700 0.000000
-16.140800 0.000000
-16.122000 0.000000
-16.103100 0.000000
-16.084200 0.000000
-16.065400 0.000000
-16.046500 0.000000
-16.027600 0.000000
-16.008800 0.000000
-15.989900 0.000000
-15.971000 0.000000
-15.952200 0.000000
-15.933300 0.000000
-15.914400 0.000000
-15.895600 0.000000
-15.876700 0.000000
-15.857800 0.000000
-15.839000 0.000000
-15.820100 0.000000
-15.801200 0.000000
-15.782400 0.000000
-15.763500 0.000000
-15.744600 0.000000
-15.725800 0.000000
-15.706900 0.000000
-15.688000 0.000000
-15.669200 0.000000
-15.650300 0.000000
-15.631400 0.000000
-15.612600 0.000000
-15.593700 0.000000
-15.574800 0.000000
-15.556000 0.000000
-15.537100 0.000000
-15.518200 0.000000
-15.499300 0.000000
-15.480500 0.000000
-15.461600 0.000000
-15.442700 0.000000
-15.423900 0.000000
-15.405000 0.000000
-15.386100 0.000000
-15.367300 0.000000
-15.348400 0.000000
-15.329500 0.000000
-15.310700 0.000000
-15.291800 0.000000
-15.272900 0.000000
-15.254100 0.000000
-15.235200 0.000000
-15.216300 0.000000
-15.197500 0.000000
-15.178600 0.000000
-15.159700 0.000000
-15.140900 0.000000
-15.122000 0.000000
-15.103100 0.000000
-15.084300 0.000000
-15.065400 0.000000
-15.046500 0.000000
-15.027700 0.000000
-15.008800 0.000000
-14.989900 0.000000
-14.971100 0.000000
-14.952200 0.000000
-14.933300 0.000000
-14.914500 0.000000
-14.895600 0.000000
-14.876700 0.000000
-14.857900 0.000000
-14.839000 0.000000
-14.820100 0.000000
-14.801300 0.000000
-14.782400 0.000000
-14.763500 0.000000
-14.744700 0.000000
-14.725800 0.000000
-14.706900 0.000000
-14.688100 0.000000
-14.669200 0.000000
-14.650300 0.000000
-14.631500 0.000000
-14.612600 0.000000
-14.593700 0.000000
-14.574900 0.000000
-14.556000 0.000000
-14.537100 0.000000
-14.518300 0.000000
-14.499400 0.000000
-14.480500 0.000000
-14.461700 0.000000
-14.442800 0.000000
-14.423900 0.000000
-14.405100 0.000000
-14.386200 0.000000
-14.367300 0.000000
-14.348500 0.000000
-14.329600 0.000000
-14.310700 0.000000
-14.291900 0.000000
-14.273000 0.000000
-14.254100 0.000000
-14.235300 0.000000
-14.216400 0.000000
-14.197500 0.000000
-14.178600 0.000000
-14.159800 0.000000
-14.140900 0.000000
-14.122000 0.000000
-14.103200 0.000000
-14.084300 0.000000
-14.065400 0.000000
-14.046600 0.000000
-14.027700 0.000000
-14.008800 0.000000
-13.990000 0.000000
-13.971100 0.000000
-13.952200 0.000000
-13.933400 0.000000
-13.914500 0.000000
-13.895600 0.000000
-13.876800 0.000000
-13.857900 0.000000
-13.839000 0.000000
-13.820200 0.000000
-13.801300 0.000000
-13.782400 0.000000
-13.763600 0.000000
-13.744700 0.000000
-13.725800 0.000000
-13.707000 0.000000
-13.688100 0.000000
-13.669200 0.000000
-13.650400 0.000000
-13.631500 0.000000
-13.612600 0.000000
-13.593800 0.000000
-13.574900 0.000000
-13.556000 0.000000
-13.537200 0.000000
-13.518300 0.000000
-13.499400 0.000000
-13.480600 0.000000
-13.461700 0.000000
-13.442800 0.000000
-13.424000 0.000000
-13.405100 0.000000
-13.386200 0.000000
-13.367400 0.000000
-13.348500 0.000000
-13.329600 0.000000
-13.310800 0.000000
-13.291900 0.000000
-13.273000 0.000000
-13.254200 0.000000
-13.235300 0.000000
-13.216400 0.000000
-13.197600 0.000000
-13.178700 0.000000
-13.159800 0.000000
-13.141000 0.000000
-13.122100 0.000000
-13.103200 0.000000
-13.084400 0.000000
-13.065500 0.000000
-13.046600 0.000000
-13.027800 0.000000
-13.008900 0.000000
-12.990000 0.000000
-12.971200 0.000000
-12.952300 0.000000
-12.933400 0.000000
-12.914600 0.000000
-12.895700 0.000000
-12.876800 0.000000
-12.857900 0.000000
-12.839100 0.000000
-12.820200 0.000000
-12.801300 0.000000
-12.782500 0.000000
-12.763600 0.000000
-12.744700 0.000000
-12.725900 0.000000
-12.707000 0.000000
-12.688100 0.000000
-12.669300 0.000000
-12.650400 0.000000
-12.631500 0.000000
-12.612700 0.000000
-12.593800 0.000000
-12.574900 0.000000
-12.556100 0.000000
-12.537200 0.000000
-12.518300 0.000000
-12.499500 0.000000
-12.480600 0.000000
-12.461700 0.000000
-12.442900 0.000000
-12.424000 0.000000
-12.405100 0.000000
-12.386300 0.000000
-12.367400 0.000000
-12.348500 0.000000
-12.329700 0.000000
-12.310800 0.000000
-12.291900 0.000000
-12.273100 0.000000
-12.254200 0.000000
-12.235300 0.000000
-12.216500 0.000000
-12.197600 0.000000
-12.178700 0.000000
-12.159900 0.000000
-12.141000 0.000000
-12.122100 0.000000
-12.103300 0.000000
-12.084400 0.000000
-12.065500 0.000000
-12.046700 0.000000
-12.027800 0.000000
-12.008900 0.000000
-11.990100 0.000000
-11.971200 0.000000
-11.952300 0.000000
-11.933500 0.000000
-11.914600 0.000000
-11.895700 0.000000
-11.876900 0.000000
-11.858000 0.000000
-11.839100 0.000000
-11.820300 0.000000
-11.801400 0.000000
-11.782500 0.000000
-11.763700 0.000000
-11.744800 0.000000
-11.725900 0.000000
-11.707100 0.000000
-11.688200 0.000000
-11.669300 0.000000
-11.650500 0.000000
-11.631600 0.000000
-11.612700 0.000000
-11.593900 0.000000
-11.575000 0.000000
-11.556100 0.000000
-11.537200 0.000000
-11.518400 0.000000
-11.499500 0.000000
-11.480600 0.000000
-11.461800 0.000000
-11.442900 0.000000
-11.424000 0.000000
-11.405200 0.000000
-11.386300 0.000000
-11.367400 0.000000
-11.348600 0.000000
-11.329700 0.000000
-11.310800 0.000000
-11.292000 0.000000
-11.273100 0.000000
-11.254200 0.000000
-11.235400 0.000000
-11.216500 0.000000
-11.197600 0.000000
-11.178800 0.000000
-11.159900 0.000000
-11.141000 0.000000
-11.122200 0.000000
-11.103300 0.000000
-11.084400 0.000000
-11.065600 0.000000
-11.046700 0.000000
-11.027800 0.000000
-11.009000 0.000000
-10.990100 0.000000
-10.971200 0.000000
-10.952400 0.000000
-10.933500 0.000000
-10.914600 0.000000
-10.895800 0.000000
-10.876900 0.000000
-10.858000 0.000000
-10.839200 0.000000
-10.820300 0.000000
-10.801400 0.000000
-10.782600 0.000000
-10.763700 0.000000
-10.744800 0.000000
-10.726000 0.000000
-10.707100 0.000000
-10.688200 0.000000
-10.669400 0.000000
-10.650500 0.000000
-10.631600 0.000000
-10.612800 0.000000
-10.593900 0.000000
-10.575000 0.000000
-10.556200 0.000000
-10.537300 0.000000
-10.518400 0.000000
-10.499600 0.000000
-10.480700 0.000000
-10.461800 0.000000
-10.443000 0.000000
-10.424100 0.000000
-10.405200 0.000000
-10.386400 0.000000
-10.367500 0.000000
-10.348600 0.000000
-10.329800 0.000000
-10.310900 0.000000
-10.292000 0.000000
-10.273200 0.000000
-10.254300 0.000000
-10.235400 0.000000
-10.216500 0.000000
-10.197700 0.000000
-10.178800 0.000000
-10.159900 0.000000
-10.141100 0.000000
-10.122200 0.000000
-10.103300 0.000000
-10.084500 0.000000
-10.065600 0.000000
-10.046700 0.000000
-10.027900 0.000000
-10.009000 0.000000
-9.990100 0.000000
-9.971300 0.000000
-9.952400 0.000000
-9.933500 0.000000
-9.914700 0.000000
-9.895800 0.000000
-9.876900 0.000000
-9.858100 0.000000
-9.839200 0.000000
-9.820300 0.000000
-9.801500 0.000000
-9.782600 0.000000
-9.763700 0.000000
-9.744900 0.000000
-9.726000 0.000000
-9.707100 0.000000
-9.688300 0.000000
-9.669400 0.000000
-9.650500 0.000000
-9.631700 0.000000
-9.612800 0.000000
-9.593900 0.000000
-9.575100 0.000000
-9.556200 0.000000
-9.537300 0.000000
-9.518500 0.000000
-9.499600 0.000000
-9.480700 0.000000
-9.461900 0.000000
-9.443000 0.000000
-9.424100 0.000000
-9.405300 0.000000
-9.386400 0.000000
-9.367500 0.000000
-9.348700 0.000000
-9.329800 0.000000
-9.310900 0.000000
-9.292100 0.000000
-9.273200 0.000000
-9.254300 0.000000
-9.235500 0.000000
-9.216600 0.000000
-9.197700 0.000000
-9.178900 0.000000
-9.160000 0.000000
-9.141100 0.000000
-9.122300 0.000000
-9.103400 0.000000
-9.084500 0.000000
-9.065700 0.000000
-9.046800 0.000000
-9.027900 0.000000
-9.009100 0.000000
-8.990200 0.000000
-8.971300 0.000000
-8.952500 0.000000
-8.933600 0.000000
-8.914700 0.093000
-8.895800 0.195000
-8.877000 0.297900
-8.858100 0.401900
-8.839200 0.506800
-8.820400 0.612800
-8.801500 0.719700
-8.782600 0.827600
-8.763800 0.927900
-8.744900 1.008300
-8.726000 1.068800
-8.707200 1.124500
-8.688300 1.199400
-8.669400 1.277300
-8.650600 1.358200
-8.631700 1.442100
-8.612800 1.528900
-8.594000 1.618800
-8.575100 1.704200
-8.556200 1.807200
-8.537400 1.919000
-8.518500 2.038700
-8.499600 2.166200
-8.480800 2.301000
-8.461900 2.437500
-8.443000 2.573900
-8.424200 2.710100
-8.405300 2.846300
-8.386400 2.982300
-8.367600 3.666300
-8.348700 3.568600
-8.329800 3.753300
-8.311000 4.576100
-8.292100 3.876200
-8.273200 3.886900
-8.254400 3.897500
-8.235500 3.928900
-8.216600 3.957500
-8.197800 3.983200
-8.178900 4.006200
-8.160000 4.026300
-8.141200 4.115700
-8.122300 4.207500
-8.103400 4.378000
-8.084600 5.243100
-8.065700 2.483400
-8.046800 2.126700
-8.028000 1.874900
-8.009100 2.086100
-7.990200 2.331600
-7.971400 3.065800
-7.952500 3.425600
-7.933600 3.872300
-7.914800 3.884900
-7.895900 3.898800
-7.877000 3.972100
-7.858200 3.954500
-7.839300 3.935800
-7.820400 3.916500
-7.801600 3.896500
-7.782700 3.875700
-7.763800 3.854300
-7.745000 3.832100
-7.726100 3.809200
-7.707200 3.785600
-7.688400 3.657000
-7.669500 4.598200
-7.650600 1.918100
-7.631800 1.775500
-7.612900 1.709400
-7.594000 1.644500
-7.575100 1.694100
-7.556300 1.806900
-7.537400 1.959200
-7.518500 2.150900
-7.499700 2.278300
-7.480800 2.250000
-7.461900 2.174200
-7.443100 2.260200
-7.424200 2.345700
-7.405300 2.425100
-7.386500 2.498500
-7.367600 2.565800
-7.348700 2.627200
-7.329900 2.700700
-7.311000 2.799900
-7.292100 2.924900
-7.273300 3.075500
-7.254400 3.251100
-7.235500 3.446200
-7.216700 3.659700
-7.197800 3.891800
-7.178900 4.142400
-7.160100 4.411500
-7.141200 4.242000
-7.122300 4.582200
-7.103500 4.939700
-7.084600 5.732900
-7.065700 6.282200
-7.046900 19.692900
-7.028000 14.813600
-7.009100 6.946500
-6.990300 1.004100
-6.971400 0.059500
-6.952500 0.000000
-6.933700 0.000000
-6.914800 1.129300
-6.895900 1.989900
-6.877100 3.443600
-6.858200 6.712700
-6.839300 6.517600
-6.820500 6.183600
-6.801600 6.489800
-6.782700 4.219700
-6.763900 4.103900
-6.745000 3.983700
-6.726100 3.859200
-6.707300 3.730400
-6.688400 3.867300
-6.669500 3.858800
-6.650700 3.658500
-6.631800 3.392000
-6.612900 3.137800
-6.594100 2.894800
-6.575200 2.670100
-6.556300 3.116500
-6.537500 2.972700
-6.518600 2.849300
-6.499700 2.744600
-6.480900 2.658100
-6.462000 2.591300
-6.443100 2.548700
-6.424300 2.530800
-6.405400 2.522900
-6.386500 2.512900
-6.367700 2.500800
-6.348800 2.486700
-6.329900 2.470400
-6.311100 2.464800
-6.292200 2.477500
-6.273300 2.500900
-6.254400 2.535100
-6.235600 2.582800
-6.216700 2.628400
-6.197800 2.663500
-6.179000 2.676700
-6.160100 2.693600
-6.141200 2.715000
-6.122400 2.748300
-6.103500 2.810000
-6.084600 2.900900
-6.065800 3.020800
-6.046900 3.169800
-6.028000 3.833700
-6.009200 3.804900
-5.990300 3.752100
-5.971400 3.670200
-5.952600 3.574000
-5.933700 3.463700
-5.914800 3.339100
-5.896000 3.173500
-5.877100 3.016200
-5.858200 2.915200
-5.839400 2.864300
-5.820500 2.857300
-5.801600 2.893300
-5.782800 2.729600
-5.763900 2.545800
-5.745000 2.712200
-5.726200 4.464200
-5.707300 1.643400
-5.688400 1.259400
-5.669600 1.015800
-5.650700 0.878400
-5.631800 0.739200
-5.613000 0.590300
-5.594100 1.998400
-5.575200 4.919800
-5.556400 3.297500
-5.537500 3.685900
-5.518600 4.019500
-5.499800 4.298100
-5.480900 4.521900
-5.462000 4.687700
-5.443200 4.833900
-5.424300 4.915000
-5.405400 4.788100
-5.386600 4.453400
-5.367700 4.154400
-5.348800 4.052400
-5.330000 3.954900
-5.311100 3.873600
-5.292200 3.932900
-5.273400 4.140000
-5.254500 4.033600
-5.235600 3.637700
-5.216800 3.257600
-5.197900 2.920000
-5.179000 3.493800
-5.160200 4.548000
-5.141300 5.416700
-5.122400 5.940100
-5.103600 6.621200
-5.084700 7.923900
-5.065800 9.899500
-5.047000 12.099600
-5.028100 13.437200
-5.009200 16.792800
-4.990400 17.692400
-4.971500 16.965900
-4.952600 9.271200
-4.933800 11.492100
-4.914900 12.173600
-4.896000 13.380700
-4.877100 18.291600
-4.858300 15.446100
-4.839400 10.779900
-4.820500 6.761900
-4.801700 4.729100
-4.782800 3.535700
-4.763900 3.313700
-4.745100 8.703800
-4.726200 11.653400
-4.707300 13.780300
-4.688500 18.586100
-4.669600 26.928800
-4.650700 44.276600
-4.631900 35.927800
-4.613000 33.220900
-4.594100 29.124900
-4.575300 19.958900
-4.556400 14.468400
-4.537500 15.299800
-4.518700 20.964600
-4.499800 13.428000
-4.480900 13.351800
-4.462100 13.131300
-4.443200 8.974400
-4.424300 10.496400
-4.405500 9.585600
-4.386600 8.444000
-4.367700 8.100000
-4.348900 7.882400
-4.330000 7.724600
-4.311100 7.693100
-4.292300 7.822200
-4.273400 5.237000
-4.254500 4.189200
-4.235700 3.306000
-4.216800 2.476000
-4.197900 1.199100
-4.179100 0.000000
-4.160200 0.000000
-4.141300 0.000000
-4.122500 0.000000
-4.103600 0.000000
-4.084700 0.000000
-4.065900 0.000000
-4.047000 0.000000
-4.028100 0.000000
-4.009300 0.000000
-3.990400 0.000000
-3.971500 0.000000
-3.952700 0.000000
-3.933800 0.000000
-3.914900 0.000000
-3.896100 0.000000
-3.877200 0.000000
-3.858300 0.000000
-3.839500 0.000000
-3.820600 0.000000
-3.801700 0.000000
-3.782900 0.000000
-3.764000 0.000000
-3.745100 0.000000
-3.726300 0.000000
-3.707400 0.000000
-3.688500 0.000000
-3.669700 0.000000
-3.650800 0.000000
-3.631900 0.000000
-3.613100 0.000000
-3.594200 0.000000
-3.575300 0.000000
-3.556400 0.000000
-3.537600 0.000000
-3.518700 0.000000
-3.499800 0.000000
-3.481000 0.000000
-3.462100 0.000000
-3.443200 0.000000
-3.424400 0.000000
-3.405500 0.000000
-3.386600 0.000000
-3.367800 0.000000
-3.348900 0.000000
-3.330000 0.000000
-3.311200 0.000000
-3.292300 0.000000
-3.273400 0.000000
-3.254600 0.000000
-3.235700 0.000000
-3.216800 0.000000
-3.198000 0.000000
-3.179100 0.000000
-3.160200 0.000000
-3.141400 0.000000
-3.122500 0.000000
-3.103600 0.000000
-3.084800 0.000000
-3.065900 0.000000
-3.047000 0.000000
-3.028200 0.000000
-3.009300 0.000000
-2.990400 0.000000
-2.971600 3.353700
-2.952700 7.247300
-2.933800 7.523000
-2.915000 8.631400
-2.896100 9.294700
-2.877200 11.229700
-2.858400 13.067100
-2.839500 10.748300
-2.820600 8.967400
-2.801800 7.051100
-2.782900 6.179700
-2.764000 5.256000
-2.745200 5.496000
-2.726300 11.608600
-2.707400 16.039400
-2.688600 14.174000
-2.669700 17.754300
-2.650800 15.049700
-2.632000 10.564900
-2.613100 8.978500
-2.594200 5.407000
-2.575400 4.471100
-2.556500 1.238900
-2.537600 0.000000
-2.518800 0.078700
-2.499900 1.687200
-2.481000 6.011400
-2.462200 9.272700
-2.443300 12.923400
-2.424400 13.834700
-2.405600 14.198300
-2.386700 12.436900
-2.367800 13.064400
-2.349000 14.832500
-2.330100 19.045300
-2.311200 17.935700
-2.292400 14.581400
-2.273500 12.950000
-2.254600 11.759200
-2.235700 9.265900
-2.216900 8.310800
-2.198000 7.221000
-2.179100 8.786000
-2.160300 8.877400
-2.141400 8.133700
-2.122500 7.349200
-2.103700 9.789700
-2.084800 19.019500
-2.065900 48.396300
-2.047100 26.757800
-2.028200 19.885800
-2.009300 19.393300
-1.990500 19.167000
-1.971600 15.003400
-1.952700 12.980300
-1.933900 12.707300
-1.915000 14.079100
-1.896100 15.502900
-1.877300 19.863700
-1.858400 23.631100
-1.839500 12.407600
-1.820700 9.834300
-1.801800 6.373300
-1.782900 2.948100
-1.764100 2.690200
-1.745200 6.306700
-1.726300 11.711100
-1.707500 10.009800
-1.688600 9.824600
-1.669700 10.191000
-1.650900 10.662600
-1.632000 14.354000
-1.613100 12.049500
-1.594300 10.032000
-1.575400 23.189300
-1.556500 20.529300
-1.537700 17.885500
-1.518800 13.527100
-1.499900 13.072700
-1.481100 16.027400
-1.462200 18.171000
-1.443300 15.696600
-1.424500 12.181800
-1.405600 11.344300
-1.386700 11.505200
-1.367900 9.188700
-1.349000 10.689700
-1.330100 7.004800
-1.311300 5.974600
-1.292400 7.909000
-1.273500 7.916000
-1.254700 8.304600
-1.235800 9.486000
-1.216900 11.575400
-1.198100 14.266600
-1.179200 17.561500
-1.160300 30.308200
-1.141500 31.196700
-1.122600 34.784500
-1.103700 30.953000
-1.084900 25.769800
-1.066000 23.195300
-1.047100 20.623900
-1.028300 21.202900
-1.009400 24.172500
-0.990500 25.926800
-0.971700 21.524700
-0.952800 27.903300
-0.933900 26.677900
-0.915000 28.183600
-0.896200 33.395200
-0.877300 29.722200
-0.858400 26.598600
-0.839600 23.500800
-0.820700 20.658200
-0.801800 14.687600
-0.783000 13.835100
-0.764100 16.491100
-0.745200 17.755200
-0.726400 15.276200
-0.707500 10.254500
-0.688600 10.279600
-0.669800 10.349600
-0.650900 8.654700
-0.632000 7.887300
-0.613200 10.438000
-0.594300 11.404700
-0.575400 12.048300
-0.556600 11.390600
-0.537700 11.806300
-0.518800 16.847700
-0.500000 17.930800
-0.481100 16.498700
-0.462200 16.965900
-0.443400 6.924800
-0.424500 6.589000
-0.405600 8.136700
-0.386800 12.745200
-0.367900 14.770000
-0.349000 15.462100
-0.330200 13.741800
-0.311300 15.948200
-0.292400 20.880300
-0.273600 20.041400
-0.254700 17.760300
-0.235800 11.845700
-0.217000 11.215000
-0.198100 11.832600
-0.179200 7.406600
-0.160400 6.476300
-0.141500 5.971500
-0.122600 13.527900
-0.103800 13.637300
-0.084900 12.847900
-0.066000 11.714700
-0.047200 10.880700
-0.028300 10.023600
-0.009400 10.009200
0.009400 15.274000
0.028300 8.287600
0.047200 6.808400
0.066000 10.388100
0.084900 18.222200
0.103800 28.705800
0.122600 18.756300
0.141500 14.403700
0.160400 9.527400
0.179200 6.079700
0.198100 12.882400
0.217000 11.069700
0.235800 11.492200
0.254700 13.443900
0.273600 18.590900
0.292400 20.053900
0.311300 19.534900
0.330200 22.354900
0.349000 38.412800
0.367900 25.671700
0.386800 16.207700
0.405700 17.087800
0.424500 0.000000
0.443400 0.000000
0.462300 0.000000
0.481100 0.000000
0.500000 0.000000
0.518900 0.000000
0.537700 0.000000
0.556600 0.000000
0.575500 0.000000
0.594300 0.000000
0.613200 0.000000
0.632100 0.000000
0.650900 0.000000
0.669800 0.000000
0.688700 0.000000
0.707500 0.000000
0.726400 0.000000
0.745300 0.000000
0.764100 0.000000
0.783000 0.000000
0.801900 0.000000
0.820700 0.000000
0.839600 0.000000
0.858500 0.000000
0.877300 0.000000
0.896200 0.000000
0.915100 0.000000
0.933900 0.000000
0.952800 0.000000
0.971700 0.000000
0.990500 0.000000
1.009400 0.000000
1.028300 0.000000
1.047100 0.000000
1.066000 0.000000
1.084900 0.000000
1.103700 0.000000
1.122600 0.000000
1.141500 0.000000
1.160300 0.000000
1.179200 0.000000
1.198100 0.000000
1.216900 0.000000
1.235800 0.000000
1.254700 0.000000
1.273500 0.000000
1.292400 0.000000
1.311300 0.000000
1.330100 0.000000
1.349000 0.000000
1.367900 0.000000
1.386700 0.000000
1.405600 0.000000
1.424500 0.000000
1.443300 0.000000
1.462200 0.000000
1.481100 0.000000
1.499900 0.000000
1.518800 0.000000
1.537700 0.000000
1.556500 0.000000
1.575400 0.000000
1.594300 0.000000
1.613100 0.000000
1.632000 0.000000
1.650900 0.000000
1.669700 0.000000
1.688600 0.000000
1.707500 0.000000
1.726400 0.000000
1.745200 0.000000
1.764100 0.000000
1.783000 0.000000
1.801800 0.000000
1.820700 0.000000
1.839600 0.000000
1.858400 0.000000
1.877300 0.000000
1.896200 0.000000
1.915000 0.000000
1.933900 0.000000
1.952800 0.000000
1.971600 0.000000
1.990500 0.000000
2.009400 0.000000
2.028200 0.000000
2.047100 0.000000
2.066000 0.000000
2.084800 0.000000
2.103700 0.000000
2.122600 0.000000
2.141400 0.000000
2.160300 0.000000
2.179200 0.000000
2.198000 0.000000
2.216900 0.000000
2.235800 0.000000
2.254600 0.000000
2.273500 0.000000
2.292400 0.000000
2.311200 0.000000
2.330100 0.000000
2.349000 0.000000
2.367800 0.000000
2.386700 0.000000
2.405600 0.000000
2.424400 0.000000
2.443300 0.000000
2.462200 0.000000
2.481000 0.000000
2.499900 0.000000
2.518800 0.000000
2.537600 0.000000
2.556500 0.000000
2.575400 0.000000
2.594200 0.000000
2.613100 0.000000
2.632000 0.000000
2.650800 0.000000
2.669700 0.000000
2.688600 0.000000
2.707400 0.000000
2.726300 0.000000
2.745200 0.000000
2.764000 0.000000
2.782900 0.000000
2.801800 0.000000
2.820600 0.000000
2.839500 0.000000
2.858400 0.000000
2.877200 0.000000
2.896100 0.000000
2.915000 0.000000
2.933800 0.000000
2.952700 0.000000
2.971600 0.000000
2.990400 0.000000
3.009300 0.000000
3.028200 0.000000
3.047100 0.000000
3.065900 0.000000
3.084800 0.000000
3.103700 0.000000
3.122500 0.000000
3.141400 0.000000
3.160300 0.000000
3.179100 0.000000
3.198000 0.000000
3.216900 0.000000
3.235700 0.000000
3.254600 0.000000
3.273500 0.000000
3.292300 0.000000
3.311200 0.000000
3.330100 0.000000
3.348900 0.000000
3.367800 0.000000
3.386700 0.000000
3.405500 0.000000
3.424400 0.000000
3.443300 0.000000
3.462100 0.000000
3.481000 0.000000
3.499900 0.000000
3.518700 0.000000
3.537600 0.000000
3.556500 0.000000
3.575300 0.000000
3.594200 0.000000
3.613100 0.000000
3.631900 0.000000
3.650800 0.000000
3.669700 0.000000
3.688500 0.000000
3.707400 0.000000
3.726300 0.000000
3.745100 0.000000
3.764000 0.000000
3.782900 0.000000
3.801700 0.000000
3.820600 0.000000
3.839500 0.000000
3.858300 0.000000
3.877200 0.000000
3.896100 0.000000
3.914900 0.000000
3.933800 0.000000
3.952700 0.000000
3.971500 0.000000
3.990400 0.000000
4.009300 0.000000
4.028100 0.000000
4.047000 0.000000
4.065900 0.000000
4.084700 0.000000
4.103600 0.000000
4.122500 0.000000
4.141300 0.000000
4.160200 0.000000
4.179100 0.000000
4.197900 0.000000
4.216800 0.000000
4.235700 0.000000
4.254500 0.000000
4.273400 0.000000
4.292300 0.000000
4.311100 0.000000
4.330000 0.000000
4.348900 0.000000
4.367800 0.000000
4.386600 0.000000
4.405500 0.000000
4.424400 0.000000
4.443200 0.000000
4.462100 0.000000
4.481000 0.000000
4.499800 0.000000
4.518700 0.000000
4.537600 0.000000
4.556400 0.000000
4.575300 0.000000
4.594200 0.000000
4.613000 0.000000
4.631900 0.000000
4.650800 0.000000
4.669600 0.000000
4.688500 0.000000
4.707400 0.000000
4.726200 0.000000
4.745100 0.000000
4.764000 0.000000
4.782800 0.000000
4.801700 0.000000
4.820600 0.000000
4.839400 0.000000
4.858300 0.000000
4.877200 0.000000
4.896000 0.000000
4.914900 0.000000
4.933800 0.000000
4.952600 0.000000
4.971500 0.000000
4.990400 0.000000
5.009200 0.000000
5.028100 0.000000
5.047000 0.000000
5.065800 0.000000
5.084700 0.000000
5.103600 0.000000
5.122400 0.000000
5.141300 0.000000
5.160200 0.000000
5.179000 0.000000
5.197900 0.000000
5.216800 0.000000
5.235600 0.000000
5.254500 0.000000
5.273400 0.000000
5.292200 0.000000
5.311100 0.000000
5.330000 0.000000
5.348800 0.000000
5.367700 0.000000
5.386600 0.000000
5.405400 0.000000
5.424300 0.000000
5.443200 0.000000
5.462000 0.000000
5.480900 0.000000
5.499800 0.000000
5.518600 0.000000
5.537500 0.000000
5.556400 0.000000
5.575200 0.000000
5.594100 0.000000
5.613000 0.000000
5.631800 0.000000
5.650700 0.000000
5.669600 0.000000
5.688500 0.000000
5.707300 0.000000
5.726200 0.000000
5.745100 0.000000
5.763900 0.000000
5.782800 0.000000
5.801700 0.000000
5.820500 0.000000
5.839400 0.000000
5.858300 0.000000
5.877100 0.000000
5.896000 0.000000
5.914900 0.000000
5.933700 0.000000
5.952600 0.000000
5.971500 0.000000
5.990300 0.000000
6.009200 0.000000
6.028100 0.000000
6.046900 0.000000
6.065800 0.000000
6.084700 0.000000
6.103500 0.000000
6.122400 0.000000
6.141300 0.000000
6.160100 0.000000
6.179000 0.009000
6.197900 0.025700
6.216700 0.042700
6.235600 0.060200
6.254500 0.078100
6.273300 0.096300
6.292200 0.115000
6.311100 0.134000
6.329900 0.153500
6.348800 0.173300
6.367700 0.193500
6.386500 0.214200
6.405400 0.235200
6.424300 0.256600
6.443100 0.278400
6.462000 0.300600
6.480900 0.322500
6.499700 0.343700
6.518600 0.364400
6.537500 0.384400
6.556300 0.403900
6.575200 0.422700
6.594100 0.441100
6.612900 0.459800
6.631800 0.478700
6.650700 0.498000
6.669500 0.517700
6.688400 0.537700
6.707300 0.558100
6.726100 0.578800
6.745000 0.599900
6.763900 0.621300
6.782700 0.643100
6.801600 0.662100
6.820500 0.680100
6.839300 0.701200
6.858200 0.726400
6.877100 0.751200
6.895900 0.775700
6.914800 0.799800
6.933700 0.823500
6.952500 0.847000
6.971400 0.870000
6.990300 0.892800
7.009200 0.915200
7.028000 0.937400
7.046900 0.959300
7.065800 0.981000
7.084600 1.002500
7.103500 1.023800
7.122400 1.044800
7.141200 1.065700
7.160100 1.086300
7.179000 1.106300
7.197800 1.125800
7.216700 1.144800
7.235600 1.163200
7.254400 1.181100
7.273300 1.198500
7.292200 1.219000
7.311000 1.491700
7.329900 1.507600
7.348800 1.349300
7.367600 1.371700
7.386500 1.390100
7.405400 1.404300
7.424200 1.414500
7.443100 1.420500
7.462000 1.424500
7.480800 1.431400
7.499700 1.442200
7.518600 1.453700
7.537400 1.466000
7.556300 1.479000
7.575200 1.492800
7.594000 1.507300
7.612900 1.522600
7.631800 1.538600
7.650600 1.554800
7.669500 1.570200
7.688400 1.585400
7.707200 1.600400
7.726100 1.615200
7.745000 1.629800
7.763800 1.646100
7.782700 1.663600
7.801600 1.682300
7.820400 2.029100
7.839300 2.269900
7.858200 2.375000
7.877000 2.344500
7.895900 2.252900
7.914800 2.265700
7.933600 2.327600
7.952500 2.391800
7.971400 2.458300
7.990200 2.538800
8.009100 2.653000
8.028000 3.278600
8.046800 3.724300
8.065700 3.079200
8.084600 2.703100
8.103400 2.633200
8.122300 2.572300
8.141200 2.511700
8.160000 2.453200
8.178900 2.396700
8.197800 2.369200
8.216600 2.361700
8.235500 2.352900
8.254400 2.345300
8.273200 2.338700
8.292100 2.252600
8.311000 2.139800
8.329900 2.039600
8.348700 2.068900
8.367600 2.142700
8.386500 2.229000
8.405300 2.320100
8.424200 2.414200
8.443100 2.511000
8.461900 2.610300
8.480800 2.711900
8.499700 2.814400
8.518500 2.917500
8.537400 3.021400
8.556300 3.125900
8.575100 3.224200
8.594000 3.314700
8.612900 3.573400
8.631700 3.969700
8.650600 4.267500
8.669500 4.375300
8.688300 4.241200
8.707200 4.077900
8.726100 3.885600
8.744900 3.670000
8.763800 3.235900
8.782700 2.867400
8.801500 2.580200
8.820400 2.255200
8.839300 1.908800
8.858100 1.714000
8.877000 1.931200
8.895900 2.216100
8.914700 2.643800
8.933600 3.426200
8.952500 4.415200
8.971300 5.157300
8.990200 5.590600
9.009100 5.721100
9.027900 5.630400
9.046800 7.258300
9.065700 6.487100
9.084500 5.945400
9.103400 5.658500
9.122300 5.557900
9.141100 5.671300
9.160000 6.552700
9.178900 4.982400
9.197700 4.563400
9.216600 6.013000
9.235500 8.782400
9.254300 11.974200
9.273200 14.393000
9.292100 7.549900
9.310900 7.123600
9.329800 6.726200
9.348700 6.940900
9.367500 7.560600
9.386400 8.089100
9.405300 9.129100
9.424100 8.998900
9.443000 13.988500
9.461900 6.227900
9.480700 7.118600
9.499600 8.562300
9.518500 9.300100
9.537300 9.654700
9.556200 9.170500
9.575100 9.754800
9.593900 9.008000
9.612800 9.869700
9.631700 9.246400
9.650600 10.137500
9.669400 4.079400
9.688300 5.161800
9.707200 7.201700
9.726000 10.048500
9.744900 11.278000
9.763800 12.256000
9.782600 17.277600
9.801500 15.397900
9.820400 10.533800
9.839200 13.040000
9.858100 8.205000
9.877000 12.045400
9.895800 15.661900
9.914700 14.634300
9.933600 15.104000
9.952400 13.704000
9.971300 12.237900
9.990200 9.565100
10.009000 4.126800
10.027900 4.856200
10.046800 5.703400
10.065600 9.701300
10.084500 10.972800
10.103400 13.581400
10.122200 18.637600
10.141100 22.111500
10.160000 14.141500
10.178800 10.306100
10.197700 9.859900
10.216600 10.930100
10.235400 15.101900
10.254300 17.211400
10.273200 26.288000
10.292000 22.303000
10.310900 18.392300
10.329800 14.036700
10.348600 10.560200
10.367500 10.165800
10.386400 12.308800
10.405200 13.286500
10.424100 17.426000
10.443000 22.297300
10.461800 17.258800
10.480700 15.850700
10.499600 13.481700
10.518400 11.558300
10.537300 10.992800
10.556200 10.085900
10.575000 10.332300
10.593900 8.632500
10.612800 8.374000
10.631600 8.859800
10.650500 9.632600
10.669400 10.595700
10.688200 11.946100
10.707100 13.999500
10.726000 12.715900
10.744800 8.892700
10.763700 6.784900
10.782600 6.192500
10.801400 5.070600
10.820300 4.500400
10.839200 4.619500
10.858000 4.949500
10.876900 10.437600
10.895800 14.158700
10.914600 16.232100
10.933500 12.626800
10.952400 11.274100
10.971300 9.848300
10.990100 8.569200
11.009000 8.171500
11.027900 7.717200
11.046700 7.636500
11.065600 7.716000
11.084500 7.850100
11.103300 7.996800
11.122200 8.568900
11.141100 8.854800
11.159900 9.102100
11.178800 9.282300
11.197700 9.464900
11.216500 9.410300
11.235400 9.564100
11.254300 9.162200
11.273100 8.486700
11.292000 7.512100
11.310900 6.841100
11.329700 6.273600
11.348600 6.081400
11.367500 6.120100
11.386300 6.180400
11.405200 6.274800
11.424100 6.983400
11.442900 7.859500
11.461800 8.829300
11.480700 9.892800
11.499500 11.050000
11.518400 13.171900
11.537300 10.844900
11.556100 9.410500
11.575000 11.031100
11.593900 11.128100
11.612700 7.121000
11.631600 6.377900
11.650500 5.803200
11.669300 5.744700
11.688200 8.776300
11.707100 10.814300
11.725900 10.171200
11.744800 10.705500
11.763700 11.238500
11.782500 11.792800
11.801400 12.700100
11.820300 20.550800
11.839100 14.281400
11.858000 13.406900
11.876900 11.823300
11.895700 10.827400
11.914600 10.099700
11.933500 8.766000
11.952300 7.956200
11.971200 8.324300
11.990100 9.275200
12.008900 10.467200
12.027800 9.939100
12.046700 9.337300
12.065500 11.962800
12.084400 7.351300
12.103300 5.241300
12.122100 4.511900
12.141000 4.763600
12.159900 6.159000
12.178700 8.442000
12.197600 9.866800
12.216500 11.429900
12.235300 15.686600
12.254200 16.363900
12.273100 14.958700
12.292000 12.163000
12.310800 8.974400
12.329700 8.895200
12.348600 9.485200
12.367400 10.589200
12.386300 10.534400
12.405200 15.645400
12.424000 12.692800
12.442900 8.710100
12.461800 7.255800
12.480600 6.662700
12.499500 7.110900
12.518400 8.093800
12.537200 9.716500
12.556100 11.573700
12.575000 13.982900
12.593800 13.443500
12.612700 16.390900
12.631600 10.435800
12.650400 8.790600
12.669300 7.761800
12.688200 8.841500
12.707000 10.072200
12.725900 10.096500
12.744800 9.939300
12.763600 9.249700
12.782500 8.556700
12.801400 7.862800
12.820200 8.292400
12.839100 5.183100
12.858000 4.656600
12.876800 4.360300
12.895700 4.623200
12.914600 6.167900
12.933400 7.963900
12.952300 7.996900
12.971200 8.158400
12.990000 8.380100
13.008900 8.067400
13.027800 7.557400
13.046600 6.911100
13.065500 7.007600
13.084400 6.962200
13.103200 8.812300
13.122100 9.237000
13.141000 9.956100
13.159800 11.698600
13.178700 12.528700
13.197600 12.682100
13.216400 12.078100
13.235300 10.539600
13.254200 9.248000
13.273000 8.694700
13.291900 8.118800
13.310800 7.737700
13.329600 7.462200
13.348500 7.200000
13.367400 7.836700
13.386200 8.206500
13.405100 8.432200
13.424000 9.061400
13.442800 9.337000
13.461700 9.475800
13.480600 9.051600
13.499400 8.790800
13.518300 8.914000
13.537200 8.876100
13.556000 8.607200
13.574900 8.458000
13.593800 8.562100
13.612700 8.784100
13.631500 9.090800
13.650400 9.203100
13.669300 9.416800
13.688100 9.200600
13.707000 8.290600
13.725900 7.260900
13.744700 6.328000
13.763600 6.242900
13.782500 6.731000
13.801300 7.647700
13.820200 8.709300
13.839100 9.593200
13.857900 10.607400
13.876800 11.528900
13.895700 6.026100
13.914500 4.420700
13.933400 3.940000
13.952300 3.725100
13.971100 3.790900
13.990000 4.068200
14.008900 4.440500
14.027700 4.720800
14.046600 4.975400
14.065500 5.212800
14.084300 5.433000
14.103200 5.636100
14.122100 5.869000
14.140900 6.035400
14.159800 5.825300
14.178700 5.016600
14.197500 4.164100
14.216400 2.794400
14.235300 3.054100
14.254100 3.484500
14.273000 3.767100
14.291900 4.532700
14.310700 7.567300
14.329600 9.526600
14.348500 8.835200
14.367300 9.209400
14.386200 9.322400
14.405100 9.243900
14.423900 9.979200
14.442800 10.305700
14.461700 10.286100
14.480500 10.024200
14.499400 9.404900
14.518300 7.347300
14.537100 6.612600
14.556000 6.003400
14.574900 5.444000
14.593700 5.125400
14.612600 5.220200
14.631500 7.214100
14.650300 10.719000
14.669200 12.690700
14.688100 10.998300
14.706900 10.265500
14.725800 9.860700
14.744700 9.480000
14.763500 9.184400
14.782400 9.955700
14.801300 8.781700
14.820100 8.795900
14.839000 8.687300
14.857900 9.156600
14.876700 9.585400
14.895600 9.790200
14.914500 11.731100
14.933400 8.489100
14.952200 6.627900
14.971100 7.802100
14.990000 11.001400
15.008800 13.863200
15.027700 17.096200
15.046600 18.823600
15.065400 16.927700
15.084300 13.186500
15.103200 5.629200
15.122000 1.772300
15.140900 1.137500
15.159800 4.371900
15.178600 6.243700
15.197500 10.324400
15.216400 19.414500
15.235200 14.931100
15.254100 10.739700
15.273000 9.023600
15.291800 7.383000
15.310700 5.992200
15.329600 5.316500
15.348400 4.442900
15.367300 2.951500
15.386200 2.181700
15.405000 1.557700
15.423900 1.042800
15.442800 0.637000
15.461600 0.336300
15.480500 0.126500
15.499400 0.006500
15.518200 0.000000
15.537100 0.000000
15.556000 0.000000
15.574800 0.000000
15.593700 0.000000
15.612600 0.000000
15.631400 0.000000
15.650300 0.000000
15.669200 0.000000
15.688000 0.000000
15.706900 0.000000
15.725800 0.000000
15.744600 0.000000
15.763500 0.000000
15.782400 0.000000
15.801200 0.000000
15.820100 0.000000
15.839000 0.000000
15.857800 0.000000
15.876700 0.000000
15.895600 0.000000
15.914400 0.000000
15.933300 0.000000
15.952200 0.000000
15.971000 0.000000
15.989900 0.000000
16.008800 0.000000
16.027600 0.000000
16.046500 0.000000
16.065400 0.000000
16.084200 0.000000
16.103100 0.000000
16.122000 0.000000
16.140800 0.000000
16.159700 0.000000
16.178600 0.000000
16.197400 0.000000
16.216300 0.000000
16.235200 0.000000
16.254100 0.000000
16.272900 0.000000
16.291800 0.000000
16.310700 0.000000
16.329500 0.000000
16.348400 0.000000
16.367300 0.000000
16.386100 0.000000
16.405000 0.000000
16.423900 0.000000
16.442700 0.000000
16.461600 0.000000
16.480500 0.000000
16.499300 0.000000
16.518200 0.000000
16.537100 0.000000
16.555900 0.000000
16.574800 0.000000
16.593700 0.000000
16.612500 0.000000
16.631400 0.000000
16.650300 0.000000
16.669100 0.000000
16.688000 0.000000
16.706900 0.000000
16.725700 0.000000
16.744600 0.000000
16.763500 0.000000
16.782300 0.000000
16.801200 0.000000
16.820100 0.000000
16.838900 0.000000
16.857800 0.000000
16.876700 0.000000
16.895500 0.000000
16.914400 0.000000
16.933300 0.000000
16.952100 0.000000
16.971000 0.000000
16.989900 0.000000
17.008700 0.000000
17.027600 0.000000
17.046500 0.000000
17.065300 0.000000
17.084200 0.000000
17.103100 0.000000
17.121900 0.000000
17.140800 0.000000
17.159700 0.000000
17.178500 0.000000
17.197400 0.000000
17.216300 0.000000
e
