set title 'mp-571053 - Density of States'
set xlabel 'Energy (eV)'
set ylabel 'DOS (states/eV)'
set grid
set xrange [-10:10]
set yrange [0:23.950]
set xzeroaxis lt -1
set terminal png size 800,600
set output 'mp-571053_dos_gnuplot.png'
plot '-' using 1:2 with lines title 'DOS'
-28.776200 0.000000
-28.747800 0.000000
-28.719400 0.000000
-28.691000 0.000000
-28.662600 0.000000
-28.634200 0.000000
-28.605900 0.000000
-28.577500 0.000000
-28.549100 0.000000
-28.520700 0.000000
-28.492300 0.000000
-28.463900 0.000000
-28.435500 0.000000
-28.407100 0.000000
-28.378800 0.000000
-28.350400 0.000000
-28.322000 0.000000
-28.293600 0.000000
-28.265200 0.000000
-28.236800 0.000000
-28.208400 0.000000
-28.180000 0.000000
-28.151700 0.000000
-28.123300 0.000000
-28.094900 0.000000
-28.066500 0.000000
-28.038100 0.000000
-28.009700 0.000000
-27.981300 0.000000
-27.952900 0.000000
-27.924600 0.000000
-27.896200 0.000000
-27.867800 0.000000
-27.839400 0.000000
-27.811000 0.000000
-27.782600 0.000000
-27.754200 0.000000
-27.725900 0.000000
-27.697500 0.000000
-27.669100 0.000000
-27.640700 0.000000
-27.612300 0.000000
-27.583900 0.000000
-27.555500 0.000000
-27.527100 0.000000
-27.498800 0.000000
-27.470400 0.000000
-27.442000 0.000000
-27.413600 0.000000
-27.385200 0.000000
-27.356800 0.000000
-27.328400 0.000000
-27.300000 0.000000
-27.271700 0.000000
-27.243300 0.000000
-27.214900 0.000000
-27.186500 0.000000
-27.158100 0.000000
-27.129700 0.000000
-27.101300 0.000000
-27.072900 0.000000
-27.044600 0.000000
-27.016200 0.000000
-26.987800 0.000000
-26.959400 0.000000
-26.931000 0.000000
-26.902600 0.000000
-26.874200 0.000000
-26.845800 0.000000
-26.817500 0.000000
-26.789100 0.000000
-26.760700 0.000000
-26.732300 0.000000
-26.703900 0.000000
-26.675500 0.000000
-26.647100 0.000000
-26.618700 0.000000
-26.590400 0.000000
-26.562000 0.000000
-26.533600 0.000000
-26.505200 0.000000
-26.476800 0.000000
-26.448400 0.000000
-26.420000 0.000000
-26.391700 0.000000
-26.363300 0.000000
-26.334900 0.000000
-26.306500 0.000000
-26.278100 0.000000
-26.249700 0.000000
-26.221300 0.000000
-26.192900 0.000000
-26.164600 0.000000
-26.136200 0.000000
-26.107800 0.000000
-26.079400 0.000000
-26.051000 0.000000
-26.022600 0.000000
-25.994200 0.000000
-25.965800 0.000000
-25.937500 0.000000
-25.909100 0.000000
-25.880700 0.000000
-25.852300 0.000000
-25.823900 0.000000
-25.795500 0.000000
-25.767100 0.000000
-25.738700 0.000000
-25.710400 0.000000
-25.682000 0.000000
-25.653600 0.000000
-25.625200 0.000000
-25.596800 0.000000
-25.568400 0.000000
-25.540000 0.000000
-25.511600 0.000000
-25.483300 0.000000
-25.454900 0.000000
-25.426500 0.000000
-25.398100 0.000000
-25.369700 0.000000
-25.341300 0.000000
-25.312900 0.000000
-25.284500 0.000000
-25.256200 0.000000
-25.227800 0.000000
-25.199400 0.000000
-25.171000 0.000000
-25.142600 0.000000
-25.114200 0.000000
-25.085800 0.000000
-25.057500 0.000000
-25.029100 0.000000
-25.000700 0.000000
-24.972300 0.000000
-24.943900 0.000000
-24.915500 0.000000
-24.887100 0.000000
-24.858700 0.000000
-24.830400 0.000000
-24.802000 0.000000
-24.773600 0.000000
-24.745200 0.000000
-24.716800 0.000000
-24.688400 0.000000
-24.660000 0.000000
-24.631600 0.000000
-24.603300 0.000000
-24.574900 0.000000
-24.546500 0.000000
-24.518100 0.000000
-24.489700 0.000000
-24.461300 0.000000
-24.432900 0.000000
-24.404500 0.000000
-24.376200 0.000000
-24.347800 0.000000
-24.319400 0.000000
-24.291000 0.000000
-24.262600 0.000000
-24.234200 0.000000
-24.205800 0.000000
-24.177400 0.000000
-24.149100 0.000000
-24.120700 0.000000
-24.092300 0.000000
-24.063900 0.000000
-24.035500 0.000000
-24.007100 0.000000
-23.978700 0.000000
-23.950300 0.000000
-23.922000 0.000000
-23.893600 0.000000
-23.865200 0.000000
-23.836800 0.000000
-23.808400 0.000000
-23.780000 0.000000
-23.751600 0.000000
-23.723300 0.000000
-23.694900 0.000000
-23.666500 0.000000
-23.638100 0.000000
-23.609700 0.000000
-23.581300 0.000000
-23.552900 0.000000
-23.524500 0.000000
-23.496200 0.000000
-23.467800 0.000000
-23.439400 0.000000
-23.411000 0.000000
-23.382600 0.000000
-23.354200 0.000000
-23.325800 0.000000
-23.297400 0.000000
-23.269100 0.000000
-23.240700 0.000000
-23.212300 0.000000
-23.183900 0.000000
-23.155500 0.000000
-23.127100 0.000000
-23.098700 0.000000
-23.070300 0.000000
-23.042000 0.000000
-23.013600 0.000000
-22.985200 0.000000
-22.956800 0.000000
-22.928400 0.000000
-22.900000 0.000000
-22.871600 0.000000
-22.843200 0.000000
-22.814900 0.000000
-22.786500 0.000000
-22.758100 0.000000
-22.729700 0.000000
-22.701300 0.000000
-22.672900 0.000000
-22.644500 0.000000
-22.616100 0.000000
-22.587800 0.000000
-22.559400 0.000000
-22.531000 0.000000
-22.502600 0.000000
-22.474200 0.000000
-22.445800 0.000000
-22.417400 0.000000
-22.389100 0.000000
-22.360700 0.000000
-22.332300 0.000000
-22.303900 0.000000
-22.275500 0.000000
-22.247100 0.000000
-22.218700 0.000000
-22.190300 0.000000
-22.162000 0.000000
-22.133600 0.000000
-22.105200 0.000000
-22.076800 0.000000
-22.048400 0.000000
-22.020000 0.000000
-21.991600 0.000000
-21.963200 0.000000
-21.934900 0.000000
-21.906500 0.000000
-21.878100 0.000000
-21.849700 0.000000
-21.821300 0.000000
-21.792900 0.000000
-21.764500 0.000000
-21.736100 0.000000
-21.707800 0.000000
-21.679400 0.000000
-21.651000 0.000000
-21.622600 0.000000
-21.594200 0.000000
-21.565800 0.000000
-21.537400 0.000000
-21.509000 0.000000
-21.480700 0.000000
-21.452300 0.000000
-21.423900 0.000000
-21.395500 0.000000
-21.367100 0.000000
-21.338700 0.000000
-21.310300 0.000000
-21.282000 0.000000
-21.253600 0.000000
-21.225200 0.000000
-21.196800 0.000000
-21.168400 0.000000
-21.140000 0.000000
-21.111600 0.000000
-21.083200 0.000000
-21.054900 0.000000
-21.026500 0.000000
-20.998100 0.000000
-20.969700 0.000000
-20.941300 0.000000
-20.912900 0.000000
-20.884500 0.000000
-20.856100 0.000000
-20.827800 0.000000
-20.799400 0.000000
-20.771000 0.000000
-20.742600 0.000000
-20.714200 0.000000
-20.685800 0.000000
-20.657400 0.000000
-20.629000 0.000000
-20.600700 0.000000
-20.572300 0.000000
-20.543900 0.000000
-20.515500 0.000000
-20.487100 0.000000
-20.458700 0.000000
-20.430300 0.000000
-20.401900 0.000000
-20.373600 0.000000
-20.345200 0.000000
-20.316800 0.000000
-20.288400 0.000000
-20.260000 0.000000
-20.231600 0.000000
-20.203200 0.000000
-20.174800 0.000000
-20.146500 0.000000
-20.118100 0.000000
-20.089700 0.000000
-20.061300 0.000000
-20.032900 0.000000
-20.004500 0.000000
-19.976100 0.000000
-19.947800 0.000000
-19.919400 0.000000
-19.891000 0.000000
-19.862600 0.000000
-19.834200 0.000000
-19.805800 0.000000
-19.777400 0.000000
-19.749000 0.000000
-19.720700 0.000000
-19.692300 0.000000
-19.663900 0.000000
-19.635500 0.000000
-19.607100 0.000000
-19.578700 0.000000
-19.550300 0.000000
-19.521900 0.000000
-19.493600 0.000000
-19.465200 0.000000
-19.436800 0.000000
-19.408400 0.000000
-19.380000 0.000000
-19.351600 0.000000
-19.323200 0.000000
-19.294800 0.000000
-19.266500 0.000000
-19.238100 0.000000
-19.209700 0.000000
-19.181300 0.000000
-19.152900 0.000000
-19.124500 0.000000
-19.096100 0.000000
-19.067700 0.000000
-19.039400 0.000000
-19.011000 0.000000
-18.982600 0.000000
-18.954200 0.000000
-18.925800 0.000000
-18.897400 0.000000
-18.869000 0.000000
-18.840600 0.000000
-18.812300 0.000000
-18.783900 0.000000
-18.755500 0.000000
-18.727100 0.000000
-18.698700 0.000000
-18.670300 0.000000
-18.641900 0.000000
-18.613600 0.000000
-18.585200 0.000000
-18.556800 0.000000
-18.528400 0.000000
-18.500000 0.000000
-18.471600 0.000000
-18.443200 0.000000
-18.414800 0.000000
-18.386500 0.000000
-18.358100 0.000000
-18.329700 0.000000
-18.301300 0.000000
-18.272900 0.000000
-18.244500 0.000000
-18.216100 0.000000
-18.187700 0.000000
-18.159400 0.000000
-18.131000 0.000000
-18.102600 0.000000
-18.074200 0.000000
-18.045800 0.000000
-18.017400 0.000000
-17.989000 0.000000
-17.960600 0.000000
-17.932300 0.000000
-17.903900 0.000000
-17.875500 0.000000
-17.847100 0.000000
-17.818700 0.000000
-17.790300 0.000000
-17.761900 0.000000
-17.733500 0.000000
-17.705200 0.000000
-17.676800 0.000000
-17.648400 0.000000
-17.620000 0.000000
-17.591600 0.000000
-17.563200 0.000000
-17.534800 0.000000
-17.506400 0.000000
-17.478100 0.000000
-17.449700 0.000000
-17.421300 0.000000
-17.392900 0.000000
-17.364500 0.000000
-17.336100 0.000000
-17.307700 0.000000
-17.279400 0.000000
-17.251000 0.000000
-17.222600 0.000000
-17.194200 0.000000
-17.165800 0.000000
-17.137400 0.000000
-17.109000 0.000000
-17.080600 0.000000
-17.052300 0.000000
-17.023900 0.000000
-16.995500 0.000000
-16.967100 0.000000
-16.938700 0.000000
-16.910300 0.000000
-16.881900 0.000000
-16.853500 0.000000
-16.825200 0.000000
-16.796800 0.000000
-16.768400 0.000000
-16.740000 0.000000
-16.711600 0.000000
-16.683200 0.000000
-16.654800 0.000000
-16.626400 0.000000
-16.598100 0.000000
-16.569700 0.000000
-16.541300 0.000000
-16.512900 0.000000
-16.484500 0.000000
-16.456100 0.000000
-16.427700 0.000000
-16.399300 0.000000
-16.371000 0.000000
-16.342600 0.000000
-16.314200 0.000000
-16.285800 0.000000
-16.257400 0.000000
-16.229000 0.000000
-16.200600 0.000000
-16.172200 0.000000
-16.143900 0.000000
-16.115500 0.000000
-16.087100 0.000000
-16.058700 0.000000
-16.030300 0.000000
-16.001900 0.000000
-15.973500 0.000000
-15.945200 0.000000
-15.916800 0.000000
-15.888400 0.000000
-15.860000 0.000000
-15.831600 0.000000
-15.803200 0.000000
-15.774800 0.000000
-15.746400 0.000000
-15.718100 0.000000
-15.689700 0.000000
-15.661300 0.000000
-15.632900 0.000000
-15.604500 0.000000
-15.576100 0.000000
-15.547700 0.000000
-15.519300 0.000000
-15.491000 0.000000
-15.462600 0.000000
-15.434200 0.000000
-15.405800 0.000000
-15.377400 0.000000
-15.349000 0.000000
-15.320600 0.000000
-15.292200 0.000000
-15.263900 0.000000
-15.235500 0.000000
-15.207100 0.000000
-15.178700 0.000000
-15.150300 0.000000
-15.121900 0.000000
-15.093500 0.000000
-15.065100 0.000000
-15.036800 0.000000
-15.008400 0.000000
-14.980000 0.000000
-14.951600 0.000000
-14.923200 0.000000
-14.894800 0.000000
-14.866400 0.000000
-14.838100 0.000000
-14.809700 0.000000
-14.781300 0.000000
-14.752900 0.000000
-14.724500 0.000000
-14.696100 0.000000
-14.667700 0.000000
-14.639300 0.000000
-14.611000 0.000000
-14.582600 0.000000
-14.554200 0.000000
-14.525800 0.000000
-14.497400 0.000000
-14.469000 0.000000
-14.440600 0.000000
-14.412200 0.000000
-14.383900 0.000000
-14.355500 0.000000
-14.327100 0.000000
-14.298700 0.000000
-14.270300 0.000000
-14.241900 0.000000
-14.213500 0.000000
-14.185100 0.000000
-14.156800 0.000000
-14.128400 0.000000
-14.100000 0.000000
-14.071600 0.000000
-14.043200 0.000000
-14.014800 0.000000
-13.986400 0.000000
-13.958000 0.000000
-13.929700 0.000000
-13.901300 0.000000
-13.872900 0.000000
-13.844500 0.000000
-13.816100 0.000000
-13.787700 0.000000
-13.759300 0.000000
-13.730900 0.000000
-13.702600 0.000000
-13.674200 0.000000
-13.645800 0.000000
-13.617400 0.000000
-13.589000 0.000000
-13.560600 0.000000
-13.532200 0.000000
-13.503900 0.000000
-13.475500 0.000000
-13.447100 0.000000
-13.418700 0.000000
-13.390300 0.000000
-13.361900 0.000000
-13.333500 0.000000
-13.305100 0.000000
-13.276800 0.000000
-13.248400 0.000000
-13.220000 0.000000
-13.191600 0.000000
-13.163200 0.000000
-13.134800 0.000000
-13.106400 0.000000
-13.078000 0.000000
-13.049700 0.000000
-13.021300 0.000000
-12.992900 0.000000
-12.964500 0.000000
-12.936100 0.000000
-12.907700 0.000000
-12.879300 0.000000
-12.850900 0.000000
-12.822600 0.000000
-12.794200 0.000000
-12.765800 0.000000
-12.737400 0.000000
-12.709000 0.000000
-12.680600 0.000000
-12.652200 0.000000
-12.623800 0.000000
-12.595500 0.000000
-12.567100 0.000000
-12.538700 0.000000
-12.510300 0.000000
-12.481900 0.000000
-12.453500 0.000000
-12.425100 0.000000
-12.396700 0.000000
-12.368400 0.000000
-12.340000 0.000000
-12.311600 0.000000
-12.283200 0.000000
-12.254800 0.000000
-12.226400 0.000000
-12.198000 0.000000
-12.169700 0.000000
-12.141300 0.000000
-12.112900 0.000000
-12.084500 0.000000
-12.056100 0.000000
-12.027700 0.000000
-11.999300 0.000000
-11.970900 0.000000
-11.942600 0.000000
-11.914200 0.000000
-11.885800 0.000000
-11.857400 0.000000
-11.829000 0.000000
-11.800600 0.000000
-11.772200 0.000000
-11.743800 0.000000
-11.715500 0.000000
-11.687100 0.000000
-11.658700 0.000000
-11.630300 0.000000
-11.601900 0.000000
-11.573500 0.000000
-11.545100 0.000000
-11.516700 0.000000
-11.488400 0.000000
-11.460000 0.000000
-11.431600 0.000000
-11.403200 0.000000
-11.374800 0.000000
-11.346400 0.000000
-11.318000 0.000000
-11.289600 0.000000
-11.261300 0.000000
-11.232900 0.000000
-11.204500 0.000000
-11.176100 0.000000
-11.147700 0.000000
-11.119300 0.000000
-11.090900 0.000000
-11.062500 0.000000
-11.034200 0.000000
-11.005800 0.000000
-10.977400 0.000000
-10.949000 0.000000
-10.920600 0.000000
-10.892200 0.000000
-10.863800 0.000000
-10.835500 0.000000
-10.807100 0.000000
-10.778700 0.000000
-10.750300 0.000000
-10.721900 0.000000
-10.693500 0.000000
-10.665100 0.000000
-10.636700 0.000000
-10.608400 0.000000
-10.580000 0.000000
-10.551600 0.000000
-10.523200 0.000000
-10.494800 0.000000
-10.466400 0.000000
-10.438000 0.000000
-10.409600 0.000000
-10.381300 0.000000
-10.352900 0.000000
-10.324500 0.000000
-10.296100 0.000000
-10.267700 0.000000
-10.239300 0.000000
-10.210900 0.000000
-10.182500 0.000000
-10.154200 0.000000
-10.125800 0.000000
-10.097400 0.000000
-10.069000 0.000000
-10.040600 0.000000
-10.012200 0.000000
-9.983800 0.000000
-9.955400 0.000000
-9.927100 0.000000
-9.898700 0.000000
-9.870300 0.000000
-9.841900 0.000000
-9.813500 0.000000
-9.785100 0.000000
-9.756700 0.000000
-9.728300 0.000000
-9.700000 0.000000
-9.671600 0.000000
-9.643200 0.000000
-9.614800 0.000000
-9.586400 0.000000
-9.558000 0.000000
-9.529600 0.000000
-9.501300 0.000000
-9.472900 0.000000
-9.444500 0.000000
-9.416100 0.000000
-9.387700 0.000000
-9.359300 0.000000
-9.330900 0.000000
-9.302500 0.000000
-9.274200 0.000000
-9.245800 0.000000
-9.217400 0.000000
-9.189000 0.000000
-9.160600 0.000000
-9.132200 0.000000
-9.103800 0.000000
-9.075400 0.000000
-9.047100 0.000000
-9.018700 0.000000
-8.990300 0.000000
-8.961900 0.000000
-8.933500 0.000000
-8.905100 0.000000
-8.876700 0.000000
-8.848300 0.000000
-8.820000 0.000000
-8.791600 0.000000
-8.763200 0.000000
-8.734800 0.000000
-8.706400 0.000000
-8.678000 0.000000
-8.649600 0.000000
-8.621200 0.000000
-8.592900 0.000000
-8.564500 0.000000
-8.536100 0.000000
-8.507700 0.000000
-8.479300 0.000000
-8.450900 0.000000
-8.422500 0.000000
-8.394100 0.000000
-8.365800 0.000000
-8.337400 0.000000
-8.309000 0.000000
-8.280600 0.000000
-8.252200 0.000000
-8.223800 0.000000
-8.195400 0.000000
-8.167100 0.000000
-8.138700 0.000000
-8.110300 0.000000
-8.081900 0.000000
-8.053500 0.000000
-8.025100 0.000000
-7.996700 0.000000
-7.968300 0.000000
-7.940000 0.000000
-7.911600 0.000000
-7.883200 0.000000
-7.854800 0.000000
-7.826400 0.000000
-7.798000 0.000000
-7.769600 0.000000
-7.741200 0.000000
-7.712900 0.000000
-7.684500 0.000000
-7.656100 0.000000
-7.627700 0.000000
-7.599300 0.000000
-7.570900 0.000000
-7.542500 0.000000
-7.514100 0.000000
-7.485800 0.000000
-7.457400 0.000000
-7.429000 0.000000
-7.400600 0.000000
-7.372200 0.000000
-7.343800 0.000000
-7.315400 0.000000
-7.287000 0.000000
-7.258700 0.000000
-7.230300 0.000000
-7.201900 0.000000
-7.173500 0.000000
-7.145100 0.000000
-7.116700 0.000000
-7.088300 0.000000
-7.060000 0.000000
-7.031600 0.000000
-7.003200 0.000000
-6.974800 0.000000
-6.946400 0.000000
-6.918000 0.000000
-6.889600 0.000000
-6.861200 0.000000
-6.832900 0.000000
-6.804500 0.000000
-6.776100 0.000000
-6.747700 0.000000
-6.719300 0.000000
-6.690900 0.000000
-6.662500 0.000000
-6.634100 0.000000
-6.605800 0.000000
-6.577400 0.000000
-6.549000 0.000000
-6.520600 0.000000
-6.492200 0.000000
-6.463800 0.000000
-6.435400 0.000000
-6.407000 0.000000
-6.378700 0.000000
-6.350300 0.000000
-6.321900 0.000000
-6.293500 0.000000
-6.265100 0.000000
-6.236700 0.000000
-6.208300 0.000000
-6.179900 0.000000
-6.151600 0.000000
-6.123200 0.000000
-6.094800 0.000000
-6.066400 0.000000
-6.038000 0.000000
-6.009600 0.000000
-5.981200 0.000000
-5.952800 0.000000
-5.924500 0.000000
-5.896100 0.000000
-5.867700 0.000000
-5.839300 0.000000
-5.810900 0.000000
-5.782500 0.000000
-5.754100 0.000000
-5.725800 0.000000
-5.697400 0.000000
-5.669000 0.000000
-5.640600 0.000000
-5.612200 0.000000
-5.583800 0.000000
-5.555400 0.000000
-5.527000 0.000000
-5.498700 0.000000
-5.470300 0.000000
-5.441900 0.000000
-5.413500 0.000000
-5.385100 0.000000
-5.356700 0.000000
-5.328300 0.000000
-5.299900 0.000000
-5.271600 0.000000
-5.243200 0.000000
-5.214800 0.000000
-5.186400 0.000000
-5.158000 0.000000
-5.129600 0.000000
-5.101200 0.000000
-5.072800 0.000000
-5.044500 0.000000
-5.016100 0.000000
-4.987700 0.000000
-4.959300 0.000000
-4.930900 0.000000
-4.902500 0.000000
-4.874100 0.000000
-4.845700 0.000000
-4.817400 0.000000
-4.789000 0.000000
-4.760600 0.000000
-4.732200 0.000000
-4.703800 0.000000
-4.675400 0.000000
-4.647000 0.000000
-4.618600 0.000000
-4.590300 0.000000
-4.561900 0.000000
-4.533500 0.000000
-4.505100 0.000000
-4.476700 0.000000
-4.448300 0.000000
-4.419900 0.000000
-4.391600 0.000000
-4.363200 0.000000
-4.334800 0.000000
-4.306400 0.000000
-4.278000 0.000000
-4.249600 0.000000
-4.221200 0.000000
-4.192800 0.000000
-4.164500 0.000000
-4.136100 0.000000
-4.107700 0.000000
-4.079300 0.000000
-4.050900 0.000000
-4.022500 0.000000
-3.994100 0.000000
-3.965700 0.000000
-3.937400 0.000000
-3.909000 0.000000
-3.880600 0.000000
-3.852200 0.000000
-3.823800 0.000000
-3.795400 0.000000
-3.767000 0.000000
-3.738600 0.000000
-3.710300 0.000000
-3.681900 0.000000
-3.653500 0.000000
-3.625100 0.000000
-3.596700 0.000000
-3.568300 0.000000
-3.539900 0.000000
-3.511500 0.000000
-3.483200 0.000000
-3.454800 0.000000
-3.426400 0.000000
-3.398000 0.000000
-3.369600 0.000000
-3.341200 0.000000
-3.312800 0.000000
-3.284400 0.000000
-3.256100 0.000000
-3.227700 0.000000
-3.199300 0.000000
-3.170900 0.000000
-3.142500 0.000000
-3.114100 0.000000
-3.085700 0.000000
-3.057400 0.000000
-3.029000 0.000000
-3.000600 0.000000
-2.972200 0.000000
-2.943800 0.000000
-2.915400 0.000000
-2.887000 0.000000
-2.858600 0.000000
-2.830300 0.000000
-2.801900 0.000000
-2.773500 0.000000
-2.745100 0.000000
-2.716700 0.000000
-2.688300 0.000000
-2.659900 0.000000
-2.631500 0.000000
-2.603200 0.000000
-2.574800 0.000000
-2.546400 0.000000
-2.518000 0.000000
-2.489600 0.000000
-2.461200 0.000000
-2.432800 0.042300
-2.404400 0.129300
-2.376100 0.247900
-2.347700 0.379500
-2.319300 0.440100
-2.290900 0.442800
-2.262500 0.487500
-2.234100 0.527000
-2.205700 0.559300
-2.177300 0.598700
-2.149000 0.641300
-2.120600 0.685200
-2.092200 0.730300
-2.063800 0.778400
-2.035400 0.820000
-2.007000 0.855000
-1.978600 0.876700
-1.950200 0.885500
-1.921900 0.883900
-1.893500 0.875300
-1.865100 0.866100
-1.836700 0.876000
-1.808300 1.074100
-1.779900 1.021100
-1.751500 1.044700
-1.723200 1.068200
-1.694800 1.091500
-1.666400 1.112800
-1.638000 1.134400
-1.609600 1.158000
-1.581200 1.184100
-1.552800 1.205100
-1.524400 1.221800
-1.496100 1.245100
-1.467700 1.269600
-1.439300 1.290800
-1.410900 1.311500
-1.382500 1.333200
-1.354100 1.354500
-1.325700 1.375200
-1.297300 1.395700
-1.269000 1.416800
-1.240600 1.437900
-1.212200 1.458500
-1.183800 1.478800
-1.155400 1.499400
-1.127000 1.520500
-1.098600 1.544700
-1.070200 1.569900
-1.041900 1.595400
-1.013500 1.619900
-0.985100 1.645000
-0.956700 1.670700
-0.928300 1.700400
-0.899900 1.732100
-0.871500 1.765900
-0.843100 1.802700
-0.814800 1.859700
-0.786400 1.951900
-0.758000 2.101800
-0.729600 2.213100
-0.701200 2.284600
-0.672800 2.323400
-0.644400 2.354000
-0.616000 2.408700
-0.587700 2.445000
-0.559300 2.431300
-0.530900 2.390700
-0.502500 2.302100
-0.474100 2.144700
-0.445700 1.980400
-0.417300 1.839000
-0.389000 1.718300
-0.360600 1.715000
-0.332200 1.734800
-0.303800 1.752900
-0.275400 1.768000
-0.247000 1.780100
-0.218600 1.789400
-0.190200 1.796800
-0.161900 1.803800
-0.133500 1.811000
-0.105100 2.812600
-0.076700 2.258900
-0.048300 1.859100
-0.019900 2.034900
0.008500 2.199900
0.036900 2.305300
0.065200 2.348500
0.093600 2.328500
0.122000 2.196700
0.150400 2.136100
0.178800 2.042200
0.207200 1.980600
0.235600 2.135100
0.264000 1.887200
0.292300 1.718300
0.320700 1.757900
0.349100 1.801200
0.377500 1.858100
0.405900 1.877100
0.434300 1.859300
0.462700 1.899800
0.491100 1.944200
0.519400 2.085900
0.547800 2.281700
0.576200 2.545700
0.604600 2.877200
0.633000 2.942700
0.661400 3.122600
0.689800 2.847000
0.718100 2.944700
0.746500 3.053200
0.774900 3.139400
0.803300 3.216600
0.831700 3.246100
0.860100 3.213400
0.888500 3.146200
0.916900 2.952500
0.945200 2.549000
0.973600 3.228500
1.002000 2.789900
1.030400 2.602000
1.058800 2.461700
1.087200 2.405900
1.115600 2.495400
1.144000 2.575500
1.172300 2.628200
1.200700 2.699600
1.229100 2.806800
1.257500 2.878300
1.285900 2.853000
1.314300 2.902400
1.342700 3.052500
1.371100 3.133000
1.399400 3.131400
1.427800 3.092800
1.456200 2.953400
1.484600 2.815900
1.513000 2.800900
1.541400 2.822600
1.569800 2.851000
1.598200 2.898700
1.626500 2.969200
1.654900 3.033800
1.683300 3.068900
1.711700 3.411100
1.740100 2.936500
1.768500 2.877300
1.796900 2.936900
1.825300 2.995800
1.853600 3.015700
1.882000 2.951400
1.910400 2.865400
1.938800 2.862000
1.967200 2.949100
1.995600 2.982400
2.024000 2.940900
2.052300 2.832900
2.080700 2.714400
2.109100 2.612000
2.137500 2.510000
2.165900 2.452300
2.194300 2.534200
2.222700 2.457200
2.251100 2.514800
2.279400 2.576400
2.307800 2.633500
2.336200 2.679200
2.364600 2.711600
2.393000 2.778000
2.421400 3.212800
2.449800 3.012800
2.478200 2.918200
2.506500 2.890000
2.534900 2.902500
2.563300 2.940800
2.591700 2.995300
2.620100 3.046600
2.648500 3.057400
2.676900 3.029500
2.705300 3.013200
2.733600 3.000000
2.762000 2.984900
2.790400 2.984000
2.818800 2.972000
2.847200 2.985600
2.875600 3.036000
2.904000 3.124900
2.932400 3.218500
2.960700 3.287800
2.989100 3.400900
3.017500 3.549600
3.045900 3.687800
3.074300 3.826900
3.102700 4.204900
3.131100 4.384900
3.159500 4.044700
3.187800 3.777100
3.216200 3.540900
3.244600 3.659700
3.273000 3.738400
3.301400 3.819400
3.329800 3.973300
3.358200 3.979300
3.386500 4.057800
3.414900 4.058000
3.443300 3.949600
3.471700 3.746500
3.500100 3.696200
3.528500 3.689600
3.556900 3.684200
3.585300 3.699900
3.613600 4.038000
3.642000 4.126600
3.670400 4.216900
3.698800 4.329800
3.727200 4.561600
3.755600 4.979600
3.784000 4.605700
3.812400 4.134200
3.840700 3.932400
3.869100 3.876800
3.897500 3.914400
3.925900 3.987900
3.954300 3.813300
3.982700 3.762800
4.011100 3.851700
4.039500 3.939300
4.067800 4.024800
4.096200 4.096100
4.124600 4.103100
4.153000 4.070300
4.181400 3.988600
4.209800 3.888600
4.238200 3.778000
4.266600 3.673700
4.294900 3.593100
4.323300 3.593400
4.351700 3.695700
4.380100 3.890600
4.408500 4.195400
4.436900 4.691300
4.465300 5.140200
4.493700 5.524200
4.522000 5.704500
4.550400 5.837800
4.578800 6.001600
4.607200 6.624300
4.635600 6.800300
4.664000 6.402900
4.692400 5.026800
4.720700 4.848500
4.749100 4.850900
4.777500 4.731100
4.805900 4.413700
4.834300 4.271200
4.862700 4.106500
4.891100 3.668400
4.919500 3.216500
4.947800 2.747800
4.976200 2.435600
5.004600 2.249000
5.033000 2.170800
5.061400 2.171200
5.089800 2.274600
5.118200 2.413500
5.146600 2.232700
5.174900 2.706100
5.203300 3.522000
5.231700 5.652100
5.260100 4.811100
5.288500 5.510000
5.316900 5.955000
5.345300 6.390500
5.373700 6.696000
5.402000 7.068000
5.430400 6.445500
5.458800 5.893500
5.487200 5.912500
5.515600 5.975200
5.544000 6.549000
5.572400 7.243500
5.600800 7.985400
5.629100 7.663800
5.657500 8.862200
5.685900 7.964800
5.714300 7.372400
5.742700 6.429000
5.771100 5.431900
5.799500 4.744000
5.827900 4.560000
5.856200 6.194900
5.884600 6.047300
5.913000 6.790900
5.941400 7.982100
5.969800 6.338900
5.998200 5.887200
6.026600 7.298200
6.054900 6.121600
6.083300 5.508300
6.111700 5.911300
6.140100 7.230000
6.168500 7.614300
6.196900 9.163400
6.225300 9.302700
6.253700 7.831400
6.282000 6.442900
6.310400 6.169800
6.338800 5.418500
6.367200 5.047200
6.395600 4.908000
6.424000 4.961700
6.452400 4.788000
6.480800 6.657100
6.509100 8.447600
6.537500 9.528500
6.565900 7.335700
6.594300 6.476400
6.622700 5.739200
6.651100 5.051400
6.679500 4.497400
6.707900 4.499600
6.736200 5.285500
6.764600 7.441900
6.793000 10.854500
6.821400 13.156700
6.849800 13.856300
6.878200 9.993500
6.906600 7.488800
6.935000 8.502800
6.963300 13.693100
6.991700 11.389200
7.020100 13.777600
7.048500 12.475100
7.076900 7.353900
7.105300 6.483900
7.133700 6.438600
7.162100 9.420200
7.190400 21.772800
7.218800 15.553300
7.247200 14.242800
7.275600 14.600900
7.304000 15.664300
7.332400 15.718300
7.360800 13.009700
7.389100 7.595300
7.417500 5.414000
7.445900 4.484600
7.474300 5.638900
7.502700 6.825000
7.531100 4.788100
7.559500 4.707300
7.587900 5.200100
7.616200 4.221700
7.644600 3.579000
7.673000 3.439900
7.701400 3.380900
7.729800 3.333600
7.758200 3.335000
7.786600 3.365400
7.815000 3.462500
7.843300 3.495200
7.871700 3.476200
7.900100 3.397900
7.928500 3.224200
7.956900 3.058800
7.985300 2.889800
8.013700 2.696600
8.042100 2.511300
8.070400 2.407100
8.098800 2.348900
8.127200 2.350300
8.155600 2.235400
8.184000 2.164100
8.212400 1.999200
8.240800 1.803400
8.269200 1.667700
8.297500 1.588300
8.325900 1.656500
8.354300 1.743000
8.382700 1.808300
8.411100 1.863800
8.439500 2.034400
8.467900 2.258100
8.496200 2.359700
8.524600 2.398600
8.553000 2.379500
8.581400 2.357200
8.609800 2.382700
8.638200 2.434900
8.666600 2.647700
8.695000 3.259400
8.723300 3.906000
8.751700 3.688400
8.780100 3.853700
8.808500 3.972400
8.836900 3.963700
8.865300 4.807600
8.893700 5.598700
8.922100 5.459600
8.950400 4.616500
8.978800 4.542300
9.007200 4.553700
9.035600 4.610600
9.064000 4.759700
9.092400 4.906100
9.120800 5.533900
9.149200 5.251000
9.177500 4.913800
9.205900 4.756800
9.234300 4.630300
9.262700 4.293600
9.291100 3.963200
9.319500 3.728800
9.347900 3.551600
9.376300 3.409100
9.404600 3.520700
9.433000 3.645800
9.461400 3.733800
9.489800 3.862000
9.518200 4.155300
9.546600 4.683200
9.575000 5.673100
9.603400 6.788000
9.631700 9.465400
9.660100 8.408300
9.688500 8.416600
9.716900 7.865700
9.745300 7.118400
9.773700 6.513600
9.802100 6.418500
9.830400 6.655300
9.858800 8.676600
9.887200 9.450400
9.915600 7.609200
9.944000 6.154100
9.972400 6.238500
10.000800 6.478900
10.029200 5.709400
10.057500 4.859000
10.085900 5.039300
10.114300 5.762200
10.142700 5.614400
10.171100 5.992500
10.199500 6.180000
10.227900 6.498100
10.256300 7.674400
10.284600 12.009600
10.313000 8.660600
10.341400 9.075800
10.369800 4.635100
10.398200 5.463100
10.426600 7.011100
10.455000 8.431300
10.483400 7.970000
10.511700 7.484100
10.540100 7.107600
10.568500 7.965600
10.596900 8.204600
10.625300 8.101200
10.653700 8.662000
10.682100 8.567100
10.710500 8.822900
10.738800 8.618100
10.767200 6.987500
10.795600 5.439300
10.824000 5.074300
10.852400 6.099100
10.880800 7.200300
10.909200 8.859800
10.937600 9.251400
10.965900 9.596400
10.994300 5.923200
11.022700 5.086500
11.051100 5.257500
11.079500 5.984500
11.107900 8.814900
11.136300 9.275200
11.164600 9.412100
11.193000 8.747000
11.221400 7.768200
11.249800 7.176900
11.278200 6.966000
11.306600 6.027000
11.335000 5.723900
11.363400 5.244800
11.391700 4.785500
11.420100 5.048900
11.448500 5.001800
11.476900 5.057700
11.505300 5.362200
11.533700 5.734700
11.562100 6.087600
11.590500 6.404300
11.618800 6.722600
11.647200 7.993000
11.675600 7.381900
11.704000 7.092200
11.732400 7.301000
11.760800 8.248800
11.789200 7.720400
11.817600 8.786400
11.845900 8.066400
11.874300 6.791100
11.902700 5.373600
11.931100 5.041800
11.959500 4.962200
11.987900 4.952100
12.016300 4.971300
12.044700 5.338700
12.073000 5.195500
12.101400 5.049200
12.129800 5.011100
12.158200 5.118500
12.186600 5.468400
12.215000 6.053800
12.243400 6.652200
12.271800 6.231300
12.300100 5.858200
12.328500 5.724400
12.356900 5.467700
12.385300 5.150800
12.413700 5.255800
12.442100 5.466100
12.470500 5.331000
12.498800 5.876900
12.527200 6.668400
12.555600 6.602000
12.584000 6.532200
12.612400 6.458300
12.640800 5.815000
12.669200 5.503400
12.697600 5.307300
12.725900 5.244300
12.754300 5.341000
12.782700 4.684900
12.811100 4.069300
12.839500 3.982500
12.867900 4.262100
12.896300 4.993400
12.924700 6.907700
12.953000 9.044200
12.981400 7.781100
13.009800 6.586400
13.038200 6.303700
13.066600 5.783200
13.095000 5.176100
13.123400 4.415600
13.151800 4.391400
13.180100 4.353600
13.208500 4.458500
13.236900 4.886500
13.265300 5.297200
13.293700 5.130600
13.322100 4.956800
13.350500 4.968100
13.378900 5.097100
13.407200 5.262100
13.435600 5.569000
13.464000 5.856200
13.492400 6.184500
13.520800 6.689700
13.549200 7.102700
13.577600 6.435600
13.606000 6.272800
13.634300 5.454800
13.662700 4.765400
13.691100 3.958800
13.719500 3.879900
13.747900 4.445800
13.776300 5.362200
13.804700 6.246500
13.833000 5.504800
13.861400 5.389200
13.889800 5.371600
13.918200 5.486700
13.946600 5.917300
13.975000 6.307400
14.003400 6.197300
14.031800 6.262900
14.060100 5.823700
14.088500 5.687700
14.116900 5.486700
14.145300 5.326100
14.173700 5.200300
14.202100 5.098000
14.230500 5.074000
14.258900 5.451100
14.287200 6.108700
14.315600 5.989700
14.344000 5.728000
14.372400 5.705900
14.400800 5.677500
14.429200 5.364500
14.457600 5.042500
14.486000 4.760300
14.514300 4.620600
14.542700 4.709100
14.571100 5.328900
14.599500 6.111900
14.627900 6.360200
14.656300 6.430500
14.684700 6.962800
14.713100 7.345200
14.741400 6.880500
14.769800 6.514700
14.798200 6.271900
14.826600 5.822100
14.855000 5.761900
14.883400 6.072600
14.911800 6.937900
14.940200 8.107900
14.968500 8.277500
14.996900 8.249700
15.025300 8.347300
15.053700 8.315600
15.082100 7.750000
15.110500 7.505900
15.138900 7.113300
15.167200 7.010200
15.195600 7.408500
15.224000 6.457200
15.252400 7.430500
15.280800 7.511400
15.309200 7.243200
15.337600 7.375700
15.366000 7.468900
15.394300 7.431200
15.422700 7.512600
15.451100 7.151300
15.479500 6.218800
15.507900 6.075200
15.536300 5.457900
15.564700 4.973900
15.593100 4.692100
15.621400 4.324200
15.649800 4.172100
15.678200 4.249500
15.706600 4.515300
15.735000 5.610500
15.763400 6.978700
15.791800 6.738800
15.820200 6.757700
15.848500 7.554600
15.876900 7.872600
15.905300 7.001400
15.933700 6.644300
15.962100 5.996000
15.990500 5.871600
16.018900 5.889000
16.047300 6.140700
16.075600 6.923300
16.104000 7.267400
16.132400 7.427800
16.160800 6.987000
16.189200 7.194100
16.217600 7.559400
16.246000 7.760400
16.274300 6.831100
16.302700 6.236000
16.331100 6.105300
16.359500 6.091000
16.387900 6.113600
16.416300 6.245600
16.444700 5.688500
16.473100 5.084000
16.501400 4.823000
16.529800 4.729800
16.558200 4.857500
16.586600 5.108800
16.615000 7.097300
16.643400 9.039300
16.671800 8.896900
16.700200 6.482100
16.728500 5.870400
16.756900 5.851000
16.785300 6.379700
16.813700 7.315300
16.842100 8.735700
16.870500 7.107000
16.898900 5.879200
16.927300 5.281100
16.955600 5.373100
16.984000 4.965800
17.012400 4.887400
17.040800 5.254000
17.069200 5.513400
17.097600 5.470700
17.126000 5.080500
17.154400 4.679400
17.182700 4.625400
17.211100 4.697400
17.239500 4.786200
17.267900 4.867700
17.296300 5.015800
17.324700 5.125500
17.353100 5.141400
17.381500 5.168700
17.409800 5.203200
17.438200 5.177900
17.466600 4.996600
17.495000 5.796400
17.523400 5.332700
17.551800 6.144000
17.580200 5.956100
17.608500 5.930200
17.636900 6.441300
17.665300 7.161600
17.693700 6.767900
17.722100 7.242700
17.750500 7.683300
17.778900 7.420400
17.807300 6.845000
17.835600 6.549100
17.864000 6.528300
17.892400 6.354700
17.920800 6.638300
17.949200 6.497900
17.977600 6.792600
18.006000 7.324900
18.034400 7.078600
18.062700 7.200700
18.091100 7.151600
18.119500 6.599600
18.147900 6.422200
18.176300 6.056700
18.204700 6.017500
18.233100 6.258400
18.261500 6.566800
18.289800 6.599600
18.318200 6.426300
18.346600 6.142700
18.375000 6.372500
18.403400 6.348400
18.431800 6.146300
18.460200 6.406200
18.488600 6.330200
18.516900 6.384200
18.545300 6.682900
18.573700 7.346100
18.602100 8.182700
18.630500 8.133700
18.658900 8.027700
18.687300 7.978200
18.715700 7.806800
18.744000 8.243000
18.772400 7.655500
18.800800 7.345100
18.829200 7.018500
18.857600 6.901200
18.886000 7.338100
18.914400 7.219000
18.942700 6.956400
18.971100 6.465600
18.999500 6.194800
19.027900 6.259200
19.056300 6.330800
19.084700 6.385100
19.113100 6.352600
19.141500 6.262700
19.169800 6.261800
19.198200 6.155300
19.226600 6.009200
19.255000 5.795000
19.283400 5.761000
19.311800 5.854400
19.340200 5.969800
19.368600 6.046400
19.396900 6.095000
19.425300 6.046900
19.453700 5.994700
19.482100 6.023300
19.510500 6.121200
19.538900 6.271300
19.567300 6.153400
19.595700 6.126800
19.624000 6.245800
19.652400 6.681100
19.680800 7.209500
19.709200 7.157800
19.737600 6.679600
19.766000 6.384800
19.794400 6.290300
19.822800 6.239800
19.851100 6.271000
19.879500 6.375000
19.907900 6.225800
19.936300 6.204300
19.964700 6.324800
19.993100 6.625900
20.021500 7.334100
20.049900 7.768400
20.078200 7.874800
20.106600 7.948400
20.135000 8.276200
20.163400 8.150000
20.191800 8.531700
20.220200 8.628600
20.248600 8.703300
20.276900 8.212900
20.305300 7.774500
20.333700 7.537600
20.362100 7.895400
20.390500 7.609700
20.418900 7.431700
20.447300 7.422500
20.475700 7.533400
20.504000 7.568500
20.532400 7.469800
20.560800 7.214400
20.589200 7.070200
20.617600 6.842700
20.646000 6.649500
20.674400 6.426900
20.702800 6.262500
20.731100 6.029800
20.759500 5.905100
20.787900 5.859800
20.816300 5.834200
20.844700 5.766000
20.873100 6.080800
20.901500 5.920700
20.929900 5.848600
20.958200 6.325300
20.986600 6.208100
21.015000 6.142100
21.043400 6.125700
21.071800 6.139800
21.100200 6.190300
21.128600 6.393300
21.157000 6.361400
21.185300 6.579500
21.213700 7.149800
21.242100 6.845700
21.270500 7.140600
21.298900 6.941400
21.327300 6.799200
21.355700 6.777400
21.384100 7.587600
21.412400 7.740700
21.440800 7.585900
21.469200 7.088600
21.497600 6.903600
21.526000 7.034600
21.554400 8.349000
21.582800 8.174700
21.611100 7.943000
21.639500 8.337300
21.667900 9.589900
21.696300 9.130500
21.724700 7.340100
21.753100 6.093300
21.781500 5.845600
21.809900 6.122200
21.838200 6.786400
21.866600 6.646600
21.895000 7.019300
21.923400 7.909900
21.951800 8.209200
21.980200 8.209500
22.008600 7.578900
22.037000 7.392500
22.065300 7.225900
22.093700 7.301300
22.122100 7.179800
22.150500 7.105400
22.178900 6.925000
22.207300 6.701800
22.235700 6.633800
22.264100 6.725900
22.292400 6.536600
22.320800 6.383700
22.349200 6.651900
22.377600 7.817300
22.406000 6.997800
22.434400 6.791000
22.462800 6.727900
22.491200 6.592800
22.519500 6.356500
22.547900 6.617600
22.576300 6.603500
22.604700 6.934100
22.633100 6.808200
22.661500 6.642100
22.689900 6.503200
22.718200 6.477600
22.746600 7.448000
22.775000 7.884100
22.803400 8.341500
22.831800 8.022400
22.860200 7.304500
22.888600 7.286900
22.917000 7.379700
22.945300 8.040500
22.973700 8.185000
23.002100 7.065800
23.030500 6.878200
23.058900 7.059700
23.087300 7.009100
23.115700 7.268600
23.144100 7.409400
23.172400 7.145600
23.200800 6.949200
23.229200 7.381500
23.257600 7.556400
23.286000 7.534900
23.314400 7.713900
23.342800 7.263200
23.371200 6.864900
23.399500 6.701600
23.427900 6.827900
23.456300 6.592100
23.484700 6.064800
23.513100 5.678200
23.541500 5.456300
23.569900 5.592200
23.598300 5.775900
23.626600 6.381800
23.655000 7.158400
23.683400 7.792400
23.711800 7.988100
23.740200 7.816500
23.768600 7.800800
23.797000 7.965200
23.825400 8.249400
23.853700 8.724700
23.882100 8.710400
23.910500 8.560400
23.938900 8.740400
23.967300 7.753000
23.995700 6.720200
24.024100 6.199800
24.052400 6.347300
24.080800 6.632600
24.109200 6.843500
24.137600 7.021000
24.166000 7.182600
24.194400 7.071800
24.222800 7.594800
24.251200 6.699100
24.279500 6.678200
24.307900 6.918600
24.336300 7.240700
24.364700 7.088500
24.393100 7.739000
24.421500 6.661000
24.449900 6.590400
24.478300 6.904000
24.506600 7.668900
24.535000 8.625300
24.563400 6.924000
24.591800 6.203200
24.620200 6.210400
24.648600 6.092600
24.677000 6.868200
24.705400 7.516600
24.733700 7.103300
24.762100 7.071800
24.790500 7.766000
24.818900 9.060900
24.847300 8.423000
24.875700 7.125200
24.904100 5.723400
24.932500 4.849000
24.960800 4.272200
24.989200 3.782300
25.017600 3.658900
25.046000 3.507800
25.074400 2.620300
25.102800 1.714600
25.131200 1.090400
25.159600 0.775900
25.187900 0.600200
25.216300 0.485700
25.244700 0.370500
25.273100 0.226600
25.301500 0.113100
25.329900 0.071700
25.358300 0.039400
25.386600 0.015800
25.415000 0.000900
25.443400 0.000000
25.471800 0.000000
25.500200 0.000000
25.528600 0.000000
25.557000 0.000000
25.585400 0.000000
25.613700 0.000000
25.642100 0.000000
25.670500 0.000000
25.698900 0.000000
25.727300 0.000000
25.755700 0.000000
25.784100 0.000000
25.812500 0.000000
25.840800 0.000000
25.869200 0.000000
25.897600 0.000000
25.926000 0.000000
25.954400 0.000000
25.982800 0.000000
26.011200 0.000000
26.039600 0.000000
26.067900 0.000000
26.096300 0.000000
26.124700 0.000000
26.153100 0.000000
26.181500 0.000000
26.209900 0.000000
26.238300 0.000000
26.266700 0.000000
26.295000 0.000000
26.323400 0.000000
26.351800 0.000000
26.380200 0.000000
26.408600 0.000000
26.437000 0.000000
26.465400 0.000000
26.493800 0.000000
26.522100 0.000000
26.550500 0.000000
26.578900 0.000000
26.607300 0.000000
26.635700 0.000000
26.664100 0.000000
26.692500 0.000000
26.720800 0.000000
26.749200 0.000000
26.777600 0.000000
26.806000 0.000000
26.834400 0.000000
26.862800 0.000000
26.891200 0.000000
26.919600 0.000000
26.947900 0.000000
26.976300 0.000000
27.004700 0.000000
27.033100 0.000000
27.061500 0.000000
27.089900 0.000000
27.118300 0.000000
27.146700 0.000000
27.175000 0.000000
27.203400 0.000000
27.231800 0.000000
27.260200 0.000000
27.288600 0.000000
27.317000 0.000000
27.345400 0.000000
27.373800 0.000000
27.402100 0.000000
27.430500 0.000000
27.458900 0.000000
27.487300 0.000000
27.515700 0.000000
27.544100 0.000000
27.572500 0.000000
27.600900 0.000000
27.629200 0.000000
27.657600 0.000000
27.686000 0.000000
27.714400 0.000000
27.742800 0.000000
27.771200 0.000000
27.799600 0.000000
27.828000 0.000000
27.856300 0.000000
27.884700 0.000000
27.913100 0.000000
27.941500 0.000000
27.969900 0.000000
27.998300 0.000000
e
