set title 'mp-673644 - Density of States'
set xlabel 'Energy (eV)'
set ylabel 'DOS (states/eV)'
set grid
set xrange [-10:10]
set yrange [0:146.099]
set xzeroaxis lt -1
set terminal png size 800,600
set output 'mp-673644_dos_gnuplot.png'
plot '-' using 1:2 with lines title 'DOS'
-19.559900 0.000000
-19.543100 0.000000
-19.526300 0.000000
-19.509500 0.000000
-19.492700 0.000000
-19.475900 0.000000
-19.459100 0.000000
-19.442300 0.000000
-19.425500 0.000000
-19.408700 0.000000
-19.391900 0.000000
-19.375000 0.000000
-19.358200 0.000000
-19.341400 0.000000
-19.324600 0.000000
-19.307800 0.000000
-19.291000 0.000000
-19.274200 0.000000
-19.257400 0.000000
-19.240600 0.000000
-19.223800 0.000000
-19.207000 0.000000
-19.190200 0.000000
-19.173400 0.000000
-19.156500 0.000000
-19.139700 0.000000
-19.122900 0.000000
-19.106100 0.000000
-19.089300 0.000000
-19.072500 0.000000
-19.055700 0.000000
-19.038900 0.000000
-19.022100 0.000000
-19.005300 0.000000
-18.988500 0.000000
-18.971700 0.000000
-18.954900 0.000000
-18.938100 0.000000
-18.921200 0.000000
-18.904400 0.000000
-18.887600 0.000000
-18.870800 0.000000
-18.854000 0.000000
-18.837200 0.000000
-18.820400 0.000000
-18.803600 0.000000
-18.786800 0.000000
-18.770000 0.000000
-18.753200 0.000000
-18.736400 0.000000
-18.719600 0.000000
-18.702700 0.000000
-18.685900 0.000000
-18.669100 0.000000
-18.652300 0.000000
-18.635500 0.000000
-18.618700 0.000000
-18.601900 0.000000
-18.585100 0.000000
-18.568300 0.000000
-18.551500 0.000000
-18.534700 0.000000
-18.517900 0.000000
-18.501100 0.000000
-18.484200 0.000000
-18.467400 0.000000
-18.450600 0.000000
-18.433800 0.000000
-18.417000 0.000000
-18.400200 0.000000
-18.383400 0.000000
-18.366600 0.000000
-18.349800 0.000000
-18.333000 0.000000
-18.316200 0.000000
-18.299400 0.000000
-18.282600 0.000000
-18.265800 0.000000
-18.248900 0.000000
-18.232100 0.000000
-18.215300 0.000000
-18.198500 0.000000
-18.181700 0.000000
-18.164900 0.000000
-18.148100 0.000000
-18.131300 0.000000
-18.114500 0.000000
-18.097700 0.000000
-18.080900 0.000000
-18.064100 0.000000
-18.047300 0.000000
-18.030400 131.867800
-18.013600 0.000000
-17.996800 150.893600
-17.980000 140.636200
-17.963200 228.463200
-17.946400 685.090200
-17.929600 415.523000
-17.912800 40.797400
-17.896000 201.279900
-17.879200 145.737500
-17.862400 391.734700
-17.845600 470.179900
-17.828800 745.182800
-17.812000 71.141900
-17.795100 0.000000
-17.778300 0.000000
-17.761500 141.757200
-17.744700 0.000000
-17.727900 636.657000
-17.711100 113.250400
-17.694300 132.726700
-17.677500 155.771000
-17.660700 725.721400
-17.643900 209.778500
-17.627100 494.326500
-17.610300 0.000000
-17.593500 0.000000
-17.576600 0.000000
-17.559800 0.000000
-17.543000 0.000000
-17.526200 0.000000
-17.509400 0.000000
-17.492600 0.000000
-17.475800 0.000000
-17.459000 0.000000
-17.442200 0.000000
-17.425400 0.000000
-17.408600 0.000000
-17.391800 0.000000
-17.375000 0.000000
-17.358200 0.000000
-17.341300 0.000000
-17.324500 0.000000
-17.307700 0.000000
-17.290900 0.000000
-17.274100 0.000000
-17.257300 0.000000
-17.240500 0.000000
-17.223700 0.000000
-17.206900 0.000000
-17.190100 0.000000
-17.173300 0.000000
-17.156500 0.000000
-17.139700 0.000000
-17.122800 0.000000
-17.106000 0.000000
-17.089200 0.000000
-17.072400 0.000000
-17.055600 0.000000
-17.038800 0.000000
-17.022000 0.000000
-17.005200 0.000000
-16.988400 0.000000
-16.971600 0.000000
-16.954800 0.000000
-16.938000 0.000000
-16.921200 0.000000
-16.904300 0.000000
-16.887500 0.000000
-16.870700 0.000000
-16.853900 0.000000
-16.837100 0.000000
-16.820300 0.000000
-16.803500 0.000000
-16.786700 0.000000
-16.769900 0.000000
-16.753100 0.000000
-16.736300 0.000000
-16.719500 0.000000
-16.702700 0.000000
-16.685900 0.000000
-16.669000 0.000000
-16.652200 0.000000
-16.635400 0.000000
-16.618600 0.000000
-16.601800 0.000000
-16.585000 0.000000
-16.568200 0.000000
-16.551400 0.000000
-16.534600 0.000000
-16.517800 0.000000
-16.501000 0.000000
-16.484200 0.000000
-16.467400 0.000000
-16.450500 0.000000
-16.433700 0.000000
-16.416900 0.000000
-16.400100 0.000000
-16.383300 0.000000
-16.366500 0.000000
-16.349700 0.000000
-16.332900 0.000000
-16.316100 0.000000
-16.299300 0.000000
-16.282500 0.000000
-16.265700 0.000000
-16.248900 0.000000
-16.232100 0.000000
-16.215200 0.000000
-16.198400 0.000000
-16.181600 0.000000
-16.164800 0.000000
-16.148000 0.000000
-16.131200 0.000000
-16.114400 0.000000
-16.097600 0.000000
-16.080800 0.000000
-16.064000 0.000000
-16.047200 0.000000
-16.030400 0.000000
-16.013600 0.000000
-15.996700 0.000000
-15.979900 0.000000
-15.963100 0.000000
-15.946300 0.000000
-15.929500 0.000000
-15.912700 0.000000
-15.895900 0.000000
-15.879100 0.000000
-15.862300 0.000000
-15.845500 0.000000
-15.828700 0.000000
-15.811900 0.000000
-15.795100 0.000000
-15.778200 0.000000
-15.761400 0.000000
-15.744600 0.000000
-15.727800 0.000000
-15.711000 0.000000
-15.694200 0.000000
-15.677400 0.000000
-15.660600 0.000000
-15.643800 0.000000
-15.627000 0.000000
-15.610200 0.000000
-15.593400 0.000000
-15.576600 0.000000
-15.559800 0.000000
-15.542900 0.000000
-15.526100 0.000000
-15.509300 0.000000
-15.492500 0.000000
-15.475700 0.000000
-15.458900 0.000000
-15.442100 0.000000
-15.425300 0.000000
-15.408500 0.000000
-15.391700 0.000000
-15.374900 0.000000
-15.358100 0.000000
-15.341300 0.000000
-15.324400 0.000000
-15.307600 0.000000
-15.290800 0.000000
-15.274000 0.000000
-15.257200 0.000000
-15.240400 0.000000
-15.223600 0.000000
-15.206800 0.000000
-15.190000 0.000000
-15.173200 0.000000
-15.156400 0.000000
-15.139600 0.000000
-15.122800 0.000000
-15.106000 0.000000
-15.089100 0.000000
-15.072300 0.000000
-15.055500 0.000000
-15.038700 0.000000
-15.021900 0.000000
-15.005100 0.000000
-14.988300 0.000000
-14.971500 0.000000
-14.954700 0.000000
-14.937900 0.000000
-14.921100 0.000000
-14.904300 0.000000
-14.887500 0.000000
-14.870600 0.000000
-14.853800 0.000000
-14.837000 0.000000
-14.820200 0.000000
-14.803400 0.000000
-14.786600 0.000000
-14.769800 0.000000
-14.753000 0.000000
-14.736200 0.000000
-14.719400 0.000000
-14.702600 0.000000
-14.685800 0.000000
-14.669000 0.000000
-14.652100 0.000000
-14.635300 0.000000
-14.618500 0.000000
-14.601700 0.000000
-14.584900 0.000000
-14.568100 0.000000
-14.551300 0.000000
-14.534500 0.000000
-14.517700 0.000000
-14.500900 0.000000
-14.484100 0.000000
-14.467300 0.000000
-14.450500 0.000000
-14.433700 0.000000
-14.416800 0.000000
-14.400000 0.000000
-14.383200 0.000000
-14.366400 0.000000
-14.349600 0.000000
-14.332800 0.000000
-14.316000 0.000000
-14.299200 0.000000
-14.282400 0.000000
-14.265600 0.000000
-14.248800 0.000000
-14.232000 0.000000
-14.215200 0.000000
-14.198300 0.000000
-14.181500 0.000000
-14.164700 0.000000
-14.147900 0.000000
-14.131100 0.000000
-14.114300 0.000000
-14.097500 0.000000
-14.080700 0.000000
-14.063900 0.000000
-14.047100 0.000000
-14.030300 0.000000
-14.013500 0.000000
-13.996700 0.000000
-13.979900 0.000000
-13.963000 0.000000
-13.946200 0.000000
-13.929400 0.000000
-13.912600 0.000000
-13.895800 0.000000
-13.879000 0.000000
-13.862200 0.000000
-13.845400 0.000000
-13.828600 0.000000
-13.811800 0.000000
-13.795000 0.000000
-13.778200 0.000000
-13.761400 0.000000
-13.744500 0.000000
-13.727700 0.000000
-13.710900 0.000000
-13.694100 0.000000
-13.677300 0.000000
-13.660500 0.000000
-13.643700 0.000000
-13.626900 0.000000
-13.610100 0.000000
-13.593300 0.000000
-13.576500 0.000000
-13.559700 0.000000
-13.542900 0.000000
-13.526100 0.000000
-13.509200 0.000000
-13.492400 0.000000
-13.475600 0.000000
-13.458800 0.000000
-13.442000 0.000000
-13.425200 0.000000
-13.408400 0.000000
-13.391600 0.000000
-13.374800 0.000000
-13.358000 0.000000
-13.341200 0.000000
-13.324400 0.000000
-13.307600 0.000000
-13.290700 0.000000
-13.273900 0.000000
-13.257100 0.000000
-13.240300 0.000000
-13.223500 0.000000
-13.206700 0.000000
-13.189900 0.000000
-13.173100 0.000000
-13.156300 0.000000
-13.139500 0.000000
-13.122700 0.000000
-13.105900 0.000000
-13.089100 0.000000
-13.072200 0.000000
-13.055400 0.000000
-13.038600 0.000000
-13.021800 0.000000
-13.005000 0.000000
-12.988200 0.000000
-12.971400 0.000000
-12.954600 0.000000
-12.937800 0.000000
-12.921000 0.000000
-12.904200 0.000000
-12.887400 0.000000
-12.870600 0.000000
-12.853800 0.000000
-12.836900 0.000000
-12.820100 0.000000
-12.803300 0.000000
-12.786500 0.000000
-12.769700 0.000000
-12.752900 0.000000
-12.736100 0.000000
-12.719300 0.000000
-12.702500 0.000000
-12.685700 0.000000
-12.668900 0.000000
-12.652100 0.000000
-12.635300 0.000000
-12.618400 0.000000
-12.601600 0.000000
-12.584800 0.000000
-12.568000 0.000000
-12.551200 0.000000
-12.534400 0.000000
-12.517600 0.000000
-12.500800 0.000000
-12.484000 0.000000
-12.467200 0.000000
-12.450400 0.000000
-12.433600 0.000000
-12.416800 0.000000
-12.400000 0.000000
-12.383100 0.000000
-12.366300 0.000000
-12.349500 0.000000
-12.332700 0.000000
-12.315900 0.000000
-12.299100 0.000000
-12.282300 0.000000
-12.265500 0.000000
-12.248700 0.000000
-12.231900 0.000000
-12.215100 0.000000
-12.198300 0.000000
-12.181500 0.000000
-12.164600 0.000000
-12.147800 0.000000
-12.131000 0.000000
-12.114200 0.000000
-12.097400 0.000000
-12.080600 0.000000
-12.063800 0.000000
-12.047000 0.000000
-12.030200 0.000000
-12.013400 0.000000
-11.996600 0.000000
-11.979800 0.000000
-11.963000 0.000000
-11.946100 0.000000
-11.929300 0.000000
-11.912500 0.000000
-11.895700 0.000000
-11.878900 0.000000
-11.862100 0.000000
-11.845300 0.000000
-11.828500 0.000000
-11.811700 0.000000
-11.794900 0.000000
-11.778100 0.000000
-11.761300 0.000000
-11.744500 0.000000
-11.727700 0.000000
-11.710800 0.000000
-11.694000 0.000000
-11.677200 0.000000
-11.660400 0.000000
-11.643600 0.000000
-11.626800 0.000000
-11.610000 0.000000
-11.593200 0.000000
-11.576400 0.000000
-11.559600 0.000000
-11.542800 0.000000
-11.526000 0.000000
-11.509200 0.000000
-11.492300 0.000000
-11.475500 0.000000
-11.458700 0.000000
-11.441900 0.000000
-11.425100 0.000000
-11.408300 0.000000
-11.391500 0.000000
-11.374700 0.000000
-11.357900 0.000000
-11.341100 0.000000
-11.324300 0.000000
-11.307500 0.000000
-11.290700 0.000000
-11.273900 0.000000
-11.257000 0.000000
-11.240200 0.000000
-11.223400 0.000000
-11.206600 0.000000
-11.189800 0.000000
-11.173000 0.000000
-11.156200 0.000000
-11.139400 0.000000
-11.122600 0.000000
-11.105800 0.000000
-11.089000 0.000000
-11.072200 0.000000
-11.055400 0.000000
-11.038500 0.000000
-11.021700 0.000000
-11.004900 0.000000
-10.988100 0.000000
-10.971300 0.000000
-10.954500 0.000000
-10.937700 0.000000
-10.920900 0.000000
-10.904100 0.000000
-10.887300 0.000000
-10.870500 0.000000
-10.853700 0.000000
-10.836900 0.000000
-10.820000 0.000000
-10.803200 0.000000
-10.786400 0.000000
-10.769600 0.000000
-10.752800 0.000000
-10.736000 0.000000
-10.719200 0.000000
-10.702400 0.000000
-10.685600 0.000000
-10.668800 0.000000
-10.652000 0.000000
-10.635200 0.000000
-10.618400 0.000000
-10.601600 0.000000
-10.584700 0.000000
-10.567900 0.000000
-10.551100 0.000000
-10.534300 0.000000
-10.517500 0.000000
-10.500700 0.000000
-10.483900 0.000000
-10.467100 0.000000
-10.450300 0.000000
-10.433500 0.000000
-10.416700 0.000000
-10.399900 0.000000
-10.383100 0.000000
-10.366200 0.000000
-10.349400 0.000000
-10.332600 0.000000
-10.315800 0.000000
-10.299000 0.000000
-10.282200 0.000000
-10.265400 0.000000
-10.248600 0.000000
-10.231800 0.000000
-10.215000 0.000000
-10.198200 0.000000
-10.181400 0.000000
-10.164600 0.000000
-10.147800 0.000000
-10.130900 0.000000
-10.114100 0.000000
-10.097300 0.000000
-10.080500 0.000000
-10.063700 0.000000
-10.046900 0.000000
-10.030100 0.000000
-10.013300 0.000000
-9.996500 0.000000
-9.979700 0.000000
-9.962900 0.000000
-9.946100 0.000000
-9.929300 0.000000
-9.912400 0.000000
-9.895600 0.000000
-9.878800 0.000000
-9.862000 0.000000
-9.845200 0.000000
-9.828400 0.000000
-9.811600 0.000000
-9.794800 0.000000
-9.778000 0.000000
-9.761200 0.000000
-9.744400 0.000000
-9.727600 0.000000
-9.710800 0.000000
-9.693900 0.000000
-9.677100 0.000000
-9.660300 0.000000
-9.643500 0.000000
-9.626700 0.000000
-9.609900 0.000000
-9.593100 0.000000
-9.576300 0.000000
-9.559500 0.000000
-9.542700 0.000000
-9.525900 0.000000
-9.509100 0.000000
-9.492300 0.000000
-9.475500 0.000000
-9.458600 0.000000
-9.441800 0.000000
-9.425000 0.000000
-9.408200 0.000000
-9.391400 0.000000
-9.374600 0.000000
-9.357800 0.000000
-9.341000 0.000000
-9.324200 0.000000
-9.307400 0.000000
-9.290600 0.000000
-9.273800 0.000000
-9.257000 0.000000
-9.240100 0.000000
-9.223300 0.000000
-9.206500 0.000000
-9.189700 0.000000
-9.172900 0.000000
-9.156100 0.000000
-9.139300 0.000000
-9.122500 0.000000
-9.105700 0.000000
-9.088900 0.000000
-9.072100 0.000000
-9.055300 0.000000
-9.038500 0.000000
-9.021700 0.000000
-9.004800 0.000000
-8.988000 0.000000
-8.971200 0.000000
-8.954400 0.000000
-8.937600 0.000000
-8.920800 0.000000
-8.904000 0.000000
-8.887200 0.000000
-8.870400 0.000000
-8.853600 0.000000
-8.836800 0.000000
-8.820000 0.000000
-8.803200 0.000000
-8.786300 0.000000
-8.769500 0.000000
-8.752700 0.000000
-8.735900 0.000100
-8.719100 0.045200
-8.702300 0.171000
-8.685500 0.377700
-8.668700 0.665200
-8.651900 1.042700
-8.635100 1.558800
-8.618300 2.065000
-8.601500 2.561300
-8.584700 3.047700
-8.567900 3.524300
-8.551000 3.991100
-8.534200 5.742400
-8.517400 7.087000
-8.500600 8.082800
-8.483800 8.729700
-8.467000 9.027900
-8.450200 8.977200
-8.433400 8.577700
-8.416600 9.185500
-8.399800 10.404300
-8.383000 11.200600
-8.366200 11.342100
-8.349400 10.419400
-8.332500 3.002300
-8.315700 3.556200
-8.298900 4.160600
-8.282100 4.815500
-8.265300 5.520800
-8.248500 6.276600
-8.231700 7.082900
-8.214900 7.939600
-8.198100 10.864000
-8.181300 10.106500
-8.164500 12.327900
-8.147700 9.870600
-8.130900 7.681500
-8.114000 5.760600
-8.097200 4.107900
-8.080400 2.723400
-8.063600 1.607000
-8.046800 0.758900
-8.030000 2.573700
-8.013200 11.165400
-7.996400 24.111500
-7.979600 22.855900
-7.962800 21.127300
-7.946000 25.809600
-7.929200 4.084500
-7.912400 51.752300
-7.895600 29.082900
-7.878700 12.744400
-7.861900 6.459300
-7.845100 4.709200
-7.828300 3.206400
-7.811500 1.916500
-7.794700 28.305800
-7.777900 32.724700
-7.761100 48.654800
-7.744300 26.028700
-7.727500 38.445500
-7.710700 39.271200
-7.693900 22.644600
-7.677100 17.896400
-7.660200 25.003600
-7.643400 42.676500
-7.626600 30.882000
-7.609800 26.528300
-7.593000 46.849700
-7.576200 24.447400
-7.559400 16.776500
-7.542600 46.387500
-7.525800 32.304900
-7.509000 16.182200
-7.492200 37.614600
-7.475400 36.446200
-7.458600 31.523200
-7.441800 4.842400
-7.424900 0.235000
-7.408100 59.766200
-7.391300 49.332700
-7.374500 34.384500
-7.357700 41.224000
-7.340900 92.221100
-7.324100 100.400600
-7.307300 35.956000
-7.290500 34.915900
-7.273700 29.078900
-7.256900 0.000000
-7.240100 53.848200
-7.223300 69.625100
-7.206400 53.256500
-7.189600 27.872500
-7.172800 9.986100
-7.156000 69.813300
-7.139200 41.677700
-7.122400 25.522000
-7.105600 26.852100
-7.088800 29.855600
-7.072000 13.621700
-7.055200 45.982600
-7.038400 74.846300
-7.021600 29.385400
-7.004800 25.495300
-6.987900 26.044400
-6.971100 29.409200
-6.954300 27.145900
-6.937500 62.015500
-6.920700 63.841600
-6.903900 42.938500
-6.887100 49.446600
-6.870300 31.559700
-6.853500 57.028800
-6.836700 46.509700
-6.819900 50.340200
-6.803100 39.725200
-6.786300 20.280200
-6.769500 12.133800
-6.752600 5.976000
-6.735800 1.535900
-6.719000 0.000000
-6.702200 0.000000
-6.685400 0.000000
-6.668600 0.000000
-6.651800 0.000000
-6.635000 0.000000
-6.618200 0.000000
-6.601400 0.000000
-6.584600 0.000000
-6.567800 0.000000
-6.551000 0.000000
-6.534100 0.000000
-6.517300 0.000000
-6.500500 0.000000
-6.483700 0.000000
-6.466900 0.000000
-6.450100 0.000000
-6.433300 0.000000
-6.416500 0.000000
-6.399700 0.000000
-6.382900 0.000000
-6.366100 0.000000
-6.349300 0.000000
-6.332500 0.000000
-6.315700 0.000000
-6.298800 0.000000
-6.282000 0.000000
-6.265200 0.000000
-6.248400 0.000000
-6.231600 0.000000
-6.214800 0.000000
-6.198000 0.000000
-6.181200 0.000000
-6.164400 0.000000
-6.147600 0.000000
-6.130800 0.000000
-6.114000 0.000000
-6.097200 0.000000
-6.080300 0.000000
-6.063500 0.000000
-6.046700 0.000000
-6.029900 0.000000
-6.013100 0.000000
-5.996300 0.000000
-5.979500 0.000000
-5.962700 0.000000
-5.945900 0.000000
-5.929100 0.000000
-5.912300 0.000000
-5.895500 0.000000
-5.878700 0.000000
-5.861800 0.000000
-5.845000 0.000000
-5.828200 0.000000
-5.811400 0.000000
-5.794600 0.000000
-5.777800 0.000000
-5.761000 0.000000
-5.744200 0.000000
-5.727400 0.000000
-5.710600 0.000000
-5.693800 0.000000
-5.677000 0.000000
-5.660200 0.000000
-5.643400 0.000000
-5.626500 0.000000
-5.609700 0.000000
-5.592900 0.000000
-5.576100 0.000000
-5.559300 0.000000
-5.542500 0.000000
-5.525700 0.000000
-5.508900 0.000000
-5.492100 0.000000
-5.475300 0.000000
-5.458500 0.000000
-5.441700 0.000000
-5.424900 0.000000
-5.408000 0.000000
-5.391200 0.000000
-5.374400 0.000000
-5.357600 0.000000
-5.340800 0.000000
-5.324000 0.000000
-5.307200 0.000000
-5.290400 0.000000
-5.273600 0.000000
-5.256800 0.000000
-5.240000 0.000000
-5.223200 0.000000
-5.206400 0.000000
-5.189600 0.000000
-5.172700 0.000000
-5.155900 0.000000
-5.139100 0.000000
-5.122300 0.000000
-5.105500 0.000000
-5.088700 0.000000
-5.071900 0.000000
-5.055100 0.000000
-5.038300 0.000000
-5.021500 0.000000
-5.004700 0.000000
-4.987900 0.000000
-4.971100 0.000000
-4.954200 0.000000
-4.937400 0.000000
-4.920600 0.000000
-4.903800 0.000000
-4.887000 0.000000
-4.870200 0.000000
-4.853400 0.000000
-4.836600 0.000000
-4.819800 0.000000
-4.803000 0.000000
-4.786200 0.000000
-4.769400 0.000000
-4.752600 0.000000
-4.735800 0.000000
-4.718900 0.000000
-4.702100 0.000000
-4.685300 0.000000
-4.668500 0.000000
-4.651700 0.000000
-4.634900 0.000000
-4.618100 0.000000
-4.601300 0.000000
-4.584500 0.000000
-4.567700 0.000000
-4.550900 0.000000
-4.534100 0.000000
-4.517300 0.000000
-4.500400 0.000000
-4.483600 0.000000
-4.466800 0.000000
-4.450000 0.000000
-4.433200 0.000000
-4.416400 0.000000
-4.399600 0.000000
-4.382800 0.000000
-4.366000 0.000000
-4.349200 0.000000
-4.332400 0.000000
-4.315600 0.000000
-4.298800 0.000000
-4.281900 0.000000
-4.265100 0.000000
-4.248300 0.000000
-4.231500 0.000000
-4.214700 0.000000
-4.197900 0.000000
-4.181100 0.000000
-4.164300 0.000000
-4.147500 0.000000
-4.130700 0.000000
-4.113900 0.000000
-4.097100 0.000000
-4.080300 0.000000
-4.063500 0.000000
-4.046600 0.000000
-4.029800 0.000000
-4.013000 0.000000
-3.996200 0.000000
-3.979400 0.000000
-3.962600 0.000000
-3.945800 0.000000
-3.929000 0.000000
-3.912200 0.000000
-3.895400 0.000000
-3.878600 0.000000
-3.861800 0.000000
-3.845000 0.000000
-3.828100 0.000000
-3.811300 0.000000
-3.794500 0.000000
-3.777700 0.000000
-3.760900 0.000000
-3.744100 0.000000
-3.727300 0.000000
-3.710500 0.000000
-3.693700 0.000000
-3.676900 0.000000
-3.660100 0.000000
-3.643300 0.000000
-3.626500 0.000000
-3.609700 0.000000
-3.592800 0.000000
-3.576000 0.000000
-3.559200 0.000000
-3.542400 0.000000
-3.525600 0.000000
-3.508800 0.000000
-3.492000 0.000000
-3.475200 0.000000
-3.458400 0.000000
-3.441600 0.000000
-3.424800 0.000000
-3.408000 0.000000
-3.391200 0.000000
-3.374300 0.000000
-3.357500 0.000000
-3.340700 0.000000
-3.323900 0.000000
-3.307100 0.000000
-3.290300 0.000000
-3.273500 0.000000
-3.256700 0.000000
-3.239900 0.000000
-3.223100 0.000000
-3.206300 0.000000
-3.189500 0.000000
-3.172700 0.000000
-3.155800 0.000000
-3.139000 0.000000
-3.122200 0.000000
-3.105400 0.000000
-3.088600 0.000000
-3.071800 0.000000
-3.055000 0.000000
-3.038200 0.000000
-3.021400 0.000000
-3.004600 0.000000
-2.987800 0.000000
-2.971000 0.000000
-2.954200 0.000000
-2.937400 0.000000
-2.920500 0.000000
-2.903700 0.000000
-2.886900 0.000000
-2.870100 0.000000
-2.853300 0.000000
-2.836500 0.000000
-2.819700 0.000000
-2.802900 0.000000
-2.786100 0.000000
-2.769300 0.000000
-2.752500 0.000000
-2.735700 0.000000
-2.718900 0.000000
-2.702000 0.000000
-2.685200 0.000000
-2.668400 0.000000
-2.651600 0.000000
-2.634800 0.000000
-2.618000 0.000000
-2.601200 0.000000
-2.584400 0.000000
-2.567600 0.000000
-2.550800 0.000000
-2.534000 0.000000
-2.517200 0.000000
-2.500400 0.000000
-2.483600 0.000000
-2.466700 0.000000
-2.449900 0.000000
-2.433100 0.000000
-2.416300 0.000000
-2.399500 0.000000
-2.382700 0.000000
-2.365900 0.000000
-2.349100 0.000000
-2.332300 0.000000
-2.315500 0.000000
-2.298700 0.000000
-2.281900 0.000000
-2.265100 0.000000
-2.248200 0.000000
-2.231400 0.000000
-2.214600 0.000000
-2.197800 0.000000
-2.181000 0.000000
-2.164200 0.000000
-2.147400 0.000000
-2.130600 0.000000
-2.113800 0.000000
-2.097000 0.000000
-2.080200 0.000000
-2.063400 0.000000
-2.046600 0.000000
-2.029700 0.000000
-2.012900 0.000000
-1.996100 0.000000
-1.979300 0.000000
-1.962500 0.000000
-1.945700 0.000000
-1.928900 0.000000
-1.912100 0.000000
-1.895300 0.000000
-1.878500 0.000000
-1.861700 0.000000
-1.844900 0.000000
-1.828100 0.000000
-1.811300 0.000000
-1.794400 0.000000
-1.777600 0.000000
-1.760800 0.000000
-1.744000 0.000000
-1.727200 0.000000
-1.710400 0.000000
-1.693600 0.000000
-1.676800 0.000000
-1.660000 0.000000
-1.643200 0.000000
-1.626400 0.000000
-1.609600 0.000000
-1.592800 0.000000
-1.575900 0.000000
-1.559100 0.000000
-1.542300 0.000000
-1.525500 0.000000
-1.508700 0.000000
-1.491900 0.000000
-1.475100 0.000000
-1.458300 0.000000
-1.441500 0.000000
-1.424700 0.000000
-1.407900 0.000000
-1.391100 0.000000
-1.374300 0.000000
-1.357500 0.000000
-1.340600 0.000000
-1.323800 0.000000
-1.307000 0.000000
-1.290200 0.000000
-1.273400 0.000000
-1.256600 0.000000
-1.239800 0.000000
-1.223000 0.000000
-1.206200 0.000000
-1.189400 0.000000
-1.172600 0.000000
-1.155800 0.000000
-1.139000 0.000000
-1.122100 0.000000
-1.105300 0.000000
-1.088500 0.000000
-1.071700 0.000000
-1.054900 0.000000
-1.038100 0.000000
-1.021300 0.000000
-1.004500 0.000000
-0.987700 0.000000
-0.970900 0.000000
-0.954100 0.000000
-0.937300 0.000000
-0.920500 0.000000
-0.903600 0.000000
-0.886800 0.000000
-0.870000 0.000000
-0.853200 0.000000
-0.836400 0.000000
-0.819600 0.000000
-0.802800 0.000000
-0.786000 0.000000
-0.769200 0.000000
-0.752400 0.000000
-0.735600 0.000000
-0.718800 0.000000
-0.702000 0.000000
-0.685200 0.000000
-0.668300 0.000000
-0.651500 0.000000
-0.634700 0.000000
-0.617900 0.000000
-0.601100 0.000000
-0.584300 0.000000
-0.567500 0.000000
-0.550700 0.000000
-0.533900 0.000000
-0.517100 4.046500
-0.500300 6.738500
-0.483500 8.867900
-0.466700 10.885200
-0.449800 12.312900
-0.433000 11.674700
-0.416200 10.754800
-0.399400 10.682600
-0.382600 11.181900
-0.365800 11.754500
-0.349000 12.271500
-0.332200 13.112800
-0.315400 15.518900
-0.298600 16.329700
-0.281800 10.908000
-0.265000 11.664100
-0.248200 13.333500
-0.231400 16.000100
-0.214500 19.701700
-0.197700 24.450200
-0.180900 30.245800
-0.164100 41.237100
-0.147300 41.162000
-0.130500 19.061700
-0.113700 18.262300
-0.096900 18.365200
-0.080100 18.797500
-0.063300 19.559200
-0.046500 20.650200
-0.029700 19.829300
-0.012900 21.957100
0.004000 20.396600
0.020800 19.692000
0.037600 20.016400
0.054400 31.431300
0.071200 55.266900
0.088000 36.188300
0.104800 26.216600
0.121600 18.871800
0.138400 18.241000
0.155200 19.812700
0.172000 24.331400
0.188800 42.488900
0.205600 35.956700
0.222400 29.751100
0.239300 30.464200
0.256100 35.625900
0.272900 28.385200
0.289700 22.722500
0.306500 19.994400
0.323300 22.961400
0.340100 28.480800
0.356900 30.718200
0.373700 18.406300
0.390500 18.974000
0.407300 20.688500
0.424100 30.576000
0.440900 33.174300
0.457800 26.122300
0.474600 27.988600
0.491400 34.852800
0.508200 39.415600
0.525000 31.983400
0.541800 47.798400
0.558600 49.172300
0.575400 50.012100
0.592200 17.227200
0.609000 31.767400
0.625800 35.166500
0.642600 34.815500
0.659400 23.963100
0.676300 33.660700
0.693100 43.543600
0.709900 40.346300
0.726700 40.983100
0.743500 39.410700
0.760300 87.762100
0.777100 39.071300
0.793900 34.207600
0.810700 47.031800
0.827500 51.700500
0.844300 50.714300
0.861100 37.955000
0.877900 49.163800
0.894700 61.353900
0.911600 44.660700
0.928400 43.535600
0.945200 30.571700
0.962000 34.928200
0.978800 46.469400
0.995600 44.253300
1.012400 25.053400
1.029200 27.971200
1.046000 33.965400
1.062800 31.868400
1.079600 43.132300
1.096400 28.080600
1.113200 43.051900
1.130100 40.979700
1.146900 19.620800
1.163700 31.702600
1.180500 23.514300
1.197300 20.175900
1.214100 39.837300
1.230900 26.933000
1.247700 27.419300
1.264500 31.902100
1.281300 33.442400
1.298100 33.066900
1.314900 20.632000
1.331700 7.046200
1.348500 46.314800
1.365400 115.283800
1.382200 52.539000
1.399000 27.858200
1.415800 8.393900
1.432600 5.912300
1.449400 16.120900
1.466200 40.767100
1.483000 51.822600
1.499800 48.529700
1.516600 39.702900
1.533400 56.660100
1.550200 38.365200
1.567000 25.120400
1.583900 31.861000
1.600700 53.102100
1.617500 38.308100
1.634300 20.996300
1.651100 31.217400
1.667900 40.558500
1.684700 31.039300
1.701500 50.664500
1.718300 11.309800
1.735100 13.650600
1.751900 14.507500
1.768700 14.983100
1.785500 15.077200
1.802400 14.789800
1.819200 14.121100
1.836000 13.070800
1.852800 8.821600
1.869600 5.284700
1.886400 3.448500
1.903200 44.621600
1.920000 24.966100
1.936800 16.681600
1.953600 49.231100
1.970400 33.898200
1.987200 22.943100
2.004000 28.113700
2.020800 26.368900
2.037700 26.127700
2.054500 41.236400
2.071300 43.307100
2.088100 25.633400
2.104900 29.153900
2.121700 78.397900
2.138500 51.086600
2.155300 27.639300
2.172100 34.910200
2.188900 49.642100
2.205700 78.695400
2.222500 45.438400
2.239300 43.418900
2.256200 26.387200
2.273000 23.216800
2.289800 30.873000
2.306600 30.750300
2.323400 52.528800
2.340200 69.066800
2.357000 27.363200
2.373800 32.135100
2.390600 47.329000
2.407400 30.812300
2.424200 23.108400
2.441000 37.782000
2.457800 41.338000
2.474600 29.187000
2.491500 26.817900
2.508300 83.770700
2.525100 34.334500
2.541900 85.622600
2.558700 68.800300
2.575500 105.971200
2.592300 34.066600
2.609100 28.758200
2.625900 9.840400
2.642700 41.947700
2.659500 64.322300
2.676300 36.754800
2.693100 37.040700
2.710000 41.691500
2.726800 41.904600
2.743600 59.705800
2.760400 48.935000
2.777200 42.668000
2.794000 48.580000
2.810800 35.392800
2.827600 48.318400
2.844400 38.702100
2.861200 34.061700
2.878000 26.117300
2.894800 42.485900
2.911600 24.005300
2.928500 33.055300
2.945300 33.790000
2.962100 34.298900
2.978900 32.527800
2.995700 41.504900
3.012500 30.733400
3.029300 26.466300
3.046100 35.500500
3.062900 32.944500
3.079700 33.360200
3.096500 33.349800
3.113300 35.951300
3.130100 29.302300
3.146900 37.436400
3.163800 28.923100
3.180600 27.830500
3.197400 37.176300
3.214200 39.490400
3.231000 31.678900
3.247800 39.200400
3.264600 39.682200
3.281400 33.848800
3.298200 25.506000
3.315000 23.179600
3.331800 22.185100
3.348600 23.862200
3.365400 30.027300
3.382300 18.596200
3.399100 16.859700
3.415900 15.211500
3.432700 20.866600
3.449500 21.190200
3.466300 27.682300
3.483100 29.339500
3.499900 29.719700
3.516700 26.001600
3.533500 33.807300
3.550300 32.696400
3.567100 30.750600
3.583900 27.556200
3.600700 26.208900
3.617600 19.808200
3.634400 27.423800
3.651200 27.956400
3.668000 36.155000
3.684800 31.568400
3.701600 31.846200
3.718400 32.286000
3.735200 29.766900
3.752000 23.262800
3.768800 36.394000
3.785600 35.654600
3.802400 36.492200
3.819200 16.616600
3.836100 15.675000
3.852900 13.429100
3.869700 12.335600
3.886500 12.171700
3.903300 12.514200
3.920100 12.933300
3.936900 13.351900
3.953700 13.770100
3.970500 14.687300
3.987300 9.517000
4.004100 6.432100
4.020900 4.493600
4.037700 2.757700
4.054500 1.299600
4.071400 0.119400
4.088200 0.000000
4.105000 0.000000
4.121800 0.000000
4.138600 0.000000
4.155400 0.000000
4.172200 0.000000
4.189000 0.000000
4.205800 0.000000
4.222600 0.000000
4.239400 0.000000
4.256200 0.000000
4.273000 0.000000
4.289900 0.000000
4.306700 0.000000
4.323500 0.000000
4.340300 0.000000
4.357100 0.000000
4.373900 0.000000
4.390700 0.000000
4.407500 0.000000
4.424300 0.000000
4.441100 0.000000
4.457900 0.000000
4.474700 0.000000
4.491500 0.000000
4.508400 0.000000
4.525200 0.000000
4.542000 0.000000
4.558800 0.000000
4.575600 0.000000
4.592400 0.000000
4.609200 0.000000
4.626000 0.000000
4.642800 0.000000
4.659600 0.000000
4.676400 0.000000
4.693200 0.000000
4.710000 0.000000
4.726800 0.000000
4.743700 0.000000
4.760500 0.000000
4.777300 0.000000
4.794100 0.000000
4.810900 0.000000
4.827700 0.000000
4.844500 0.000000
4.861300 0.000000
4.878100 0.000000
4.894900 0.000000
4.911700 0.000000
4.928500 0.000000
4.945300 0.000000
4.962200 0.000000
4.979000 0.000000
4.995800 0.000000
5.012600 0.000000
5.029400 0.000000
5.046200 0.000000
5.063000 0.000000
5.079800 0.000000
5.096600 0.000000
5.113400 0.000000
5.130200 0.000000
5.147000 0.000000
5.163800 0.000000
5.180600 0.000000
5.197500 0.000000
5.214300 0.000000
5.231100 0.000000
5.247900 0.000000
5.264700 0.000000
5.281500 0.000000
5.298300 0.000000
5.315100 0.000000
5.331900 0.000000
5.348700 0.000000
5.365500 0.000000
5.382300 0.000000
5.399100 0.000000
5.416000 0.000000
5.432800 0.000000
5.449600 0.000000
5.466400 0.000000
5.483200 0.000000
5.500000 0.000000
5.516800 0.000000
5.533600 0.000000
5.550400 0.000000
5.567200 0.000000
5.584000 0.000000
5.600800 0.000000
5.617600 0.000000
5.634500 0.000000
5.651300 0.000000
5.668100 0.000000
5.684900 0.000000
5.701700 0.000000
5.718500 0.000000
5.735300 0.000000
5.752100 0.000000
5.768900 0.000000
5.785700 0.000000
5.802500 0.000000
5.819300 0.000000
5.836100 0.000000
5.852900 0.000000
5.869800 0.000000
5.886600 0.000000
5.903400 0.000000
5.920200 0.000000
5.937000 0.000000
5.953800 0.000000
5.970600 0.000000
5.987400 0.016500
6.004200 0.063000
6.021000 0.141600
6.037800 0.265400
6.054600 0.436600
6.071400 0.655300
6.088300 0.921400
6.105100 1.235000
6.121900 1.596000
6.138700 2.004500
6.155500 2.693400
6.172300 3.510900
6.189100 4.423000
6.205900 5.429600
6.222700 8.305200
6.239500 11.408800
6.256300 13.594200
6.273100 14.868800
6.289900 15.232600
6.306700 15.168000
6.323600 15.567200
6.340400 20.670600
6.357200 30.969700
6.374000 20.269800
6.390800 23.349600
6.407600 25.417900
6.424400 57.387000
6.441200 19.365500
6.458000 31.043500
6.474800 32.531200
6.491600 35.400600
6.508400 39.425300
6.525200 18.355600
6.542100 17.756100
6.558900 19.363300
6.575700 30.221600
6.592500 16.698200
6.609300 26.289000
6.626100 28.684800
6.642900 43.715100
6.659700 39.584100
6.676500 22.875700
6.693300 14.711700
6.710100 5.213700
6.726900 83.901700
6.743700 16.410600
6.760600 5.037200
6.777400 5.766000
6.794200 10.991700
6.811000 20.695200
6.827800 25.995100
6.844600 18.486000
6.861400 28.104400
6.878200 38.281500
6.895000 57.268000
6.911800 23.308400
6.928600 12.657500
6.945400 2.270800
6.962200 0.973300
6.979000 92.067000
6.995900 23.986200
7.012700 3.833200
7.029500 10.640000
7.046300 22.929500
7.063100 19.615900
7.079900 18.455300
7.096700 15.750500
7.113500 11.501400
7.130300 6.080100
7.147100 12.242300
7.163900 14.788400
7.180700 17.379000
7.197500 19.671500
7.214400 20.947000
7.231200 25.522900
7.248000 25.577300
7.264800 18.980400
7.281600 26.649700
7.298400 29.574600
7.315200 30.790800
7.332000 30.515900
7.348800 29.433700
7.365600 23.207800
7.382400 14.539500
7.399200 14.337800
7.416000 17.196300
7.432800 50.816600
7.449700 7.433900
7.466500 30.793100
7.483300 32.850500
7.500100 24.072300
7.516900 8.824800
7.533700 19.992400
7.550500 35.634600
7.567300 34.137200
7.584100 28.829400
7.600900 19.038500
7.617700 23.929500
7.634500 35.995600
7.651300 31.922400
7.668200 27.749600
7.685000 27.142600
7.701800 77.235300
7.718600 11.760500
7.735400 55.486500
7.752200 40.676500
7.769000 58.587400
7.785800 36.098600
7.802600 24.151100
7.819400 24.931800
7.836200 20.780300
7.853000 18.636300
7.869800 19.914400
7.886700 22.446900
7.903500 20.278400
7.920300 14.615500
7.937100 50.919200
7.953900 24.207800
7.970700 22.268400
7.987500 50.257700
8.004300 83.935700
8.021100 8.301300
8.037900 42.089900
8.054700 40.229900
8.071500 33.501100
8.088300 44.212500
8.105100 87.451700
8.122000 4.367900
8.138800 50.753000
8.155600 39.635100
8.172400 47.242200
8.189200 77.658500
8.206000 39.841000
8.222800 39.491000
8.239600 36.045900
8.256400 65.440000
8.273200 45.684600
8.290000 42.151100
8.306800 36.872600
8.323600 35.574100
8.340500 19.555900
8.357300 35.535000
8.374100 51.277400
8.390900 47.829800
8.407700 47.718600
8.424500 36.805000
8.441300 24.986700
8.458100 19.198600
8.474900 87.149700
8.491700 44.318200
8.508500 34.052500
8.525300 32.072300
8.542100 28.273800
8.558900 18.687700
8.575800 54.635600
8.592600 32.068400
8.609400 132.817100
8.626200 53.820700
8.643000 41.959100
8.659800 32.377400
8.676600 27.496400
8.693400 51.630800
8.710200 33.910300
8.727000 65.997400
8.743800 48.754500
8.760600 31.220000
8.777400 50.402200
8.794300 63.265400
8.811100 56.257100
8.827900 42.955900
8.844700 31.881600
8.861500 41.442700
8.878300 47.659300
8.895100 51.025400
8.911900 34.127100
8.928700 32.221000
8.945500 43.129100
8.962300 33.594600
8.979100 39.685300
8.995900 44.736600
9.012700 41.838900
9.029600 69.231700
9.046400 49.859500
9.063200 29.362200
9.080000 22.076300
9.096800 30.724500
9.113600 53.993100
9.130400 65.973400
9.147200 16.594600
9.164000 98.970700
9.180800 22.249000
9.197600 49.150100
9.214400 45.162100
9.231200 17.627500
9.248100 85.022200
9.264900 32.902900
9.281700 35.835900
9.298500 60.943400
9.315300 11.743300
9.332100 14.653900
9.348900 65.190400
9.365700 30.315000
9.382500 58.042200
9.399300 25.777500
9.416100 26.666100
9.432900 26.361400
9.449700 25.477100
9.466600 57.914100
9.483400 59.286300
9.500200 32.007600
9.517000 30.049200
9.533800 55.511600
9.550600 48.990300
9.567400 92.791600
9.584200 55.602000
9.601000 14.818900
9.617800 8.427000
9.634600 84.032600
9.651400 31.428900
9.668200 14.000300
9.685000 56.911000
9.701900 40.848700
9.718700 24.352200
9.735500 36.370600
9.752300 44.664300
9.769100 36.952500
9.785900 27.798000
9.802700 26.402000
9.819500 24.537200
9.836300 21.833200
9.853100 11.572500
9.869900 15.673500
9.886700 16.366100
9.903500 16.945600
9.920400 17.411900
9.937200 19.144700
9.954000 20.519200
9.970800 24.754700
9.987600 23.110400
10.004400 18.200200
10.021200 35.272600
10.038000 40.021800
10.054800 32.940800
10.071600 27.333000
10.088400 31.144900
10.105200 6.530200
10.122000 14.747900
10.138800 33.563900
10.155700 56.830600
10.172500 135.660100
10.189300 27.071800
10.206100 2.621900
10.222900 0.000000
10.239700 3.713100
10.256500 26.515300
10.273300 34.251300
10.290100 20.635300
10.306900 13.189200
10.323700 15.007000
10.340500 19.059500
10.357300 19.670600
10.374200 20.037300
10.391000 20.829800
10.407800 21.564700
10.424600 22.121000
10.441400 20.987800
10.458200 21.636900
10.475000 26.600300
10.491800 19.520400
10.508600 26.020600
10.525400 28.373000
10.542200 26.762300
10.559000 26.214600
10.575800 25.246000
10.592700 29.656700
10.609500 27.219600
10.626300 30.501400
10.643100 26.823900
10.659900 23.493500
10.676700 28.052400
10.693500 30.215600
10.710300 30.322800
10.727100 28.680100
10.743900 30.301600
10.760700 33.058600
10.777500 35.244100
10.794300 28.537400
10.811100 27.917500
10.828000 36.431400
10.844800 29.778300
10.861600 46.528100
10.878400 41.831300
10.895200 33.012200
10.912000 39.619200
10.928800 35.876100
10.945600 18.931300
10.962400 19.254300
10.979200 20.276900
10.996000 27.426900
11.012800 39.566300
11.029600 35.729600
11.046500 32.328100
11.063300 29.814300
11.080100 33.416100
11.096900 38.981000
11.113700 7.967500
11.130500 10.161800
11.147300 20.204000
11.164100 46.569900
11.180900 41.074300
11.197700 34.731800
11.214500 34.150700
11.231300 29.944000
11.248100 35.324100
11.264900 34.825900
11.281800 41.067300
11.298600 38.750100
11.315400 41.836300
11.332200 53.231700
11.349000 16.465200
11.365800 14.853500
11.382600 17.480900
11.399400 18.067200
11.416200 17.268200
11.433000 27.391900
11.449800 67.132300
11.466600 51.036000
11.483400 13.524300
11.500300 11.772800
11.517100 11.147500
11.533900 11.237600
11.550700 11.748500
11.567500 12.680000
11.584300 24.304100
11.601100 13.357700
11.617900 76.037400
11.634700 31.368700
11.651500 31.192000
11.668300 27.425400
11.685100 24.337900
11.701900 21.914200
11.718800 19.986000
11.735600 18.553300
11.752400 17.760100
11.769200 6.039400
11.786000 3.876900
11.802800 4.997400
11.819600 6.401000
11.836400 8.363400
11.853200 10.664600
11.870000 13.244000
11.886800 16.501500
11.903600 23.145600
11.920400 27.286500
11.937200 27.436900
11.954100 35.855000
11.970900 32.444800
11.987700 30.196000
12.004500 28.107400
12.021300 25.346600
12.038100 21.906900
12.054900 17.469300
12.071700 17.230500
12.088500 16.620600
12.105300 15.673300
12.122100 14.387500
12.138900 10.887300
12.155700 12.161500
12.172600 12.240800
12.189400 13.727500
12.206200 14.653100
12.223000 15.017800
12.239800 14.821600
12.256600 17.818900
12.273400 14.838200
12.290200 12.967100
12.307000 12.135900
12.323800 12.619300
12.340600 13.703700
12.357400 14.882400
12.374200 15.292000
12.391000 14.846800
12.407900 13.546900
12.424700 8.373700
12.441500 8.745500
12.458300 8.926500
12.475100 10.559900
12.491900 21.534700
12.508700 5.636200
12.525500 0.384000
12.542300 0.000000
12.559100 0.000000
12.575900 0.000000
12.592700 0.000000
12.609500 0.000000
12.626400 0.000000
12.643200 0.000000
12.660000 0.000000
12.676800 0.000000
12.693600 0.000000
12.710400 0.000000
12.727200 0.000000
12.744000 0.000000
12.760800 0.000000
12.777600 0.000000
12.794400 0.000000
12.811200 0.000000
12.828000 0.000000
12.844800 0.000000
12.861700 0.000000
12.878500 0.000000
12.895300 0.000000
12.912100 0.000000
12.928900 0.000000
12.945700 0.000000
12.962500 0.000000
12.979300 0.000000
12.996100 0.000000
13.012900 0.000000
13.029700 0.000000
13.046500 0.000000
13.063300 0.000000
13.080200 0.000000
13.097000 0.000000
13.113800 0.000000
13.130600 0.000000
13.147400 0.000000
13.164200 0.000000
13.181000 0.000000
13.197800 0.000000
13.214600 0.000000
13.231400 0.000000
13.248200 0.000000
13.265000 0.000000
13.281800 0.000000
13.298700 0.000000
13.315500 0.000000
13.332300 0.000000
13.349100 0.000000
13.365900 0.000000
13.382700 0.000000
13.399500 0.000000
13.416300 0.000000
13.433100 0.000000
13.449900 0.000000
13.466700 0.000000
13.483500 0.000000
13.500300 0.000000
13.517100 0.000000
13.534000 0.000000
13.550800 0.000000
13.567600 0.000000
13.584400 0.000000
13.601200 0.000000
13.618000 0.000000
13.634800 0.000000
13.651600 0.000000
13.668400 0.000000
13.685200 0.000000
13.702000 0.000000
13.718800 0.000000
13.735600 0.000000
13.752500 0.000000
13.769300 0.000000
13.786100 0.000000
13.802900 0.000000
13.819700 0.000000
13.836500 0.000000
13.853300 0.000000
13.870100 0.000000
13.886900 0.000000
13.903700 0.000000
13.920500 0.000000
13.937300 0.000000
13.954100 0.000000
13.970900 0.000000
13.987800 0.000000
14.004600 0.000000
14.021400 0.000000
14.038200 0.000000
14.055000 0.000000
e
