set title 'mp-1178416 - Density of States'
set xlabel 'Energy (eV)'
set ylabel 'DOS (states/eV)'
set grid
set xrange [-10:10]
set yrange [0:5.903]
set xzeroaxis lt -1
set terminal png size 800,600
set output 'mp-1178416_dos_gnuplot.png'
plot '-' using 1:2 with lines title 'DOS'
-43.586400 0.000000
-43.543700 0.000000
-43.500900 0.000000
-43.458200 0.000000
-43.415500 0.000000
-43.372700 0.000000
-43.330000 0.000000
-43.287300 0.000000
-43.244500 0.000000
-43.201800 0.000000
-43.159000 0.000000
-43.116300 0.000000
-43.073600 0.000000
-43.030800 0.000000
-42.988100 0.000000
-42.945400 0.000000
-42.902600 0.000000
-42.859900 0.000000
-42.817200 0.000000
-42.774400 0.000000
-42.731700 0.000000
-42.688900 0.000000
-42.646200 0.000000
-42.603500 0.000000
-42.560700 0.000000
-42.518000 0.000000
-42.475300 0.000000
-42.432500 0.000000
-42.389800 0.000000
-42.347100 0.000000
-42.304300 0.000000
-42.261600 0.000000
-42.218900 0.000000
-42.176100 0.000000
-42.133400 0.000000
-42.090600 0.000000
-42.047900 0.000000
-42.005200 0.000000
-41.962400 0.000000
-41.919700 0.000000
-41.877000 0.000000
-41.834200 0.000000
-41.791500 0.000000
-41.748800 0.000000
-41.706000 0.000000
-41.663300 0.000000
-41.620500 0.000000
-41.577800 0.000000
-41.535100 0.000000
-41.492300 0.000000
-41.449600 0.000000
-41.406900 0.000000
-41.364100 0.000000
-41.321400 0.000000
-41.278700 0.000000
-41.235900 0.000000
-41.193200 0.000000
-41.150400 0.000000
-41.107700 0.000000
-41.065000 0.000000
-41.022200 0.000000
-40.979500 0.000000
-40.936800 0.000000
-40.894000 0.000000
-40.851300 0.000000
-40.808600 0.000000
-40.765800 0.000000
-40.723100 0.000000
-40.680300 0.000000
-40.637600 0.000000
-40.594900 0.000000
-40.552100 0.000000
-40.509400 0.000000
-40.466700 0.000000
-40.423900 0.000000
-40.381200 0.000000
-40.338500 0.000000
-40.295700 0.000000
-40.253000 0.000000
-40.210200 0.000000
-40.167500 0.000000
-40.124800 0.000000
-40.082000 0.000000
-40.039300 0.000000
-39.996600 0.000000
-39.953800 0.000000
-39.911100 0.000000
-39.868400 0.000000
-39.825600 0.000000
-39.782900 0.000000
-39.740200 0.000000
-39.697400 0.000000
-39.654700 0.000000
-39.611900 0.000000
-39.569200 0.000000
-39.526500 0.000000
-39.483700 0.000000
-39.441000 0.000000
-39.398300 0.000000
-39.355500 0.000000
-39.312800 0.000000
-39.270100 0.000000
-39.227300 0.000000
-39.184600 0.000000
-39.141800 0.000000
-39.099100 0.000000
-39.056400 0.000000
-39.013600 0.000000
-38.970900 0.000000
-38.928200 21.658900
-38.885400 26.818300
-38.842700 0.000000
-38.800000 0.000000
-38.757200 0.000000
-38.714500 0.000000
-38.671700 0.000000
-38.629000 0.000000
-38.586300 0.000000
-38.543500 29.552100
-38.500800 0.000000
-38.458100 0.000000
-38.415300 0.000000
-38.372600 0.000000
-38.329900 0.000000
-38.287100 0.000000
-38.244400 0.000000
-38.201600 0.000000
-38.158900 0.000000
-38.116200 0.000000
-38.073400 0.000000
-38.030700 0.000000
-37.988000 0.000000
-37.945200 0.000000
-37.902500 44.039600
-37.859800 0.000000
-37.817000 0.000000
-37.774300 0.000000
-37.731500 0.000000
-37.688800 0.000000
-37.646100 0.000000
-37.603300 0.000000
-37.560600 0.000000
-37.517900 0.000000
-37.475100 0.000000
-37.432400 0.000000
-37.389700 0.000000
-37.346900 0.000000
-37.304200 0.000000
-37.261500 0.000000
-37.218700 0.000000
-37.176000 0.000000
-37.133200 0.000000
-37.090500 0.000000
-37.047800 0.000000
-37.005000 0.000000
-36.962300 0.000000
-36.919600 0.000000
-36.876800 0.000000
-36.834100 0.000000
-36.791400 0.000000
-36.748600 0.000000
-36.705900 0.000000
-36.663100 0.000000
-36.620400 0.000000
-36.577700 0.000000
-36.534900 0.000000
-36.492200 0.000000
-36.449500 0.000000
-36.406700 0.000000
-36.364000 0.000000
-36.321300 0.000000
-36.278500 0.000000
-36.235800 0.000000
-36.193000 0.000000
-36.150300 0.000000
-36.107600 0.000000
-36.064800 0.000000
-36.022100 0.000000
-35.979400 0.000000
-35.936600 0.000000
-35.893900 0.000000
-35.851200 0.000000
-35.808400 0.000000
-35.765700 0.000000
-35.722900 0.000000
-35.680200 0.000000
-35.637500 0.000000
-35.594700 0.000000
-35.552000 0.000000
-35.509300 0.000000
-35.466500 0.000000
-35.423800 0.000000
-35.381100 0.000000
-35.338300 0.000000
-35.295600 0.000000
-35.252800 0.000000
-35.210100 0.000000
-35.167400 0.000000
-35.124600 0.000000
-35.081900 0.000000
-35.039200 0.000000
-34.996400 0.000000
-34.953700 0.000000
-34.911000 0.000000
-34.868200 0.000000
-34.825500 0.000000
-34.782800 0.000000
-34.740000 0.000000
-34.697300 0.000000
-34.654500 0.000000
-34.611800 0.000000
-34.569100 0.000000
-34.526300 0.000000
-34.483600 0.000000
-34.440900 0.000000
-34.398100 0.000000
-34.355400 0.000000
-34.312700 0.000000
-34.269900 0.000000
-34.227200 0.000000
-34.184400 0.000000
-34.141700 0.000000
-34.099000 0.000000
-34.056200 0.000000
-34.013500 0.000000
-33.970800 0.000000
-33.928000 0.000000
-33.885300 0.000000
-33.842600 0.000000
-33.799800 0.000000
-33.757100 0.000000
-33.714300 0.000000
-33.671600 0.000000
-33.628900 0.000000
-33.586100 0.000000
-33.543400 0.000000
-33.500700 0.000000
-33.457900 0.000000
-33.415200 0.000000
-33.372500 0.000000
-33.329700 0.000000
-33.287000 0.000000
-33.244200 0.000000
-33.201500 0.000000
-33.158800 0.000000
-33.116000 0.000000
-33.073300 0.000000
-33.030600 0.000000
-32.987800 0.000000
-32.945100 0.000000
-32.902400 0.000000
-32.859600 0.000000
-32.816900 0.000000
-32.774100 0.000000
-32.731400 0.000000
-32.688700 0.000000
-32.645900 0.000000
-32.603200 0.000000
-32.560500 0.000000
-32.517700 0.000000
-32.475000 0.000000
-32.432300 0.000000
-32.389500 0.000000
-32.346800 0.000000
-32.304100 0.000000
-32.261300 0.000000
-32.218600 0.000000
-32.175800 0.000000
-32.133100 0.000000
-32.090400 0.000000
-32.047600 0.000000
-32.004900 0.000000
-31.962200 0.000000
-31.919400 0.000000
-31.876700 0.000000
-31.834000 0.000000
-31.791200 0.000000
-31.748500 0.000000
-31.705700 0.000000
-31.663000 0.000000
-31.620300 0.000000
-31.577500 0.000000
-31.534800 0.000000
-31.492100 0.000000
-31.449300 0.000000
-31.406600 0.000000
-31.363900 0.000000
-31.321100 0.000000
-31.278400 0.000000
-31.235600 0.000000
-31.192900 0.000000
-31.150200 0.000000
-31.107400 0.000000
-31.064700 0.000000
-31.022000 0.000000
-30.979200 0.000000
-30.936500 0.000000
-30.893800 0.000000
-30.851000 0.000000
-30.808300 0.000000
-30.765500 0.000000
-30.722800 0.000000
-30.680100 0.000000
-30.637300 0.000000
-30.594600 0.000000
-30.551900 0.000000
-30.509100 0.000000
-30.466400 0.000000
-30.423700 0.000000
-30.380900 0.000000
-30.338200 0.000000
-30.295400 0.000000
-30.252700 0.000000
-30.210000 0.000000
-30.167200 0.000000
-30.124500 0.000000
-30.081800 0.000000
-30.039000 0.000000
-29.996300 0.000000
-29.953600 0.000000
-29.910800 0.000000
-29.868100 0.000000
-29.825400 0.000000
-29.782600 0.000000
-29.739900 0.000000
-29.697100 0.000000
-29.654400 0.000000
-29.611700 0.000000
-29.568900 0.000000
-29.526200 0.000000
-29.483500 0.000000
-29.440700 0.000000
-29.398000 0.000000
-29.355300 0.000000
-29.312500 0.000000
-29.269800 0.000000
-29.227000 0.000000
-29.184300 0.000000
-29.141600 0.000000
-29.098800 0.000000
-29.056100 0.000000
-29.013400 0.000000
-28.970600 0.000000
-28.927900 0.000000
-28.885200 0.000000
-28.842400 0.000000
-28.799700 0.000000
-28.756900 0.000000
-28.714200 0.000000
-28.671500 0.000000
-28.628700 0.000000
-28.586000 0.000000
-28.543300 0.000000
-28.500500 0.000000
-28.457800 0.000000
-28.415100 0.000000
-28.372300 0.000000
-28.329600 0.000000
-28.286800 0.000000
-28.244100 0.000000
-28.201400 0.000000
-28.158600 0.000000
-28.115900 0.000000
-28.073200 0.000000
-28.030400 0.000000
-27.987700 0.000000
-27.945000 0.000000
-27.902200 0.000000
-27.859500 0.000000
-27.816800 0.000000
-27.774000 0.000000
-27.731300 0.000000
-27.688500 0.000000
-27.645800 0.000000
-27.603100 0.000000
-27.560300 0.000000
-27.517600 0.000000
-27.474900 0.000000
-27.432100 0.000000
-27.389400 0.000000
-27.346700 0.000000
-27.303900 0.000000
-27.261200 0.000000
-27.218400 0.000000
-27.175700 0.000000
-27.133000 0.000000
-27.090200 0.000000
-27.047500 0.000000
-27.004800 0.000000
-26.962000 0.000000
-26.919300 0.000000
-26.876600 0.000000
-26.833800 0.000000
-26.791100 0.000000
-26.748300 0.000000
-26.705600 0.000000
-26.662900 0.000000
-26.620100 0.000000
-26.577400 0.000000
-26.534700 0.000000
-26.491900 0.000000
-26.449200 0.000000
-26.406500 0.000000
-26.363700 0.000000
-26.321000 0.000000
-26.278200 0.000000
-26.235500 0.000000
-26.192800 0.000000
-26.150000 0.000000
-26.107300 0.000000
-26.064600 0.000000
-26.021800 0.000000
-25.979100 0.000000
-25.936400 0.000000
-25.893600 0.000000
-25.850900 0.000000
-25.808100 0.000000
-25.765400 0.000000
-25.722700 0.000000
-25.679900 0.000000
-25.637200 0.000000
-25.594500 0.000000
-25.551700 0.000000
-25.509000 0.000000
-25.466300 0.000000
-25.423500 0.000000
-25.380800 0.000000
-25.338100 0.000000
-25.295300 0.000000
-25.252600 0.000000
-25.209800 0.000000
-25.167100 0.000000
-25.124400 0.000000
-25.081600 0.000000
-25.038900 0.000000
-24.996200 0.000000
-24.953400 0.000000
-24.910700 0.000000
-24.868000 0.000000
-24.825200 0.000000
-24.782500 0.000000
-24.739700 0.000000
-24.697000 0.000000
-24.654300 0.000000
-24.611500 0.000000
-24.568800 0.000000
-24.526100 0.000000
-24.483300 0.000000
-24.440600 0.000000
-24.397900 0.000000
-24.355100 0.000000
-24.312400 0.000000
-24.269600 0.000000
-24.226900 0.000000
-24.184200 0.000000
-24.141400 0.000000
-24.098700 0.000000
-24.056000 0.000000
-24.013200 0.000000
-23.970500 0.000000
-23.927800 0.000000
-23.885000 0.000000
-23.842300 0.000000
-23.799500 0.000000
-23.756800 0.000000
-23.714100 0.000000
-23.671300 0.000000
-23.628600 0.000000
-23.585900 0.000000
-23.543100 0.000000
-23.500400 0.000000
-23.457700 0.000000
-23.414900 0.000000
-23.372200 0.000000
-23.329400 0.000000
-23.286700 0.000000
-23.244000 0.000000
-23.201200 0.000000
-23.158500 0.000000
-23.115800 0.000000
-23.073000 0.000000
-23.030300 0.000000
-22.987600 0.000000
-22.944800 0.000000
-22.902100 0.000000
-22.859400 0.000000
-22.816600 0.000000
-22.773900 0.000000
-22.731100 0.000000
-22.688400 0.000000
-22.645700 0.000000
-22.602900 0.000000
-22.560200 0.000000
-22.517500 0.000000
-22.474700 0.000000
-22.432000 0.000000
-22.389300 0.000000
-22.346500 0.000000
-22.303800 0.000000
-22.261000 0.000000
-22.218300 0.000000
-22.175600 0.000000
-22.132800 0.000000
-22.090100 0.000000
-22.047400 0.000000
-22.004600 0.000000
-21.961900 0.000000
-21.919200 0.000000
-21.876400 0.000000
-21.833700 0.000000
-21.790900 0.000000
-21.748200 0.000000
-21.705500 0.000000
-21.662700 0.000000
-21.620000 0.000000
-21.577300 0.000000
-21.534500 0.000000
-21.491800 0.000000
-21.449100 0.000000
-21.406300 0.000000
-21.363600 0.000000
-21.320800 0.000000
-21.278100 0.000000
-21.235400 0.000000
-21.192600 0.000000
-21.149900 0.000000
-21.107200 0.000000
-21.064400 0.000000
-21.021700 0.000000
-20.979000 0.000000
-20.936200 0.000000
-20.893500 0.000000
-20.850700 0.000000
-20.808000 0.000000
-20.765300 0.000000
-20.722500 0.000000
-20.679800 0.000000
-20.637100 0.000000
-20.594300 0.000000
-20.551600 0.000000
-20.508900 0.000000
-20.466100 0.000000
-20.423400 0.000000
-20.380700 0.000000
-20.337900 0.000000
-20.295200 0.000000
-20.252400 0.000000
-20.209700 0.000000
-20.167000 0.000000
-20.124200 0.000000
-20.081500 0.000000
-20.038800 0.000000
-19.996000 0.000000
-19.953300 0.000000
-19.910600 0.000000
-19.867800 0.000000
-19.825100 0.000000
-19.782300 0.000000
-19.739600 0.000000
-19.696900 0.000000
-19.654100 0.000000
-19.611400 0.000000
-19.568700 0.000000
-19.525900 0.000000
-19.483200 0.000000
-19.440500 0.000000
-19.397700 0.000000
-19.355000 0.000000
-19.312200 0.000000
-19.269500 0.000000
-19.226800 0.000000
-19.184000 0.000000
-19.141300 0.000000
-19.098600 0.000000
-19.055800 0.000000
-19.013100 0.000000
-18.970400 0.000000
-18.927600 0.000000
-18.884900 0.000000
-18.842100 0.000000
-18.799400 0.000000
-18.756700 0.000000
-18.713900 0.000000
-18.671200 0.000000
-18.628500 0.000000
-18.585700 0.000000
-18.543000 0.000000
-18.500300 0.000000
-18.457500 0.000000
-18.414800 0.000000
-18.372000 0.000000
-18.329300 0.000000
-18.286600 0.000000
-18.243800 0.000000
-18.201100 0.000000
-18.158400 0.000000
-18.115600 0.000000
-18.072900 0.000000
-18.030200 0.000000
-17.987400 0.000000
-17.944700 0.000000
-17.902000 0.000000
-17.859200 0.000000
-17.816500 0.000000
-17.773700 0.000000
-17.731000 0.000000
-17.688300 0.000000
-17.645500 0.000000
-17.602800 0.000000
-17.560100 0.000000
-17.517300 0.000000
-17.474600 0.000000
-17.431900 0.000000
-17.389100 0.000000
-17.346400 0.000000
-17.303600 0.000000
-17.260900 0.000000
-17.218200 0.000000
-17.175400 0.000000
-17.132700 0.000000
-17.090000 0.000000
-17.047200 0.000000
-17.004500 0.000000
-16.961800 0.000000
-16.919000 0.000000
-16.876300 0.000000
-16.833500 0.000000
-16.790800 0.000000
-16.748100 0.000000
-16.705300 0.000000
-16.662600 0.000000
-16.619900 0.000000
-16.577100 0.000000
-16.534400 0.000000
-16.491700 0.000000
-16.448900 0.000000
-16.406200 0.000000
-16.363400 0.000000
-16.320700 0.000000
-16.278000 0.000000
-16.235200 0.000000
-16.192500 0.000000
-16.149800 0.000000
-16.107000 0.000000
-16.064300 0.000000
-16.021600 0.000000
-15.978800 0.000000
-15.936100 0.000000
-15.893300 0.000000
-15.850600 0.000000
-15.807900 0.000000
-15.765100 0.000000
-15.722400 0.000000
-15.679700 0.000000
-15.636900 0.000000
-15.594200 0.000000
-15.551500 0.000000
-15.508700 0.000000
-15.466000 0.000000
-15.423300 0.000000
-15.380500 0.000000
-15.337800 0.000000
-15.295000 0.000000
-15.252300 0.000000
-15.209600 0.000000
-15.166800 0.052900
-15.124100 0.196500
-15.081400 0.297400
-15.038600 0.377300
-14.995900 0.457600
-14.953200 0.547800
-14.910400 0.639800
-14.867700 0.745600
-14.824900 0.871400
-14.782200 1.137900
-14.739500 1.301300
-14.696700 1.579200
-14.654000 2.233400
-14.611300 2.928800
-14.568500 2.117100
-14.525800 1.848000
-14.483100 1.739800
-14.440300 1.746200
-14.397600 1.823800
-14.354800 2.001100
-14.312100 2.278600
-14.269400 2.994700
-14.226600 4.030200
-14.183900 8.021100
-14.141200 6.112600
-14.098400 0.000000
-14.055700 0.000000
-14.013000 0.000000
-13.970200 0.000000
-13.927500 0.000000
-13.884700 0.000000
-13.842000 0.000000
-13.799300 0.000000
-13.756500 0.000000
-13.713800 0.000000
-13.671100 0.000000
-13.628300 0.000000
-13.585600 0.000000
-13.542900 0.000000
-13.500100 0.000000
-13.457400 0.000000
-13.414600 0.000000
-13.371900 0.000000
-13.329200 0.000000
-13.286400 0.000000
-13.243700 0.000000
-13.201000 0.000000
-13.158200 0.000000
-13.115500 0.000000
-13.072800 0.000000
-13.030000 0.000000
-12.987300 0.000000
-12.944600 0.000000
-12.901800 0.000000
-12.859100 0.000000
-12.816300 0.000000
-12.773600 0.000000
-12.730900 0.000000
-12.688100 0.000000
-12.645400 0.000000
-12.602700 0.000000
-12.559900 0.000000
-12.517200 0.000000
-12.474500 0.000000
-12.431700 0.000000
-12.389000 0.000000
-12.346200 0.000000
-12.303500 0.000000
-12.260800 0.000000
-12.218000 0.000000
-12.175300 0.000000
-12.132600 0.000000
-12.089800 0.000000
-12.047100 0.000000
-12.004400 0.000000
-11.961600 0.000000
-11.918900 0.000000
-11.876100 0.000000
-11.833400 0.000000
-11.790700 0.000000
-11.747900 0.000000
-11.705200 0.000000
-11.662500 0.000000
-11.619700 0.000000
-11.577000 0.000000
-11.534300 0.000000
-11.491500 0.000000
-11.448800 0.000000
-11.406000 0.000000
-11.363300 0.000000
-11.320600 0.000000
-11.277800 0.000000
-11.235100 0.000000
-11.192400 0.000000
-11.149600 0.000000
-11.106900 0.000000
-11.064200 0.000000
-11.021400 0.000000
-10.978700 0.000000
-10.936000 0.000000
-10.893200 0.000000
-10.850500 0.000000
-10.807700 0.000000
-10.765000 0.000000
-10.722300 0.000000
-10.679500 0.000000
-10.636800 0.000000
-10.594100 0.000000
-10.551300 0.000000
-10.508600 0.000000
-10.465900 0.000000
-10.423100 0.000000
-10.380400 0.000000
-10.337600 0.000000
-10.294900 0.000000
-10.252200 0.000000
-10.209400 0.000000
-10.166700 0.000000
-10.124000 0.000000
-10.081200 0.000000
-10.038500 0.000000
-9.995800 0.000000
-9.953000 0.000000
-9.910300 0.000000
-9.867500 0.000000
-9.824800 0.000000
-9.782100 0.000000
-9.739300 0.000000
-9.696600 0.000000
-9.653900 0.000000
-9.611100 0.000000
-9.568400 0.000000
-9.525700 0.000000
-9.482900 0.000000
-9.440200 0.000000
-9.397400 0.000000
-9.354700 0.000000
-9.312000 0.000000
-9.269200 0.000000
-9.226500 0.000000
-9.183800 0.000000
-9.141000 0.000000
-9.098300 0.000000
-9.055600 0.000000
-9.012800 0.000000
-8.970100 0.000000
-8.927300 0.000000
-8.884600 0.000000
-8.841900 0.000000
-8.799100 0.000000
-8.756400 0.000000
-8.713700 0.000000
-8.670900 0.000000
-8.628200 0.000000
-8.585500 0.000000
-8.542700 0.000000
-8.500000 0.000000
-8.457300 0.000000
-8.414500 0.000000
-8.371800 0.000000
-8.329000 0.000000
-8.286300 0.000000
-8.243600 0.000000
-8.200800 0.000000
-8.158100 0.000000
-8.115400 0.000000
-8.072600 0.000000
-8.029900 0.000000
-7.987200 0.000000
-7.944400 0.000000
-7.901700 0.000000
-7.858900 0.000000
-7.816200 0.000000
-7.773500 0.000000
-7.730700 0.000000
-7.688000 0.000000
-7.645300 0.000000
-7.602500 0.000000
-7.559800 0.000000
-7.517100 0.000000
-7.474300 0.000000
-7.431600 0.000000
-7.388800 0.000000
-7.346100 0.000000
-7.303400 0.000000
-7.260600 0.000000
-7.217900 0.000000
-7.175200 0.000000
-7.132400 0.000000
-7.089700 0.000000
-7.047000 0.000000
-7.004200 0.000000
-6.961500 0.000000
-6.918700 0.000000
-6.876000 0.000000
-6.833300 0.000000
-6.790500 0.000000
-6.747800 0.000000
-6.705100 0.000000
-6.662300 0.000000
-6.619600 0.000000
-6.576900 0.000000
-6.534100 0.000000
-6.491400 0.000000
-6.448600 0.000000
-6.405900 0.000000
-6.363200 0.000000
-6.320400 0.000000
-6.277700 0.000000
-6.235000 0.000000
-6.192200 0.000000
-6.149500 0.000000
-6.106800 0.000000
-6.064000 0.000000
-6.021300 0.000000
-5.978600 0.000000
-5.935800 0.000000
-5.893100 0.000000
-5.850300 0.000000
-5.807600 0.000000
-5.764900 0.000000
-5.722100 0.000000
-5.679400 0.000000
-5.636700 0.000000
-5.593900 0.000000
-5.551200 0.000000
-5.508500 0.000000
-5.465700 0.000000
-5.423000 0.000000
-5.380200 0.000000
-5.337500 0.000000
-5.294800 0.000000
-5.252000 0.000000
-5.209300 0.000000
-5.166600 0.000000
-5.123800 0.000000
-5.081100 0.000000
-5.038400 0.000000
-4.995600 0.000000
-4.952900 0.000000
-4.910100 0.000000
-4.867400 0.000000
-4.824700 0.000000
-4.781900 0.000000
-4.739200 0.000000
-4.696500 0.000000
-4.653700 0.000000
-4.611000 0.000000
-4.568300 0.000000
-4.525500 0.000000
-4.482800 0.000000
-4.440000 0.000000
-4.397300 0.000000
-4.354600 0.000000
-4.311800 0.000000
-4.269100 0.000000
-4.226400 0.000000
-4.183600 0.000000
-4.140900 0.000000
-4.098200 0.000000
-4.055400 0.000000
-4.012700 0.000000
-3.969900 0.000000
-3.927200 0.000000
-3.884500 0.000000
-3.841700 0.000000
-3.799000 0.000000
-3.756300 0.000000
-3.713500 0.000000
-3.670800 0.000000
-3.628100 0.000000
-3.585300 0.000000
-3.542600 0.000000
-3.499900 0.000000
-3.457100 0.000000
-3.414400 0.000000
-3.371600 0.000000
-3.328900 0.000000
-3.286200 0.000000
-3.243400 0.000000
-3.200700 0.001100
-3.158000 0.032400
-3.115200 0.065200
-3.072500 0.085800
-3.029800 0.101900
-2.987000 0.115000
-2.944300 0.128800
-2.901500 0.147000
-2.858800 0.164100
-2.816100 0.179700
-2.773300 0.193100
-2.730600 0.208500
-2.687900 0.224500
-2.645100 0.240600
-2.602400 0.258200
-2.559700 0.278200
-2.516900 0.298800
-2.474200 0.321800
-2.431400 0.348600
-2.388700 0.379200
-2.346000 0.409600
-2.303200 0.499300
-2.260500 0.584500
-2.217800 0.669500
-2.175000 0.893400
-2.132300 1.008700
-2.089600 1.230700
-2.046800 1.472500
-2.004100 1.758400
-1.961300 1.774600
-1.918600 1.746400
-1.875900 1.769700
-1.833100 1.800000
-1.790400 1.974400
-1.747700 1.654400
-1.704900 1.570000
-1.662200 1.681300
-1.619500 1.495700
-1.576700 1.343500
-1.534000 1.256000
-1.491200 1.172900
-1.448500 1.040100
-1.405800 1.012300
-1.363000 1.255300
-1.320300 1.222800
-1.277600 1.190400
-1.234800 1.110500
-1.192100 1.327500
-1.149400 1.675200
-1.106600 2.089300
-1.063900 2.596900
-1.021200 2.471400
-0.978400 2.287900
-0.935700 2.256300
-0.892900 1.932500
-0.850200 1.972800
-0.807500 2.164900
-0.764700 2.471100
-0.722000 2.435500
-0.679300 2.504400
-0.636500 2.497700
-0.593800 2.582200
-0.551100 2.600300
-0.508300 2.530200
-0.465600 2.214000
-0.422800 1.955400
-0.380100 2.008800
-0.337400 1.931300
-0.294600 2.116400
-0.251900 2.440200
-0.209200 2.746400
-0.166400 2.847700
-0.123700 3.077700
-0.081000 2.747700
-0.038200 2.726200
0.004500 2.119600
0.047300 1.847000
0.090000 1.704600
0.132700 1.508300
0.175500 1.390700
0.218200 1.330700
0.260900 1.354800
0.303700 1.403000
0.346400 1.482700
0.389100 1.612300
0.431900 1.394000
0.474600 1.359200
0.517400 1.419100
0.560100 1.529100
0.602800 1.684100
0.645600 1.962100
0.688300 2.007300
0.731000 1.945400
0.773800 1.522100
0.816500 1.298200
0.859200 1.136200
0.902000 0.881600
0.944700 0.706100
0.987500 0.549600
1.030200 0.395700
1.072900 0.299800
1.115700 0.253900
1.158400 0.202100
1.201100 0.156700
1.243900 0.114000
1.286600 0.069900
1.329300 0.026300
1.372100 0.000000
1.414800 0.000000
1.457500 0.000700
1.500300 0.003400
1.543000 0.008100
1.585800 0.015200
1.628500 0.025100
1.671200 0.037100
1.714000 0.052900
1.756700 0.074100
1.799400 0.102400
1.842200 0.139500
1.884900 0.214800
1.927600 0.379400
1.970400 0.508900
2.013100 0.716400
2.055900 0.916300
2.098600 1.020200
2.141300 1.203400
2.184100 1.447100
2.226800 1.899700
2.269500 2.520700
2.312300 2.542500
2.355000 2.158600
2.397700 2.094200
2.440500 1.999200
2.483200 1.878800
2.526000 1.744300
2.568700 1.964300
2.611400 2.063300
2.654200 2.145200
2.696900 2.816700
2.739600 3.222800
2.782400 4.026900
2.825100 2.902300
2.867800 2.574400
2.910600 1.719800
2.953300 1.520700
2.996100 1.558600
3.038800 1.377500
3.081500 1.231000
3.124300 1.108800
3.167000 0.891100
3.209700 0.922400
3.252500 0.994800
3.295200 1.185000
3.337900 1.210600
3.380700 1.205300
3.423400 1.081400
3.466200 1.034300
3.508900 0.955700
3.551600 0.851500
3.594400 0.790100
3.637100 0.772800
3.679800 0.765600
3.722600 0.744000
3.765300 0.722300
3.808000 0.691400
3.850800 0.663600
3.893500 0.649300
3.936200 0.641500
3.979000 0.640500
4.021700 0.631300
4.064500 0.622700
4.107200 0.615000
4.149900 0.609200
4.192700 0.612900
4.235400 0.624800
4.278100 0.605900
4.320900 0.602900
4.363600 0.606600
4.406300 0.611800
4.449100 0.645500
4.491800 0.671600
4.534600 0.679700
4.577300 0.570500
4.620000 0.503000
4.662800 0.485900
4.705500 0.500400
4.748200 0.497200
4.791000 0.527500
4.833700 0.550700
4.876400 0.655600
4.919200 0.741200
4.961900 0.938500
5.004700 0.984500
5.047400 1.006500
5.090100 1.108200
5.132900 1.117400
5.175600 1.163000
5.218300 0.784000
5.261100 0.757700
5.303800 0.891800
5.346500 0.816400
5.389300 0.121300
5.432000 0.000000
5.474800 0.000000
5.517500 0.000000
5.560200 0.000000
5.603000 0.000000
5.645700 0.000000
5.688400 0.000000
5.731200 0.000000
5.773900 0.000000
5.816600 0.000000
5.859400 0.000000
5.902100 0.000000
5.944800 0.000000
5.987600 0.000000
6.030300 0.000000
6.073100 0.000500
6.115800 0.058700
6.158500 0.210400
6.201300 0.574600
6.244000 1.305900
6.286700 1.719300
6.329500 1.759100
6.372200 1.848000
6.414900 2.017900
6.457700 2.030300
6.500400 2.033000
6.543200 2.101100
6.585900 2.264100
6.628600 2.425500
6.671400 2.701100
6.714100 2.893500
6.756800 3.209400
6.799600 3.498300
6.842300 3.946400
6.885000 4.735400
6.927800 3.623400
6.970500 3.635700
7.013300 3.231900
7.056000 3.125400
7.098700 3.686800
7.141500 2.890800
7.184200 2.832400
7.226900 3.389100
7.269700 4.012000
7.312400 4.996200
7.355100 5.366200
7.397900 5.088900
7.440600 3.918300
7.483400 3.471000
7.526100 3.321400
7.568800 3.133800
7.611600 2.898000
7.654300 2.589000
7.697000 2.693600
7.739800 2.330900
7.782500 1.936200
7.825200 1.674300
7.868000 1.677800
7.910700 1.488900
7.953500 1.589100
7.996200 1.695100
8.038900 1.918300
8.081700 2.077000
8.124400 2.202900
8.167100 2.070200
8.209900 2.141100
8.252600 2.543600
8.295300 2.618800
8.338100 2.540900
8.380800 1.780000
8.423500 1.273100
8.466300 1.138100
8.509000 0.915000
8.551800 0.772100
8.594500 0.857000
8.637200 0.923300
8.680000 1.036700
8.722700 1.133100
8.765400 1.046600
8.808200 0.972600
8.850900 0.928500
8.893600 0.893700
8.936400 0.863100
8.979100 0.839200
9.021900 0.820700
9.064600 0.804300
9.107300 0.789600
9.150100 0.783400
9.192800 0.775100
9.235500 0.755000
9.278300 0.733800
9.321000 0.699400
9.363700 0.668200
9.406500 0.630700
9.449200 0.587800
9.492000 0.526500
9.534700 0.459000
9.577400 0.416700
9.620200 0.364100
9.662900 0.337300
9.705600 0.322200
9.748400 0.310100
9.791100 0.282600
9.833800 0.287800
9.876600 0.292100
9.919300 0.287900
9.962100 0.308400
10.004800 0.339900
10.047500 0.380600
10.090300 0.461300
10.133000 0.564700
10.175700 0.676600
10.218500 0.814100
10.261200 0.876400
10.303900 0.876400
10.346700 0.902900
10.389400 0.908100
10.432200 0.910400
10.474900 0.897300
10.517600 0.899200
10.560400 0.900300
10.603100 0.877000
10.645800 0.825700
10.688600 0.784800
10.731300 0.744200
10.774000 0.707500
10.816800 0.669700
10.859500 0.637900
10.902200 0.602400
10.945000 0.569700
10.987700 0.520700
11.030500 0.475900
11.073200 0.400600
11.115900 0.310300
11.158700 0.257700
11.201400 0.209800
11.244100 0.191700
11.286900 0.178200
11.329600 0.177200
11.372300 0.209200
11.415100 0.231000
11.457800 0.258900
11.500600 0.289800
11.543300 0.299900
11.586000 0.286800
11.628800 0.266600
11.671500 0.256800
11.714200 0.254100
11.757000 0.257100
11.799700 0.258700
11.842400 0.262100
11.885200 0.272800
11.927900 0.285800
11.970700 0.296300
12.013400 0.307900
12.056100 0.320800
12.098900 0.340700
12.141600 0.360500
12.184300 0.379900
12.227100 0.416200
12.269800 0.407800
12.312500 0.411300
12.355300 0.406500
12.398000 0.393100
12.440800 0.383500
12.483500 0.378000
12.526200 0.373000
12.569000 0.373800
12.611700 0.377500
12.654400 0.382200
12.697200 0.387200
12.739900 0.392300
12.782600 0.394900
12.825400 0.394000
12.868100 0.395200
12.910900 0.397400
12.953600 0.398700
12.996300 0.398700
13.039100 0.396500
13.081800 0.399300
13.124500 0.399200
13.167300 0.427800
13.210000 0.482000
13.252700 0.493500
13.295500 0.505300
13.338200 0.517300
13.380900 0.527100
13.423700 0.540500
13.466400 0.540600
13.509200 0.541900
13.551900 0.536300
13.594600 0.546200
13.637400 0.555500
13.680100 0.608200
13.722800 0.619700
13.765600 0.640900
13.808300 0.667500
13.851000 0.650300
13.893800 0.704700
13.936500 0.791500
13.979300 0.838300
14.022000 0.856500
14.064700 0.853700
14.107500 0.883100
14.150200 0.947600
14.192900 0.927300
14.235700 0.932500
14.278400 0.879600
14.321100 0.827900
14.363900 0.791200
14.406600 0.757300
14.449400 0.716200
14.492100 0.681800
14.534800 0.655800
14.577600 0.629100
14.620300 0.606100
14.663000 0.592400
14.705800 0.575900
14.748500 0.563400
14.791200 0.554100
14.834000 0.515600
14.876700 0.470000
14.919500 0.439900
14.962200 0.492600
15.004900 0.399600
15.047700 0.390400
15.090400 0.384200
15.133100 0.384100
15.175900 0.399600
15.218600 0.411300
15.261300 0.415800
15.304100 0.473200
15.346800 0.490100
15.389600 0.521300
15.432300 0.568400
15.475000 0.635600
15.517800 0.709900
15.560500 0.801200
15.603200 0.852400
15.646000 0.836800
15.688700 0.827800
15.731400 0.833900
15.774200 0.838300
15.816900 0.838600
15.859600 0.828100
15.902400 0.818300
15.945100 0.813600
15.987900 0.808300
16.030600 0.797100
16.073300 0.808700
16.116100 0.827700
16.158800 0.773300
16.201500 0.760800
16.244300 0.710600
16.287000 0.681500
16.329700 0.640900
16.372500 0.602500
16.415200 0.581600
16.458000 0.563600
16.500700 0.565800
16.543400 0.575000
16.586200 0.589800
16.628900 0.601900
16.671600 0.610200
16.714400 0.611500
16.757100 0.637100
16.799800 0.673500
16.842600 0.659400
16.885300 0.664800
16.928100 0.767500
16.970800 0.723200
17.013500 0.746800
17.056300 0.780100
17.099000 0.787100
17.141700 0.803200
17.184500 0.811200
17.227200 0.835200
17.269900 0.868300
17.312700 0.897600
17.355400 0.922200
17.398200 0.952600
17.440900 0.994600
17.483600 1.021400
17.526400 1.024900
17.569100 0.992300
17.611800 0.925500
17.654600 0.882000
17.697300 0.856400
17.740000 0.823600
17.782800 0.806900
17.825500 0.800000
17.868300 0.795400
17.911000 0.790300
17.953700 0.770400
17.996500 0.755100
18.039200 0.766800
18.081900 0.778900
18.124700 0.790800
18.167400 0.792600
18.210100 0.792300
18.252900 0.794100
18.295600 0.798200
18.338300 0.795900
18.381100 0.792400
18.423800 0.796400
18.466600 0.805400
18.509300 0.813900
18.552000 0.829400
18.594800 0.851500
18.637500 0.879200
18.680200 0.928400
18.723000 0.992400
18.765700 1.128500
18.808400 1.257200
18.851200 1.360800
18.893900 1.264300
18.936700 1.199900
18.979400 1.131600
19.022100 1.075700
19.064900 1.035100
19.107600 1.008500
19.150300 1.005100
19.193100 0.980500
19.235800 1.012500
19.278500 1.021200
19.321300 1.027400
19.364000 1.001500
19.406800 1.015400
19.449500 1.099100
19.492200 1.043200
19.535000 0.977100
19.577700 0.985100
19.620400 1.016200
19.663200 1.083700
19.705900 1.082200
19.748600 1.056000
19.791400 1.029400
19.834100 0.989600
19.876900 1.003000
19.919600 0.994000
19.962300 1.016500
20.005100 1.000400
20.047800 0.838600
20.090500 0.758400
20.133300 0.708200
20.176000 0.677600
20.218700 0.653200
20.261500 0.645900
20.304200 0.651800
20.347000 0.676200
20.389700 0.679800
20.432400 0.693300
20.475200 0.718600
20.517900 0.721800
20.560600 0.733800
20.603400 0.735800
20.646100 0.733800
20.688800 0.737500
20.731600 0.746000
20.774300 0.767100
20.817000 0.789400
20.859800 0.821600
20.902500 0.855500
20.945300 0.871800
20.988000 0.848700
21.030700 0.816600
21.073500 0.795300
21.116200 0.772300
21.158900 0.756200
21.201700 0.756900
21.244400 0.739100
21.287100 0.709900
21.329900 0.691200
21.372600 0.657500
21.415400 0.632200
21.458100 0.629600
21.500800 0.639300
21.543600 0.655500
21.586300 0.678200
21.629000 0.694100
21.671800 0.718500
21.714500 0.754300
21.757200 0.797800
21.800000 0.832400
21.842700 0.859400
21.885500 0.854300
21.928200 0.863700
21.970900 0.853100
22.013700 0.854500
22.056400 0.844400
22.099100 0.823200
22.141900 0.810500
22.184600 0.814100
22.227300 0.816400
22.270100 0.842500
22.312800 0.859000
22.355600 0.839400
22.398300 0.841400
22.441000 0.852700
22.483800 0.878600
22.526500 0.938800
22.569200 0.990800
22.612000 1.034800
22.654700 1.120600
22.697400 1.108900
22.740200 1.077900
22.782900 1.063800
22.825600 1.054200
22.868400 1.043900
22.911100 1.012300
22.953900 0.992600
22.996600 0.982600
23.039300 0.988900
23.082100 1.036800
23.124800 1.080800
23.167500 1.102700
23.210300 1.098400
23.253000 1.095700
23.295700 1.072600
23.338500 1.078100
23.381200 1.032100
23.424000 1.004800
23.466700 0.975100
23.509400 0.969100
23.552200 0.966200
23.594900 0.956000
23.637600 0.960300
23.680400 0.961000
23.723100 0.972200
23.765800 1.007800
23.808600 1.072300
23.851300 1.085400
23.894100 1.105600
23.936800 1.079600
23.979500 1.079400
24.022300 1.049300
24.065000 0.988400
24.107700 0.971800
24.150500 0.968400
24.193200 0.991400
24.235900 1.010100
24.278700 1.023400
24.321400 1.058300
24.364200 1.093100
24.406900 1.115400
24.449600 1.113000
24.492400 1.078700
24.535100 0.998200
24.577800 0.922300
24.620600 0.870700
24.663300 0.826800
24.706000 0.794000
24.748800 0.759600
24.791500 0.728000
24.834300 0.708900
24.877000 0.697400
24.919700 0.705200
24.962500 0.709300
25.005200 0.711800
25.047900 0.704800
25.090700 0.691600
25.133400 0.681600
25.176100 0.664100
25.218900 0.640300
25.261600 0.620100
25.304300 0.598700
25.347100 0.586100
25.389800 0.581300
25.432600 0.584800
25.475300 0.598600
25.518000 0.612000
25.560800 0.622000
25.603500 0.619500
25.646200 0.640100
25.689000 0.676800
25.731700 0.696900
25.774400 0.705000
25.817200 0.717800
25.859900 0.743000
25.902700 0.773500
25.945400 0.796600
25.988100 0.808300
26.030900 0.807600
26.073600 0.797100
26.116300 0.786600
26.159100 0.785700
26.201800 0.785800
26.244500 0.776100
26.287300 0.773100
26.330000 0.817000
26.372800 0.823700
26.415500 0.835600
26.458200 0.831600
26.501000 0.859300
26.543700 0.904700
26.586400 0.914200
26.629200 0.916200
26.671900 0.904100
26.714600 0.884900
26.757400 0.905600
26.800100 0.935900
26.842900 0.955400
26.885600 0.977300
26.928300 1.023500
26.971100 1.014700
27.013800 0.992500
27.056500 0.931800
27.099300 0.893700
27.142000 0.855700
27.184700 0.819700
27.227500 0.787300
27.270200 0.768100
27.313000 0.759600
27.355700 0.759700
27.398400 0.753000
27.441200 0.741200
27.483900 0.729800
27.526600 0.686600
27.569400 0.683900
27.612100 0.701000
27.654800 0.739000
27.697600 0.782900
27.740300 0.841100
27.783000 0.907900
27.825800 0.933500
27.868500 0.945300
27.911300 0.947400
27.954000 0.916100
27.996700 0.891700
28.039500 0.870900
28.082200 0.854600
28.124900 0.844200
28.167700 0.834800
28.210400 0.818600
28.253100 0.811500
28.295900 0.816600
28.338600 0.815200
28.381400 0.815700
28.424100 0.808800
28.466800 0.834400
28.509600 0.835300
28.552300 0.858400
28.595000 0.846700
28.637800 0.827300
28.680500 0.838500
28.723200 0.865200
28.766000 0.895400
28.808700 0.934500
28.851500 0.977100
28.894200 1.050700
28.936900 1.093700
28.979700 1.077900
29.022400 1.074600
29.065100 1.046800
29.107900 0.999600
29.150600 0.951500
29.193300 0.916900
29.236100 0.891700
29.278800 0.876400
29.321600 0.860400
29.364300 0.843000
29.407000 0.842900
29.449800 0.909900
29.492500 0.978500
29.535200 1.013000
29.578000 1.084500
29.620700 1.145000
29.663400 1.185900
29.706200 1.207300
29.748900 1.152000
29.791700 1.106100
29.834400 1.070200
29.877100 1.058600
29.919900 1.045300
29.962600 1.025400
30.005300 1.037700
30.048100 1.076800
30.090800 1.132200
30.133500 1.151300
30.176300 1.167900
30.219000 1.193700
30.261700 1.175000
30.304500 1.151200
30.347200 1.098600
30.390000 1.052400
30.432700 1.004600
30.475400 0.933700
30.518200 0.908300
30.560900 0.903100
30.603600 0.898900
30.646400 0.889500
30.689100 0.884500
30.731800 0.922700
30.774600 0.923300
30.817300 0.931500
30.860100 0.952600
30.902800 0.992200
30.945500 0.968500
30.988300 0.972000
31.031000 0.996300
31.073700 1.001500
31.116500 1.009700
31.159200 1.013500
31.201900 1.020800
31.244700 1.023700
31.287400 1.022900
31.330200 1.019100
31.372900 1.039700
31.415600 1.069100
31.458400 1.090700
31.501100 1.114400
31.543800 1.114700
31.586600 1.106100
31.629300 1.054600
31.672000 1.052100
31.714800 1.043300
31.757500 1.043400
31.800300 1.013200
31.843000 1.022700
31.885700 1.035500
31.928500 1.054200
31.971200 1.071400
32.013900 1.074100
32.056700 1.088800
32.099400 1.092200
32.142100 1.104200
32.184900 1.114400
32.227600 1.104900
32.270400 1.149700
32.313100 1.175500
32.355800 1.190100
32.398600 1.207700
32.441300 1.181300
32.484000 1.104300
32.526800 1.046000
32.569500 1.019700
32.612200 1.012800
32.655000 1.036000
32.697700 1.029700
32.740400 1.035300
32.783200 1.049600
32.825900 1.118100
32.868700 1.162700
32.911400 1.182100
32.954100 1.223400
32.996900 1.258400
33.039600 1.203600
33.082300 1.198400
33.125100 1.202100
33.167800 1.224700
33.210500 1.248300
33.253300 1.239700
33.296000 1.242000
33.338800 1.258000
33.381500 1.259200
33.424200 1.253800
33.467000 1.242100
33.509700 1.252200
33.552400 1.169100
33.595200 1.141600
33.637900 1.095800
33.680600 1.053800
33.723400 1.045500
33.766100 1.041400
33.808900 1.042400
33.851600 1.022400
33.894300 1.009800
33.937100 0.981300
33.979800 0.952500
34.022500 0.936500
34.065300 0.924400
34.108000 0.924600
34.150700 0.928200
34.193500 0.950800
34.236200 0.965800
34.279000 0.985700
34.321700 0.984700
34.364400 1.010600
34.407200 1.024500
34.449900 1.047000
34.492600 1.072600
34.535400 1.101000
34.578100 1.119200
34.620800 1.115500
34.663600 1.111300
34.706300 1.117100
34.749100 1.111200
34.791800 1.145800
34.834500 1.189600
34.877300 1.168700
34.920000 1.147900
34.962700 1.087200
35.005500 1.067000
35.048200 1.077500
35.090900 1.114400
35.133700 1.067100
35.176400 1.052900
35.219100 1.057700
35.261900 1.072600
35.304600 1.098700
35.347400 1.109700
35.390100 1.109200
35.432800 1.111700
35.475600 1.127100
35.518300 1.141200
35.561000 1.172700
35.603800 1.174400
35.646500 1.156700
35.689200 1.106000
35.732000 1.052900
35.774700 1.000800
35.817500 0.950800
35.860200 0.923500
35.902900 0.879200
35.945700 0.861700
35.988400 0.853200
36.031100 0.844300
36.073900 0.808500
36.116600 0.801400
36.159300 0.803300
36.202100 0.799300
36.244800 0.793800
36.287600 0.781700
36.330300 0.764100
36.373000 0.748500
36.415800 0.735600
36.458500 0.714200
36.501200 0.695300
36.544000 0.669000
36.586700 0.627600
36.629400 0.592000
36.672200 0.547700
36.714900 0.488500
36.757700 0.442000
36.800400 0.429800
36.843100 0.411800
36.885900 0.403700
36.928600 0.393700
36.971300 0.384500
37.014100 0.382300
37.056800 0.396500
37.099500 0.423800
37.142300 0.437900
37.185000 0.421800
37.227800 0.408300
37.270500 0.418600
37.313200 0.423100
37.356000 0.441800
37.398700 0.452600
37.441400 0.458100
37.484200 0.459100
37.526900 0.479600
37.569600 0.551000
37.612400 0.469500
37.655100 0.459900
37.697800 0.632400
37.740600 0.403400
37.783300 0.290700
37.826100 0.135700
37.868800 0.047300
37.911500 0.014000
37.954300 0.002400
37.997000 0.000000
38.039700 0.000000
38.082500 0.000000
38.125200 0.000000
38.167900 0.000000
38.210700 0.000000
38.253400 0.000000
38.296200 0.000000
38.338900 0.000000
38.381600 0.000000
38.424400 0.000000
38.467100 0.000000
38.509800 0.000000
38.552600 0.000000
38.595300 0.000000
38.638000 0.000000
38.680800 0.000000
38.723500 0.000000
38.766300 0.000000
38.809000 0.000000
38.851700 0.000000
38.894500 0.000000
38.937200 0.000000
38.979900 0.000000
39.022700 0.000000
39.065400 0.000000
39.108100 0.000000
39.150900 0.000000
39.193600 0.000000
39.236400 0.000000
39.279100 0.000000
39.321800 0.000000
39.364600 0.000000
39.407300 0.000000
39.450000 0.000000
39.492800 0.000000
39.535500 0.000000
39.578200 0.000000
39.621000 0.000000
39.663700 0.000000
39.706400 0.000000
39.749200 0.000000
39.791900 0.000000
39.834700 0.000000
39.877400 0.000000
39.920100 0.000000
39.962900 0.000000
40.005600 0.000000
40.048300 0.000000
40.091100 0.000000
40.133800 0.000000
40.176500 0.000000
40.219300 0.000000
40.262000 0.000000
40.304800 0.000000
40.347500 0.000000
40.390200 0.000000
40.433000 0.000000
40.475700 0.000000
40.518400 0.000000
40.561200 0.000000
40.603900 0.000000
40.646600 0.000000
40.689400 0.000000
40.732100 0.000000
40.774900 0.000000
40.817600 0.000000
40.860300 0.000000
40.903100 0.000000
40.945800 0.000000
40.988500 0.000000
41.031300 0.000000
41.074000 0.000000
41.116700 0.000000
41.159500 0.000000
41.202200 0.000000
41.245000 0.000000
41.287700 0.000000
41.330400 0.000000
41.373200 0.000000
41.415900 0.000000
41.458600 0.000000
41.501400 0.000000
41.544100 0.000000
41.586800 0.000000
41.629600 0.000000
41.672300 0.000000
41.715100 0.000000
41.757800 0.000000
41.800500 0.000000
41.843300 0.000000
41.886000 0.000000
e
