set title 'mp-1018852 - Density of States'
set xlabel 'Energy (eV)'
set ylabel 'DOS (states/eV)'
set grid
set xrange [-10:10]
set yrange [0:5.897]
set xzeroaxis lt -1
set terminal png size 800,600
set output 'mp-1018852_dos_gnuplot.png'
plot '-' using 1:2 with lines title 'DOS'
-41.580800 0.000000
-41.539700 0.000000
-41.498500 0.000000
-41.457400 0.000000
-41.416300 0.000000
-41.375100 0.000000
-41.334000 0.000000
-41.292900 0.000000
-41.251800 0.000000
-41.210600 0.000000
-41.169500 0.000000
-41.128400 0.000000
-41.087200 0.000000
-41.046100 0.000000
-41.005000 0.000000
-40.963800 0.000000
-40.922700 0.000000
-40.881600 0.000000
-40.840500 0.000000
-40.799300 0.000000
-40.758200 0.000000
-40.717100 0.000000
-40.675900 0.000000
-40.634800 0.000000
-40.593700 0.000000
-40.552600 0.000000
-40.511400 0.000000
-40.470300 0.000000
-40.429200 0.000000
-40.388000 0.000000
-40.346900 0.000000
-40.305800 0.000000
-40.264600 0.000000
-40.223500 0.000000
-40.182400 0.000000
-40.141300 0.000000
-40.100100 0.000000
-40.059000 0.000000
-40.017900 0.000000
-39.976700 0.000000
-39.935600 0.000000
-39.894500 0.000000
-39.853400 0.000000
-39.812200 0.000000
-39.771100 0.000000
-39.730000 0.000000
-39.688800 0.000000
-39.647700 0.000000
-39.606600 0.000000
-39.565400 0.000000
-39.524300 0.000000
-39.483200 0.000000
-39.442100 0.000000
-39.400900 0.000000
-39.359800 0.000000
-39.318700 0.000000
-39.277500 0.000000
-39.236400 0.000000
-39.195300 0.000000
-39.154200 0.000000
-39.113000 0.000000
-39.071900 0.000000
-39.030800 0.000000
-38.989600 0.000000
-38.948500 0.000000
-38.907400 0.000000
-38.866200 0.000000
-38.825100 0.000000
-38.784000 0.000000
-38.742900 0.000000
-38.701700 0.000000
-38.660600 0.000000
-38.619500 0.000000
-38.578300 0.000000
-38.537200 0.000000
-38.496100 0.000000
-38.455000 0.000000
-38.413800 0.000000
-38.372700 0.000000
-38.331600 0.000000
-38.290400 0.000000
-38.249300 0.000000
-38.208200 0.000000
-38.167000 0.000000
-38.125900 0.000000
-38.084800 0.000000
-38.043700 0.000000
-38.002500 0.000000
-37.961400 0.000000
-37.920300 0.000000
-37.879100 0.000000
-37.838000 1.192600
-37.796900 13.156100
-37.755700 7.453200
-37.714600 5.088600
-37.673500 5.054800
-37.632400 4.101500
-37.591200 4.101600
-37.550100 3.974700
-37.509000 3.803800
-37.467800 3.803900
-37.426700 3.941400
-37.385600 3.993900
-37.344500 3.994000
-37.303300 4.841500
-37.262200 4.841700
-37.221100 18.468900
-37.179900 37.450300
-37.138800 46.423100
-37.097700 45.068700
-37.056500 41.510000
-37.015400 27.506200
-36.974300 0.000000
-36.933200 0.000000
-36.892000 0.000000
-36.850900 0.000000
-36.809800 0.000000
-36.768600 0.000000
-36.727500 0.000000
-36.686400 0.000000
-36.645300 0.000000
-36.604100 0.000000
-36.563000 0.000000
-36.521900 0.000000
-36.480700 0.000000
-36.439600 0.000000
-36.398500 0.000000
-36.357300 0.000000
-36.316200 0.000000
-36.275100 0.000000
-36.234000 0.000000
-36.192800 0.000000
-36.151700 0.000000
-36.110600 0.000000
-36.069400 0.000000
-36.028300 0.000000
-35.987200 0.000000
-35.946100 0.000000
-35.904900 0.000000
-35.863800 0.000000
-35.822700 0.000000
-35.781500 0.000000
-35.740400 0.000000
-35.699300 0.000000
-35.658100 0.000000
-35.617000 0.000000
-35.575900 0.000000
-35.534800 0.000000
-35.493600 0.000000
-35.452500 0.000000
-35.411400 0.000000
-35.370200 0.000000
-35.329100 0.000000
-35.288000 0.000000
-35.246900 0.000000
-35.205700 0.000000
-35.164600 0.000000
-35.123500 0.000000
-35.082300 0.000000
-35.041200 0.000000
-35.000100 0.000000
-34.958900 0.000000
-34.917800 0.000000
-34.876700 0.000000
-34.835600 0.000000
-34.794400 0.000000
-34.753300 0.000000
-34.712200 0.000000
-34.671000 0.000000
-34.629900 0.000000
-34.588800 0.000000
-34.547700 0.000000
-34.506500 0.000000
-34.465400 0.000000
-34.424300 0.000000
-34.383100 0.000000
-34.342000 0.000000
-34.300900 0.000000
-34.259700 0.000000
-34.218600 0.000000
-34.177500 0.000000
-34.136400 0.000000
-34.095200 0.000000
-34.054100 0.000000
-34.013000 0.000000
-33.971800 0.000000
-33.930700 0.000000
-33.889600 0.000000
-33.848400 0.000000
-33.807300 0.000000
-33.766200 0.000000
-33.725100 0.000000
-33.683900 0.000000
-33.642800 0.000000
-33.601700 0.000000
-33.560500 0.000000
-33.519400 0.000000
-33.478300 0.000000
-33.437200 0.000000
-33.396000 0.000000
-33.354900 0.000000
-33.313800 0.000000
-33.272600 0.000000
-33.231500 0.000000
-33.190400 0.000000
-33.149200 0.000000
-33.108100 0.000000
-33.067000 0.000000
-33.025900 0.000000
-32.984700 0.000000
-32.943600 0.000000
-32.902500 0.000000
-32.861300 0.000000
-32.820200 0.000000
-32.779100 0.000000
-32.738000 0.000000
-32.696800 0.000000
-32.655700 0.000000
-32.614600 0.000000
-32.573400 0.000000
-32.532300 0.000000
-32.491200 0.000000
-32.450000 0.000000
-32.408900 0.000000
-32.367800 0.000000
-32.326700 0.000000
-32.285500 0.000000
-32.244400 0.000000
-32.203300 0.000000
-32.162100 0.000000
-32.121000 0.000000
-32.079900 0.000000
-32.038800 0.000000
-31.997600 0.000000
-31.956500 0.000000
-31.915400 0.000000
-31.874200 0.000000
-31.833100 0.000000
-31.792000 0.000000
-31.750800 0.000000
-31.709700 0.000000
-31.668600 0.000000
-31.627500 0.000000
-31.586300 0.000000
-31.545200 0.000000
-31.504100 0.000000
-31.462900 0.000000
-31.421800 0.000000
-31.380700 0.000000
-31.339600 0.000000
-31.298400 0.000000
-31.257300 0.000000
-31.216200 0.000000
-31.175000 0.000000
-31.133900 0.000000
-31.092800 0.000000
-31.051600 0.000000
-31.010500 0.000000
-30.969400 0.000000
-30.928300 0.000000
-30.887100 0.000000
-30.846000 0.000000
-30.804900 0.000000
-30.763700 0.000000
-30.722600 0.000000
-30.681500 0.000000
-30.640400 0.000000
-30.599200 0.000000
-30.558100 0.000000
-30.517000 0.000000
-30.475800 0.000000
-30.434700 0.000000
-30.393600 0.000000
-30.352400 0.000000
-30.311300 0.000000
-30.270200 0.000000
-30.229100 0.000000
-30.187900 0.000000
-30.146800 0.000000
-30.105700 0.000000
-30.064500 0.000000
-30.023400 0.000000
-29.982300 0.000000
-29.941100 0.000000
-29.900000 0.000000
-29.858900 0.000000
-29.817800 0.000000
-29.776600 0.000000
-29.735500 0.000000
-29.694400 0.000000
-29.653200 0.000000
-29.612100 0.000000
-29.571000 0.000000
-29.529900 0.000000
-29.488700 0.000000
-29.447600 0.000000
-29.406500 0.000000
-29.365300 0.000000
-29.324200 0.000000
-29.283100 0.000000
-29.241900 0.000000
-29.200800 0.000000
-29.159700 0.000000
-29.118600 0.000000
-29.077400 0.000000
-29.036300 0.000000
-28.995200 0.000000
-28.954000 0.000000
-28.912900 0.000000
-28.871800 0.000000
-28.830700 0.000000
-28.789500 0.000000
-28.748400 0.000000
-28.707300 0.000000
-28.666100 0.000000
-28.625000 0.000000
-28.583900 0.000000
-28.542700 0.000000
-28.501600 0.000000
-28.460500 0.000000
-28.419400 0.000000
-28.378200 0.000000
-28.337100 0.000000
-28.296000 0.000000
-28.254800 0.000000
-28.213700 0.000000
-28.172600 0.000000
-28.131500 0.000000
-28.090300 0.000000
-28.049200 0.000000
-28.008100 0.000000
-27.966900 0.000000
-27.925800 0.000000
-27.884700 0.000000
-27.843500 0.000000
-27.802400 0.000000
-27.761300 0.000000
-27.720200 0.000000
-27.679000 0.000000
-27.637900 0.000000
-27.596800 0.000000
-27.555600 0.000000
-27.514500 0.000000
-27.473400 0.000000
-27.432300 0.000000
-27.391100 0.000000
-27.350000 0.000000
-27.308900 0.000000
-27.267700 0.000000
-27.226600 0.000000
-27.185500 0.000000
-27.144300 0.000000
-27.103200 0.000000
-27.062100 0.000000
-27.021000 0.000000
-26.979800 0.000000
-26.938700 0.000000
-26.897600 0.000000
-26.856400 0.000000
-26.815300 0.000000
-26.774200 0.000000
-26.733100 0.000000
-26.691900 0.000000
-26.650800 0.000000
-26.609700 0.000000
-26.568500 0.000000
-26.527400 0.000000
-26.486300 0.000000
-26.445100 0.000000
-26.404000 0.000000
-26.362900 0.000000
-26.321800 0.000000
-26.280600 0.000000
-26.239500 0.000000
-26.198400 0.000000
-26.157200 0.000000
-26.116100 0.000000
-26.075000 0.000000
-26.033800 0.000000
-25.992700 0.000000
-25.951600 0.000000
-25.910500 0.000000
-25.869300 0.000000
-25.828200 0.000000
-25.787100 0.000000
-25.745900 0.000000
-25.704800 0.000000
-25.663700 0.000000
-25.622600 0.000000
-25.581400 0.000000
-25.540300 0.000000
-25.499200 0.000000
-25.458000 0.000000
-25.416900 0.000000
-25.375800 0.000000
-25.334600 0.000000
-25.293500 0.000000
-25.252400 0.000000
-25.211300 0.000000
-25.170100 0.000000
-25.129000 0.000000
-25.087900 0.000000
-25.046700 0.000000
-25.005600 0.000000
-24.964500 0.000000
-24.923400 0.000000
-24.882200 0.000000
-24.841100 0.000000
-24.800000 0.000000
-24.758800 0.000000
-24.717700 0.000000
-24.676600 0.000000
-24.635400 0.000000
-24.594300 0.000000
-24.553200 0.000000
-24.512100 0.000000
-24.470900 0.000000
-24.429800 0.000000
-24.388700 0.000000
-24.347500 0.000000
-24.306400 0.000000
-24.265300 0.000000
-24.224200 0.000000
-24.183000 0.000000
-24.141900 0.000000
-24.100800 0.000000
-24.059600 0.000000
-24.018500 0.000000
-23.977400 0.000000
-23.936200 0.000000
-23.895100 0.000000
-23.854000 0.000000
-23.812900 0.000000
-23.771700 0.000000
-23.730600 0.000000
-23.689500 0.000000
-23.648300 0.000000
-23.607200 0.000000
-23.566100 0.000000
-23.525000 0.000000
-23.483800 0.000000
-23.442700 0.000000
-23.401600 0.000000
-23.360400 0.000000
-23.319300 0.000000
-23.278200 0.000000
-23.237000 0.000000
-23.195900 0.000000
-23.154800 0.000000
-23.113700 0.000000
-23.072500 0.000000
-23.031400 0.000000
-22.990300 0.000000
-22.949100 0.000000
-22.908000 0.000000
-22.866900 0.000000
-22.825800 0.000000
-22.784600 0.000000
-22.743500 0.000000
-22.702400 0.000000
-22.661200 0.000000
-22.620100 0.000000
-22.579000 0.000000
-22.537800 0.000000
-22.496700 0.000000
-22.455600 0.000000
-22.414500 0.000000
-22.373300 0.000000
-22.332200 0.000000
-22.291100 0.000000
-22.249900 0.000000
-22.208800 0.000000
-22.167700 0.000000
-22.126500 0.000000
-22.085400 0.000000
-22.044300 0.000000
-22.003200 0.000000
-21.962000 0.000000
-21.920900 0.000000
-21.879800 0.000000
-21.838600 0.000000
-21.797500 0.000000
-21.756400 0.000000
-21.715300 0.000000
-21.674100 0.000000
-21.633000 0.000000
-21.591900 0.000000
-21.550700 0.000000
-21.509600 0.000000
-21.468500 0.000000
-21.427300 0.000000
-21.386200 0.000000
-21.345100 0.000000
-21.304000 0.000000
-21.262800 0.000000
-21.221700 0.000000
-21.180600 0.000000
-21.139400 0.000000
-21.098300 0.000000
-21.057200 0.000000
-21.016100 0.000000
-20.974900 0.000000
-20.933800 0.000000
-20.892700 0.000000
-20.851500 0.000000
-20.810400 0.000000
-20.769300 0.000000
-20.728100 0.000000
-20.687000 0.000000
-20.645900 0.000000
-20.604800 0.000000
-20.563600 0.000000
-20.522500 0.000000
-20.481400 0.000000
-20.440200 0.000000
-20.399100 0.000000
-20.358000 0.000000
-20.316900 0.000000
-20.275700 0.000000
-20.234600 0.000000
-20.193500 0.000000
-20.152300 0.000000
-20.111200 0.000000
-20.070100 0.000000
-20.028900 0.000000
-19.987800 0.000000
-19.946700 0.000000
-19.905600 0.000000
-19.864400 0.000000
-19.823300 0.000000
-19.782200 0.000000
-19.741000 0.000000
-19.699900 0.000000
-19.658800 0.000000
-19.617700 0.000000
-19.576500 0.000000
-19.535400 0.000000
-19.494300 0.000000
-19.453100 0.000000
-19.412000 0.000000
-19.370900 0.000000
-19.329700 0.000000
-19.288600 0.000000
-19.247500 0.000000
-19.206400 0.000000
-19.165200 0.000000
-19.124100 0.000000
-19.083000 0.000000
-19.041800 0.000000
-19.000700 0.000000
-18.959600 0.000000
-18.918500 0.000000
-18.877300 0.000000
-18.836200 0.000000
-18.795100 0.000000
-18.753900 0.000000
-18.712800 0.000000
-18.671700 0.000000
-18.630500 0.000000
-18.589400 0.000000
-18.548300 0.000000
-18.507200 0.000000
-18.466000 0.000000
-18.424900 0.000000
-18.383800 0.000000
-18.342600 0.000000
-18.301500 0.000000
-18.260400 0.000000
-18.219200 0.000000
-18.178100 0.000000
-18.137000 0.000000
-18.095900 0.000000
-18.054700 0.000000
-18.013600 0.000000
-17.972500 0.000000
-17.931300 0.000000
-17.890200 0.000000
-17.849100 0.000000
-17.808000 0.000000
-17.766800 0.000000
-17.725700 0.000000
-17.684600 0.000000
-17.643400 0.000000
-17.602300 0.000000
-17.561200 0.000000
-17.520000 0.000000
-17.478900 0.000000
-17.437800 0.000000
-17.396700 0.000000
-17.355500 0.000000
-17.314400 0.000000
-17.273300 0.000000
-17.232100 0.000000
-17.191000 0.000000
-17.149900 0.000000
-17.108800 0.000000
-17.067600 0.000000
-17.026500 0.000000
-16.985400 0.000000
-16.944200 0.000000
-16.903100 0.000000
-16.862000 0.000000
-16.820800 0.000000
-16.779700 0.000000
-16.738600 0.000000
-16.697500 0.000000
-16.656300 0.000000
-16.615200 0.000000
-16.574100 0.000000
-16.532900 0.000000
-16.491800 0.000000
-16.450700 0.000000
-16.409600 0.000000
-16.368400 0.000000
-16.327300 0.000000
-16.286200 0.000000
-16.245000 0.000000
-16.203900 0.000000
-16.162800 0.000000
-16.121600 0.000000
-16.080500 0.000000
-16.039400 0.000000
-15.998300 0.000000
-15.957100 0.000000
-15.916000 0.000000
-15.874900 0.000000
-15.833700 0.000000
-15.792600 0.000000
-15.751500 0.000000
-15.710400 0.000000
-15.669200 0.000000
-15.628100 0.000000
-15.587000 0.000000
-15.545800 0.000000
-15.504700 0.000000
-15.463600 0.000000
-15.422400 0.000000
-15.381300 0.000000
-15.340200 0.000000
-15.299100 0.000000
-15.257900 0.000000
-15.216800 0.000000
-15.175700 0.000000
-15.134500 0.000000
-15.093400 0.000000
-15.052300 0.000000
-15.011200 0.000000
-14.970000 0.000000
-14.928900 0.000000
-14.887800 0.000000
-14.846600 0.000000
-14.805500 0.000000
-14.764400 0.000000
-14.723200 0.000000
-14.682100 0.000000
-14.641000 0.000000
-14.599900 0.000000
-14.558700 0.000000
-14.517600 0.000000
-14.476500 0.000000
-14.435300 0.000000
-14.394200 0.000000
-14.353100 0.000000
-14.311900 0.000000
-14.270800 0.000000
-14.229700 0.000000
-14.188600 0.000000
-14.147400 0.000000
-14.106300 0.000000
-14.065200 0.000000
-14.024000 0.000000
-13.982900 0.000000
-13.941800 0.000000
-13.900700 0.000000
-13.859500 0.000000
-13.818400 0.000000
-13.777300 0.000000
-13.736100 0.000000
-13.695000 0.000000
-13.653900 0.000000
-13.612700 0.000000
-13.571600 0.000000
-13.530500 0.000000
-13.489400 0.000000
-13.448200 0.000000
-13.407100 0.000000
-13.366000 0.000000
-13.324800 0.000000
-13.283700 0.000000
-13.242600 0.000000
-13.201500 0.000000
-13.160300 0.000000
-13.119200 0.000000
-13.078100 0.000000
-13.036900 0.000000
-12.995800 0.000000
-12.954700 0.000000
-12.913500 0.000000
-12.872400 0.000000
-12.831300 0.000000
-12.790200 0.000000
-12.749000 0.000000
-12.707900 0.000000
-12.666800 0.000000
-12.625600 0.000000
-12.584500 0.000000
-12.543400 0.000000
-12.502300 0.000000
-12.461100 0.000000
-12.420000 0.005600
-12.378900 0.133800
-12.337700 0.190500
-12.296600 0.244600
-12.255500 0.315100
-12.214300 0.341900
-12.173200 0.383900
-12.132100 0.427600
-12.091000 0.475500
-12.049800 0.521000
-12.008700 0.558000
-11.967600 0.598000
-11.926400 0.642000
-11.885300 0.693500
-11.844200 0.747000
-11.803100 0.794400
-11.761900 0.845000
-11.720800 0.904600
-11.679700 0.966400
-11.638500 1.030400
-11.597400 1.108400
-11.556300 1.343400
-11.515100 1.361300
-11.474000 1.367300
-11.432900 1.385300
-11.391800 1.414500
-11.350600 1.549300
-11.309500 1.831500
-11.268400 2.066900
-11.227200 2.293400
-11.186100 2.597500
-11.145000 2.942000
-11.103900 3.585500
-11.062700 3.695700
-11.021600 3.739200
-10.980500 4.017700
-10.939300 4.114900
-10.898200 4.617400
-10.857100 4.737700
-10.815900 4.418600
-10.774800 4.454000
-10.733700 4.653500
-10.692600 3.175800
-10.651400 2.556800
-10.610300 2.080400
-10.569200 1.964900
-10.528000 1.910100
-10.486900 1.490400
-10.445800 1.335000
-10.404600 1.184600
-10.363500 1.056000
-10.322400 0.941900
-10.281300 0.840500
-10.240100 0.745200
-10.199000 0.668600
-10.157900 0.593000
-10.116700 0.517400
-10.075600 0.454000
-10.034500 0.394300
-9.993400 0.339700
-9.952200 0.287500
-9.911100 0.216700
-9.870000 0.176000
-9.828800 0.097100
-9.787700 0.003700
-9.746600 0.000000
-9.705400 0.000000
-9.664300 0.000000
-9.623200 0.000000
-9.582100 0.000000
-9.540900 0.000000
-9.499800 0.000000
-9.458700 0.000000
-9.417500 0.000000
-9.376400 0.000000
-9.335300 0.000000
-9.294200 0.000000
-9.253000 0.000000
-9.211900 0.000000
-9.170800 0.000000
-9.129600 0.000000
-9.088500 0.000000
-9.047400 0.000000
-9.006200 0.000000
-8.965100 0.000000
-8.924000 0.000000
-8.882900 0.000000
-8.841700 0.000000
-8.800600 0.000000
-8.759500 0.000000
-8.718300 0.000000
-8.677200 0.000000
-8.636100 0.000000
-8.595000 0.000000
-8.553800 0.000000
-8.512700 0.000000
-8.471600 0.000000
-8.430400 0.000000
-8.389300 0.000000
-8.348200 0.000000
-8.307000 0.000000
-8.265900 0.000000
-8.224800 0.000000
-8.183700 0.000000
-8.142500 0.000000
-8.101400 0.000000
-8.060300 0.000000
-8.019100 0.000000
-7.978000 0.000000
-7.936900 0.000000
-7.895800 0.000000
-7.854600 0.000000
-7.813500 0.000000
-7.772400 0.000000
-7.731200 0.000000
-7.690100 0.000000
-7.649000 0.000000
-7.607800 0.000000
-7.566700 0.000000
-7.525600 0.000000
-7.484500 0.000000
-7.443300 0.000000
-7.402200 0.000000
-7.361100 0.000000
-7.319900 0.000000
-7.278800 0.000000
-7.237700 0.000000
-7.196600 0.000000
-7.155400 0.000000
-7.114300 0.000000
-7.073200 0.000000
-7.032000 0.000000
-6.990900 0.000000
-6.949800 0.000000
-6.908600 0.000000
-6.867500 0.000000
-6.826400 0.000000
-6.785300 0.000000
-6.744100 0.000000
-6.703000 0.000000
-6.661900 0.000000
-6.620700 0.000000
-6.579600 0.000000
-6.538500 0.000000
-6.497300 0.000000
-6.456200 0.000000
-6.415100 0.000000
-6.374000 0.000000
-6.332800 0.000000
-6.291700 0.000000
-6.250600 0.000000
-6.209400 0.000000
-6.168300 0.000000
-6.127200 0.000000
-6.086100 0.000000
-6.044900 0.000000
-6.003800 0.000000
-5.962700 0.000000
-5.921500 0.000000
-5.880400 0.000000
-5.839300 0.000000
-5.798100 0.000000
-5.757000 0.041400
-5.715900 0.129200
-5.674800 0.150600
-5.633600 0.201000
-5.592500 0.248300
-5.551400 0.285300
-5.510200 0.309700
-5.469100 0.332000
-5.428000 0.363600
-5.386900 0.395300
-5.345700 0.430900
-5.304600 0.466200
-5.263500 0.498100
-5.222300 0.530300
-5.181200 0.560300
-5.140100 0.588900
-5.098900 0.625800
-5.057800 0.662500
-5.016700 0.703700
-4.975600 0.746000
-4.934400 0.793800
-4.893300 0.843500
-4.852200 0.895700
-4.811000 0.951900
-4.769900 1.013600
-4.728800 1.076900
-4.687700 1.141800
-4.646500 1.208300
-4.605400 1.374500
-4.564300 1.528100
-4.523100 1.693900
-4.482000 2.042100
-4.440900 2.239200
-4.399700 2.501500
-4.358600 2.752100
-4.317500 3.009100
-4.276400 3.397400
-4.235200 4.075000
-4.194100 4.240400
-4.153000 4.261400
-4.111800 4.153100
-4.070700 4.056000
-4.029600 4.496500
-3.988500 5.114200
-3.947300 4.115900
-3.906200 3.433400
-3.865100 2.911900
-3.823900 2.656600
-3.782800 2.121200
-3.741700 2.123800
-3.700500 2.007600
-3.659400 1.656600
-3.618300 1.646900
-3.577200 1.735900
-3.536000 1.325900
-3.494900 1.037400
-3.453800 0.863700
-3.412600 0.712700
-3.371500 0.609300
-3.330400 0.557900
-3.289300 0.426800
-3.248100 0.244600
-3.207000 0.033400
-3.165900 0.000000
-3.124700 0.000000
-3.083600 0.000000
-3.042500 0.000000
-3.001300 0.000000
-2.960200 0.000000
-2.919100 0.000000
-2.878000 0.000000
-2.836800 0.000000
-2.795700 0.000000
-2.754600 0.000000
-2.713400 0.000000
-2.672300 0.000000
-2.631200 0.000000
-2.590000 0.000000
-2.548900 0.000000
-2.507800 0.000000
-2.466700 0.000000
-2.425500 0.000000
-2.384400 0.000000
-2.343300 0.000000
-2.302100 0.000000
-2.261000 0.000000
-2.219900 0.000000
-2.178800 0.000000
-2.137600 0.000000
-2.096500 0.000000
-2.055400 0.000000
-2.014200 0.000000
-1.973100 0.000000
-1.932000 0.000000
-1.890800 0.000000
-1.849700 0.000000
-1.808600 0.000000
-1.767500 0.000000
-1.726300 0.000000
-1.685200 0.000000
-1.644100 0.000000
-1.602900 0.000000
-1.561800 0.000500
-1.520700 0.016600
-1.479600 0.050900
-1.438400 0.081700
-1.397300 0.097300
-1.356200 0.104200
-1.315000 0.120200
-1.273900 0.139100
-1.232800 0.152400
-1.191600 0.162300
-1.150500 0.175400
-1.109400 0.193300
-1.068300 0.210800
-1.027100 0.226100
-0.986000 0.384300
-0.944900 0.698400
-0.903700 0.924800
-0.862600 1.140000
-0.821500 1.485800
-0.780400 1.902400
-0.739200 2.155500
-0.698100 2.410400
-0.657000 3.067100
-0.615800 3.289000
-0.574700 3.079600
-0.533600 2.874000
-0.492400 2.811400
-0.451300 2.774200
-0.410200 2.709100
-0.369100 2.635700
-0.327900 2.773300
-0.286800 2.753900
-0.245700 2.602200
-0.204500 2.594400
-0.163400 2.703000
-0.122300 2.628700
-0.081200 2.549200
-0.040000 2.490500
0.001100 2.267500
0.042200 2.255500
0.083400 2.496000
0.124500 2.814400
0.165600 2.929100
0.206800 2.831600
0.247900 2.775300
0.289000 2.731900
0.330100 2.673400
0.371300 2.656500
0.412400 2.662300
0.453500 2.660800
0.494700 2.684100
0.535800 2.623800
0.576900 2.474200
0.618000 2.395600
0.659200 2.512800
0.700300 2.648000
0.741400 2.746300
0.782600 2.829300
0.823700 3.146000
0.864800 2.809100
0.906000 2.623500
0.947100 2.558800
0.988200 2.445500
1.029300 2.437400
1.070500 2.193700
1.111600 2.029300
1.152700 1.857700
1.193900 1.740900
1.235000 1.637900
1.276100 1.551500
1.317300 1.500300
1.358400 1.416800
1.399500 1.311200
1.440600 1.305900
1.481800 1.322800
1.522900 1.365700
1.564000 1.440300
1.605200 1.617500
1.646300 2.004400
1.687400 1.849700
1.728500 1.827200
1.769700 1.949200
1.810800 1.977900
1.851900 2.093300
1.893100 2.284000
1.934200 2.459800
1.975300 2.561500
2.016500 2.803400
2.057600 3.019300
2.098700 2.961400
2.139800 2.389600
2.181000 2.295300
2.222100 2.235200
2.263200 2.221500
2.304400 2.262000
2.345500 2.310700
2.386600 2.346100
2.427700 2.864900
2.468900 3.000200
2.510000 2.715600
2.551100 2.683500
2.592300 2.573800
2.633400 2.687600
2.674500 2.663400
2.715700 2.678100
2.756800 2.772900
2.797900 2.849300
2.839000 3.248100
2.880200 3.162300
2.921300 3.467600
2.962400 4.031000
3.003600 4.084000
3.044700 4.269700
3.085800 4.136300
3.126900 4.045500
3.168100 3.882900
3.209200 3.885900
3.250300 3.969000
3.291500 3.804200
3.332600 3.578700
3.373700 3.558300
3.414900 3.335300
3.456000 3.193800
3.497100 3.097300
3.538200 2.981500
3.579400 3.042600
3.620500 3.193300
3.661600 3.511400
3.702800 3.170800
3.743900 2.891000
3.785000 3.038200
3.826100 3.250400
3.867300 3.699500
3.908400 4.043700
3.949500 4.401600
3.990700 4.354500
4.031800 4.101300
4.072900 3.895800
4.114100 3.587700
4.155200 3.692400
4.196300 3.824500
4.237400 3.779600
4.278600 3.812700
4.319700 3.868500
4.360800 3.872700
4.402000 3.494500
4.443100 3.132300
4.484200 2.915900
4.525300 2.687500
4.566500 2.464400
4.607600 2.471200
4.648700 2.311300
4.689900 2.145700
4.731000 2.080400
4.772100 1.991000
4.813300 1.923100
4.854400 1.857400
4.895500 1.848800
4.936600 1.866800
4.977800 1.774800
5.018900 1.767200
5.060000 1.769800
5.101200 1.818000
5.142300 1.760200
5.183400 1.770800
5.224500 1.742200
5.265700 1.693200
5.306800 1.657400
5.347900 1.621400
5.389100 1.660200
5.430200 1.685700
5.471300 1.693300
5.512500 1.719500
5.553600 1.840200
5.594700 2.181300
5.635800 2.273900
5.677000 2.488900
5.718100 3.312400
5.759200 3.121500
5.800400 2.714400
5.841500 2.485000
5.882600 2.272800
5.923800 2.083900
5.964900 2.027000
6.006000 2.072500
6.047100 2.110900
6.088300 2.294800
6.129400 2.675700
6.170500 3.123000
6.211700 3.405200
6.252800 3.772700
6.293900 3.788800
6.335000 4.135600
6.376200 4.073300
6.417300 4.015000
6.458400 3.545400
6.499600 3.164800
6.540700 2.810300
6.581800 2.635300
6.623000 2.658700
6.664100 2.665000
6.705200 2.653200
6.746300 2.983600
6.787500 3.222900
6.828600 3.477400
6.869700 3.532200
6.910900 3.314600
6.952000 2.862200
6.993100 2.708900
7.034200 2.669200
7.075400 2.645100
7.116500 2.778400
7.157600 2.749100
7.198800 2.639200
7.239900 3.646200
7.281000 2.520800
7.322200 2.374700
7.363300 2.268700
7.404400 2.222700
7.445500 2.265900
7.486700 2.401500
7.527800 2.441000
7.568900 2.394000
7.610100 3.064700
7.651200 2.707600
7.692300 2.612300
7.733400 2.560400
7.774600 2.449200
7.815700 2.381300
7.856800 2.298000
7.898000 2.266400
7.939100 2.248200
7.980200 2.519500
8.021400 2.192500
8.062500 2.508600
8.103600 1.988700
8.144700 2.746300
8.185900 2.199100
8.227000 2.343700
8.268100 2.312400
8.309300 2.422600
8.350400 2.490900
8.391500 2.590500
8.432600 2.990300
8.473800 2.599600
8.514900 2.532100
8.556000 2.524600
8.597200 2.378700
8.638300 2.335300
8.679400 2.418900
8.720600 2.523000
8.761700 2.582400
8.802800 2.485900
8.843900 2.375900
8.885100 2.322200
8.926200 2.233500
8.967300 2.113000
9.008500 1.997700
9.049600 1.991000
9.090700 2.094100
9.131800 2.110000
9.173000 2.079300
9.214100 1.984200
9.255200 1.953600
9.296400 1.889600
9.337500 1.845200
9.378600 1.807300
9.419800 1.824400
9.460900 1.914400
9.502000 2.051500
9.543100 2.154000
9.584300 2.235100
9.625400 2.384800
9.666500 2.699200
9.707700 2.886700
9.748800 3.273700
9.789900 3.361300
9.831100 4.199500
9.872200 5.361000
9.913300 4.814800
9.954400 3.752800
9.995600 3.126600
10.036700 3.047100
10.077800 3.266800
10.119000 3.510500
10.160100 3.696300
10.201200 3.651100
10.242300 3.432100
10.283500 3.356200
10.324600 3.392300
10.365700 3.077800
10.406900 2.801100
10.448000 2.605100
10.489100 2.540500
10.530300 2.493700
10.571400 2.482900
10.612500 2.616900
10.653600 2.522800
10.694800 2.535900
10.735900 2.720600
10.777000 2.604600
10.818200 3.061400
10.859300 4.610200
10.900400 4.710400
10.941500 5.034500
10.982700 4.847200
11.023800 5.174300
11.064900 4.601700
11.106100 4.079600
11.147200 3.945900
11.188300 4.501300
11.229500 5.146200
11.270600 5.520400
11.311700 4.529200
11.352800 3.910600
11.394000 3.645600
11.435100 4.152100
11.476200 3.908800
11.517400 4.042100
11.558500 3.707100
11.599600 3.258300
11.640700 3.089000
11.681900 2.936600
11.723000 2.853200
11.764100 2.668900
11.805300 2.602500
11.846400 2.616800
11.887500 2.516100
11.928700 2.488700
11.969800 2.416900
12.010900 2.506500
12.052000 2.548600
12.093200 2.431000
12.134300 2.461000
12.175400 2.632000
12.216600 2.846200
12.257700 2.646600
12.298800 2.649700
12.339900 2.708300
12.381100 2.877800
12.422200 2.684600
12.463300 2.533600
12.504500 2.414100
12.545600 2.330800
12.586700 2.259300
12.627900 2.207600
12.669000 2.217600
12.710100 2.207000
12.751200 2.215600
12.792400 2.236400
12.833500 2.324700
12.874600 2.285700
12.915800 2.339000
12.956900 2.447100
12.998000 2.534800
13.039100 2.799700
13.080300 3.009100
13.121400 2.819900
13.162500 2.502600
13.203700 2.347000
13.244800 2.155000
13.285900 1.921200
13.327100 1.732400
13.368200 1.631000
13.409300 1.542400
13.450400 1.479500
13.491600 1.398900
13.532700 1.301200
13.573800 1.207600
13.615000 1.151200
13.656100 1.111400
13.697200 1.038000
13.738400 0.910900
13.779500 0.841100
13.820600 0.806500
13.861700 0.758000
13.902900 0.628800
13.944000 0.520300
13.985100 0.445000
14.026300 0.320500
14.067400 0.273000
14.108500 0.251800
14.149600 0.238400
14.190800 0.225000
14.231900 0.232900
14.273000 0.279700
14.314200 0.348800
14.355300 0.438400
14.396400 0.526500
14.437600 0.553500
14.478700 0.556100
14.519800 0.537700
14.560900 0.524600
14.602100 0.527900
14.643200 0.513300
14.684300 0.482000
14.725500 0.440400
14.766600 0.420000
14.807700 0.421500
14.848800 0.424400
14.890000 0.425400
14.931100 0.431000
14.972200 0.437400
15.013400 0.444200
15.054500 0.458700
15.095600 0.520800
15.136800 0.544900
15.177900 0.563400
15.219000 0.536100
15.260100 0.532300
15.301300 0.530300
15.342400 0.535600
15.383500 0.538700
15.424700 0.537600
15.465800 0.536500
15.506900 0.542200
15.548000 0.548800
15.589200 0.554300
15.630300 0.559200
15.671400 0.587100
15.712600 0.638200
15.753700 0.680500
15.794800 0.699500
15.836000 0.733900
15.877100 0.773500
15.918200 0.811400
15.959300 0.842900
16.000500 0.876500
16.041600 0.918000
16.082700 0.980100
16.123900 1.086700
16.165000 1.217400
16.206100 1.384800
16.247200 1.563400
16.288400 1.766500
16.329500 1.966400
16.370600 2.132700
16.411800 2.365800
16.452900 2.521300
16.494000 2.614700
16.535200 2.738400
16.576300 3.002200
16.617400 3.407600
16.658500 3.625800
16.699700 3.691600
16.740800 3.726500
16.781900 3.547100
16.823100 3.450000
16.864200 3.474600
16.905300 3.255200
16.946400 2.920500
16.987600 2.683500
17.028700 2.491700
17.069800 2.452700
17.111000 2.202600
17.152100 2.172900
17.193200 2.191800
17.234400 2.947700
17.275500 3.250400
17.316600 2.447400
17.357700 2.222100
17.398900 2.681000
17.440000 2.690200
17.481100 3.177100
17.522300 3.990100
17.563400 5.525400
17.604500 5.887500
17.645700 5.379800
17.686800 5.495900
17.727900 4.647300
17.769000 4.328500
17.810200 4.918600
17.851300 4.832700
17.892400 4.547300
17.933600 3.667500
17.974700 3.170900
18.015800 2.668300
18.056900 2.269200
18.098100 1.979400
18.139200 1.770800
18.180300 1.513100
18.221500 1.416300
18.262600 1.154800
18.303700 1.057500
18.344900 0.981500
18.386000 0.910700
18.427100 0.863000
18.468200 0.823300
18.509400 0.792200
18.550500 0.757000
18.591600 0.707900
18.632800 0.683200
18.673900 0.680200
18.715000 0.664500
18.756100 0.629300
18.797300 0.608300
18.838400 0.599600
18.879500 0.599300
18.920700 0.605200
18.961800 0.608900
19.002900 0.612200
19.044100 0.615000
19.085200 0.620600
19.126300 0.622400
19.167400 0.628400
19.208600 0.647400
19.249700 0.671900
19.290800 0.696800
19.332000 1.092500
19.373100 0.844200
19.414200 0.889700
19.455300 0.897500
19.496500 0.951000
19.537600 1.017500
19.578700 1.145200
19.619900 1.141800
19.661000 1.181400
19.702100 1.236900
19.743300 1.349700
19.784400 1.662300
19.825500 1.540300
19.866600 1.576400
19.907800 1.601600
19.948900 1.566300
19.990000 1.577800
20.031200 1.497400
20.072300 1.475900
20.113400 1.460600
20.154500 1.438200
20.195700 1.418500
20.236800 1.405300
20.277900 1.371200
20.319100 1.366200
20.360200 1.361400
20.401300 1.354900
20.442500 1.354200
20.483600 1.437300
20.524700 1.429600
20.565800 1.419900
20.607000 1.412900
20.648100 1.404500
20.689200 1.395500
20.730400 1.390100
20.771500 1.386600
20.812600 1.381800
20.853700 1.373800
20.894900 1.369600
20.936000 1.389300
20.977100 1.340200
21.018300 1.240100
21.059400 1.230000
21.100500 1.221200
21.141700 1.207100
21.182800 1.202900
21.223900 1.200700
21.265000 1.198100
21.306200 1.175800
21.347300 1.166600
21.388400 1.164600
21.429600 1.166500
21.470700 1.168500
21.511800 1.141000
21.553000 1.103300
21.594100 1.098700
21.635200 1.099400
21.676300 1.099300
21.717500 1.094000
21.758600 1.091900
21.799700 1.092200
21.840900 1.093000
21.882000 1.105800
21.923100 1.125300
21.964200 1.116900
22.005400 1.147200
22.046500 1.148400
22.087600 1.160900
22.128800 1.175500
22.169900 1.192200
22.211000 1.217300
22.252200 1.245000
22.293300 1.238300
22.334400 1.248800
22.375500 1.259200
22.416700 1.273400
22.457800 1.258500
22.498900 1.228200
22.540100 1.209200
22.581200 1.170800
22.622300 1.147400
22.663400 1.126700
22.704600 1.083100
22.745700 1.026600
22.786800 0.978200
22.828000 0.939300
22.869100 0.914300
22.910200 0.903500
22.951400 0.926900
22.992500 0.929000
23.033600 0.889700
23.074700 0.884600
23.115900 0.882300
23.157000 0.885800
23.198100 0.912500
23.239300 0.990600
23.280400 1.019700
23.321500 1.038900
23.362600 1.081300
23.403800 1.091200
23.444900 1.122400
23.486000 1.201100
23.527200 1.268500
23.568300 1.344100
23.609400 1.439900
23.650600 1.550400
23.691700 1.675100
23.732800 1.816200
23.773900 1.927000
23.815100 1.980700
23.856200 1.987800
23.897300 1.980900
23.938500 1.926700
23.979600 1.894600
24.020700 1.854300
24.061800 1.800600
24.103000 1.776200
24.144100 1.872900
24.185200 2.012100
24.226400 2.122900
24.267500 2.052800
24.308600 2.094000
24.349800 2.240300
24.390900 2.912700
24.432000 2.334300
24.473100 2.258300
24.514300 2.178400
24.555400 2.083100
24.596500 2.017000
24.637700 2.154400
24.678800 2.109700
24.719900 1.834100
24.761000 1.665600
24.802200 1.474800
24.843300 1.362900
24.884400 1.273400
24.925600 1.256000
24.966700 1.211000
25.007800 1.188800
25.049000 1.204000
25.090100 1.232200
25.131200 1.266300
25.172300 1.323300
25.213500 1.370800
25.254600 1.365100
25.295700 1.268600
25.336900 1.250100
25.378000 1.155800
25.419100 1.063600
25.460300 1.027900
25.501400 1.011200
25.542500 0.998300
25.583600 0.999000
25.624800 1.015200
25.665900 1.076200
25.707000 1.120800
25.748200 1.166500
25.789300 1.227000
25.830400 1.305100
25.871500 1.434000
25.912700 1.802300
25.953800 1.710900
25.994900 1.694200
26.036100 1.884900
26.077200 1.733500
26.118300 1.692100
26.159500 1.710500
26.200600 1.712900
26.241700 1.713500
26.282800 1.802600
26.324000 1.735900
26.365100 1.657300
26.406200 1.573200
26.447400 1.505500
26.488500 1.476900
26.529600 1.465100
26.570700 1.461400
26.611900 1.474900
26.653000 1.492900
26.694100 1.524000
26.735300 1.577900
26.776400 1.659600
26.817500 1.735600
26.858700 1.804600
26.899800 1.833600
26.940900 1.896700
26.982000 1.913800
27.023200 1.930800
27.064300 1.921900
27.105400 1.897000
27.146600 1.841100
27.187700 1.805100
27.228800 1.805100
27.269900 1.795800
27.311100 1.731000
27.352200 1.697800
27.393300 1.754200
27.434500 1.835400
27.475600 1.937000
27.516700 2.139300
27.557900 2.265700
27.599000 2.347800
27.640100 2.453500
27.681200 2.515700
27.722400 2.574400
27.763500 2.626300
27.804600 2.465900
27.845800 2.431700
27.886900 2.379900
27.928000 2.338700
27.969100 2.311200
28.010300 2.308300
28.051400 2.442900
28.092500 2.483900
28.133700 2.483800
28.174800 2.487400
28.215900 2.413000
28.257100 2.408800
28.298200 2.567500
28.339300 2.646600
28.380400 2.764800
28.421600 2.993000
28.462700 3.179100
28.503800 3.220100
28.545000 3.427900
28.586100 3.560100
28.627200 3.775700
28.668300 4.102800
28.709500 4.302400
28.750600 4.428600
28.791700 4.311800
28.832900 4.268000
28.874000 4.448600
28.915100 4.409100
28.956300 4.560800
28.997400 4.514600
29.038500 4.194800
29.079600 3.798600
29.120800 3.770700
29.161900 3.547700
29.203000 3.522400
29.244200 3.292700
29.285300 3.159500
29.326400 3.169100
29.367600 3.099500
29.408700 2.933900
29.449800 2.510700
29.490900 2.412600
29.532100 2.428300
29.573200 2.491700
29.614300 2.451300
29.655500 2.310400
29.696600 2.161800
29.737700 2.047300
29.778800 2.009400
29.820000 2.162800
29.861100 2.116600
29.902200 2.222500
29.943400 2.276100
29.984500 2.089400
30.025600 1.967700
30.066800 1.933300
30.107900 1.916500
30.149000 2.008200
30.190100 2.381200
30.231300 2.525400
30.272400 2.248800
30.313500 2.541400
30.354700 3.808300
30.395800 2.814500
30.436900 2.886400
30.478000 2.997100
30.519200 2.951200
30.560300 2.937800
30.601400 3.633400
30.642600 3.189900
30.683700 3.113300
30.724800 3.232600
30.766000 3.308200
30.807100 3.394800
30.848200 3.305500
30.889300 2.986200
30.930500 3.005500
30.971600 3.280800
31.012700 3.432900
31.053900 3.713400
31.095000 3.850700
31.136100 3.797900
31.177200 3.670500
31.218400 2.925000
31.259500 2.492000
31.300600 2.227000
31.341800 1.903200
31.382900 1.691400
31.424000 1.527700
31.465200 1.393400
31.506300 1.307500
31.547400 1.267700
31.588500 1.260600
31.629700 1.328900
31.670800 1.363100
31.711900 1.394600
31.753100 1.431900
31.794200 1.405800
31.835300 1.428300
31.876400 1.471300
31.917600 1.569600
31.958700 1.587500
31.999800 1.296100
32.041000 1.177000
32.082100 1.098100
32.123200 1.030400
32.164400 0.984700
32.205500 0.955700
32.246600 1.006700
32.287700 1.107200
32.328900 1.136400
32.370000 1.125100
32.411100 1.147800
32.452300 1.118300
32.493400 1.086400
32.534500 1.095100
32.575600 0.980400
32.616800 0.917100
32.657900 0.846600
32.699000 0.804100
32.740200 0.800400
32.781300 0.820500
32.822400 0.901100
32.863600 0.981000
32.904700 1.019400
32.945800 1.032800
32.986900 1.078500
33.028100 1.152600
33.069200 1.307900
33.110300 1.564300
33.151500 1.704100
33.192600 1.655900
33.233700 1.683400
33.274900 1.719900
33.316000 1.763000
33.357100 1.861500
33.398200 2.095700
33.439400 2.307500
33.480500 2.061300
33.521600 1.934000
33.562800 1.834300
33.603900 1.768700
33.645000 1.732500
33.686100 1.710800
33.727300 1.726900
33.768400 1.765700
33.809500 1.795400
33.850700 1.813200
33.891800 2.078700
33.932900 1.876300
33.974100 1.814600
34.015200 1.792300
34.056300 1.739200
34.097400 1.676400
34.138600 1.597400
34.179700 1.528000
34.220800 1.459200
34.262000 1.394000
34.303100 1.386700
34.344200 1.275500
34.385300 3.581100
34.426500 0.720200
34.467600 0.661700
34.508700 0.598700
34.549900 0.540000
34.591000 0.492200
34.632100 0.445300
34.673300 0.419500
34.714400 0.402100
34.755500 0.436800
34.796600 0.361400
34.837800 0.346000
34.878900 0.334100
34.920000 0.325500
34.961200 0.319900
35.002300 0.314600
35.043400 0.317600
35.084500 0.321200
35.125700 0.317200
35.166800 0.311400
35.207900 0.301300
35.249100 0.273400
35.290200 0.252000
35.331300 0.251000
35.372500 0.237400
35.413600 0.218800
35.454700 0.198900
35.495800 0.181900
35.537000 0.167800
35.578100 0.158600
35.619200 0.151300
35.660400 0.143800
35.701500 0.136100
35.742600 0.128200
35.783700 0.120100
35.824900 0.113500
35.866000 0.106400
35.907100 0.098800
35.948300 0.090600
35.989400 0.082700
36.030500 0.075300
36.071700 0.066800
36.112800 0.058300
36.153900 0.050900
36.195000 0.044200
36.236200 0.038400
36.277300 0.033500
36.318400 0.029000
36.359600 0.025000
36.400700 0.021300
36.441800 0.018000
36.482900 0.015000
36.524100 0.012300
36.565200 0.009900
36.606300 0.007800
36.647500 0.005900
36.688600 0.004400
36.729700 0.003000
36.770900 0.002000
36.812000 0.001100
36.853100 0.000500
36.894200 0.000100
36.935400 0.000000
36.976500 0.000000
37.017600 0.000000
37.058800 0.000000
37.099900 0.000000
37.141000 0.000000
37.182200 0.000000
37.223300 0.000000
37.264400 0.000000
37.305500 0.000000
37.346700 0.000000
37.387800 0.000000
37.428900 0.000000
37.470100 0.000000
37.511200 0.000000
37.552300 0.000000
37.593400 0.000000
37.634600 0.000000
37.675700 0.000000
37.716800 0.000000
37.758000 0.000000
37.799100 0.000000
37.840200 0.000000
37.881400 0.000000
37.922500 0.000000
37.963600 0.000000
38.004700 0.000000
38.045900 0.000000
38.087000 0.000000
38.128100 0.000000
38.169300 0.000000
38.210400 0.000000
38.251500 0.000000
38.292600 0.000000
38.333800 0.000000
38.374900 0.000000
38.416000 0.000000
38.457200 0.000000
38.498300 0.000000
38.539400 0.000000
38.580600 0.000000
38.621700 0.000000
38.662800 0.000000
38.703900 0.000000
38.745100 0.000000
38.786200 0.000000
38.827300 0.000000
38.868500 0.000000
38.909600 0.000000
38.950700 0.000000
38.991800 0.000000
39.033000 0.000000
39.074100 0.000000
39.115200 0.000000
39.156400 0.000000
39.197500 0.000000
39.238600 0.000000
39.279800 0.000000
39.320900 0.000000
39.362000 0.000000
39.403100 0.000000
39.444300 0.000000
39.485400 0.000000
39.526500 0.000000
39.567700 0.000000
39.608800 0.000000
39.649900 0.000000
39.691000 0.000000
39.732200 0.000000
39.773300 0.000000
39.814400 0.000000
39.855600 0.000000
39.896700 0.000000
39.937800 0.000000
39.979000 0.000000
40.020100 0.000000
40.061200 0.000000
40.102300 0.000000
40.143500 0.000000
40.184600 0.000000
40.225700 0.000000
40.266900 0.000000
40.308000 0.000000
40.349100 0.000000
40.390200 0.000000
40.431400 0.000000
40.472500 0.000000
40.513600 0.000000
40.554800 0.000000
40.595900 0.000000
40.637000 0.000000
40.678200 0.000000
e
