set title 'mp-1217984 - Density of States'
set xlabel 'Energy (eV)'
set ylabel 'DOS (states/eV)'
set grid
set xrange [-10:10]
set yrange [0:7.804]
set xzeroaxis lt -1
set terminal png size 800,600
set output 'mp-1217984_dos_gnuplot.png'
plot '-' using 1:2 with lines title 'DOS'
-31.561500 0.000000
-31.528800 0.000000
-31.496100 0.000000
-31.463400 0.000000
-31.430700 0.000000
-31.398000 0.000000
-31.365300 0.000000
-31.332600 0.000000
-31.299900 0.000000
-31.267200 0.000000
-31.234500 0.000000
-31.201800 0.000000
-31.169100 0.000000
-31.136400 0.000000
-31.103700 0.000000
-31.071000 0.000000
-31.038300 0.000000
-31.005600 0.000000
-30.972900 0.000000
-30.940200 0.000000
-30.907500 0.000000
-30.874800 0.000000
-30.842100 0.000000
-30.809400 0.000000
-30.776700 0.000000
-30.744000 0.000000
-30.711300 0.000000
-30.678600 0.000000
-30.645800 0.000000
-30.613100 0.000000
-30.580400 0.000000
-30.547700 0.000000
-30.515000 0.000000
-30.482300 0.000000
-30.449600 0.000000
-30.416900 0.000000
-30.384200 0.000000
-30.351500 0.000000
-30.318800 0.000000
-30.286100 0.000000
-30.253400 0.000000
-30.220700 0.000000
-30.188000 0.000000
-30.155300 0.000000
-30.122600 0.000000
-30.089900 0.000000
-30.057200 0.000000
-30.024500 0.000000
-29.991800 0.000000
-29.959100 0.000000
-29.926400 0.000000
-29.893700 0.000000
-29.861000 0.000000
-29.828300 0.000000
-29.795600 0.000000
-29.762900 0.000000
-29.730200 0.000000
-29.697500 0.000000
-29.664800 0.000000
-29.632000 0.000000
-29.599300 0.000000
-29.566600 0.000000
-29.533900 0.000000
-29.501200 0.000000
-29.468500 0.000000
-29.435800 0.000000
-29.403100 0.000000
-29.370400 0.000000
-29.337700 0.000000
-29.305000 0.000000
-29.272300 0.000000
-29.239600 0.000000
-29.206900 0.000000
-29.174200 0.000000
-29.141500 0.000000
-29.108800 0.000000
-29.076100 0.000000
-29.043400 0.000000
-29.010700 0.000000
-28.978000 0.000000
-28.945300 0.000000
-28.912600 0.000000
-28.879900 0.000000
-28.847200 0.000000
-28.814500 0.000000
-28.781800 0.000000
-28.749100 0.000000
-28.716400 0.000000
-28.683700 0.000000
-28.651000 0.000000
-28.618200 0.000000
-28.585500 1.782600
-28.552800 5.093700
-28.520100 5.570300
-28.487400 9.098700
-28.454700 17.643900
-28.422000 16.482500
-28.389300 17.893800
-28.356600 26.223200
-28.323900 9.181000
-28.291200 3.618200
-28.258500 3.889700
-28.225800 4.146500
-28.193100 6.260000
-28.160400 38.632100
-28.127700 14.925000
-28.095000 11.479500
-28.062300 14.870400
-28.029600 19.963900
-27.996900 30.816100
-27.964200 39.793500
-27.931500 18.695000
-27.898800 19.975200
-27.866100 15.261800
-27.833400 13.004700
-27.800700 11.684700
-27.768000 6.361700
-27.735300 0.000000
-27.702600 8.085600
-27.669900 9.836600
-27.637100 11.045500
-27.604400 4.461000
-27.571700 3.566300
-27.539000 4.200600
-27.506300 4.509600
-27.473600 4.814000
-27.440900 5.420400
-27.408200 6.644000
-27.375500 13.932000
-27.342800 29.518800
-27.310100 11.888100
-27.277400 8.386200
-27.244700 7.132400
-27.212000 6.151900
-27.179300 5.596600
-27.146600 0.000000
-27.113900 0.000000
-27.081200 0.000000
-27.048500 0.000000
-27.015800 0.000000
-26.983100 0.000000
-26.950400 0.000000
-26.917700 0.000000
-26.885000 0.000000
-26.852300 0.000000
-26.819600 0.000000
-26.786900 0.000000
-26.754200 0.000000
-26.721500 0.000000
-26.688800 0.000000
-26.656100 0.000000
-26.623300 0.000000
-26.590600 0.000000
-26.557900 0.000000
-26.525200 0.000000
-26.492500 0.000000
-26.459800 0.000000
-26.427100 0.000000
-26.394400 0.000000
-26.361700 0.000000
-26.329000 0.000000
-26.296300 0.000000
-26.263600 0.000000
-26.230900 0.000000
-26.198200 0.000000
-26.165500 0.000000
-26.132800 0.000000
-26.100100 0.000000
-26.067400 0.000000
-26.034700 0.000000
-26.002000 0.000000
-25.969300 0.000000
-25.936600 0.000000
-25.903900 0.000000
-25.871200 0.000000
-25.838500 0.000000
-25.805800 0.000000
-25.773100 0.000000
-25.740400 0.000000
-25.707700 0.000000
-25.675000 0.000000
-25.642300 0.000000
-25.609500 0.000000
-25.576800 0.000000
-25.544100 0.000000
-25.511400 0.000000
-25.478700 0.000000
-25.446000 0.000000
-25.413300 0.000000
-25.380600 0.000000
-25.347900 0.000000
-25.315200 0.000000
-25.282500 0.000000
-25.249800 0.000000
-25.217100 0.000000
-25.184400 0.000000
-25.151700 0.000000
-25.119000 0.000000
-25.086300 0.000000
-25.053600 0.000000
-25.020900 0.000000
-24.988200 0.000000
-24.955500 0.000000
-24.922800 0.000000
-24.890100 0.000000
-24.857400 0.000000
-24.824700 0.000000
-24.792000 0.000000
-24.759300 0.000000
-24.726600 0.000000
-24.693900 0.000000
-24.661200 0.000000
-24.628500 0.000000
-24.595700 0.000000
-24.563000 0.000000
-24.530300 0.000000
-24.497600 0.000000
-24.464900 0.000000
-24.432200 0.000000
-24.399500 0.000000
-24.366800 0.000000
-24.334100 0.000000
-24.301400 0.000000
-24.268700 0.000000
-24.236000 0.000000
-24.203300 0.000000
-24.170600 0.000000
-24.137900 0.000000
-24.105200 0.000000
-24.072500 0.000000
-24.039800 0.000000
-24.007100 0.000000
-23.974400 0.000000
-23.941700 0.000000
-23.909000 0.000000
-23.876300 0.000000
-23.843600 0.000000
-23.810900 0.000000
-23.778200 0.000000
-23.745500 0.000000
-23.712800 0.000000
-23.680100 0.000000
-23.647400 0.000000
-23.614700 0.000000
-23.581900 0.000000
-23.549200 0.000000
-23.516500 0.000000
-23.483800 0.000000
-23.451100 0.000000
-23.418400 0.000000
-23.385700 0.000000
-23.353000 0.000000
-23.320300 0.000000
-23.287600 0.000000
-23.254900 0.000000
-23.222200 0.000000
-23.189500 0.000000
-23.156800 0.000000
-23.124100 0.000000
-23.091400 0.000000
-23.058700 0.000000
-23.026000 0.000000
-22.993300 0.000000
-22.960600 0.000000
-22.927900 0.000000
-22.895200 0.000000
-22.862500 0.000000
-22.829800 0.000000
-22.797100 0.000000
-22.764400 0.000000
-22.731700 0.000000
-22.699000 0.000000
-22.666300 0.000000
-22.633600 0.000000
-22.600900 0.000000
-22.568100 0.000000
-22.535400 0.000000
-22.502700 0.000000
-22.470000 0.000000
-22.437300 0.000000
-22.404600 0.000000
-22.371900 0.000000
-22.339200 0.000000
-22.306500 0.000000
-22.273800 0.000000
-22.241100 0.000000
-22.208400 0.000000
-22.175700 0.000000
-22.143000 0.000000
-22.110300 0.000000
-22.077600 0.000000
-22.044900 0.000000
-22.012200 0.000000
-21.979500 0.000000
-21.946800 0.000000
-21.914100 0.000000
-21.881400 0.000000
-21.848700 0.000000
-21.816000 0.000000
-21.783300 0.000000
-21.750600 0.000000
-21.717900 0.000000
-21.685200 0.000000
-21.652500 0.000000
-21.619800 0.000000
-21.587000 0.000000
-21.554300 0.000000
-21.521600 0.000000
-21.488900 0.000000
-21.456200 0.000000
-21.423500 0.000000
-21.390800 0.000000
-21.358100 0.000000
-21.325400 0.000000
-21.292700 0.000000
-21.260000 0.000000
-21.227300 0.000000
-21.194600 0.000000
-21.161900 0.000000
-21.129200 0.000000
-21.096500 0.000000
-21.063800 0.000000
-21.031100 0.000000
-20.998400 0.000000
-20.965700 0.000000
-20.933000 0.000000
-20.900300 0.000000
-20.867600 0.000000
-20.834900 0.000000
-20.802200 0.000000
-20.769500 0.000000
-20.736800 0.000000
-20.704100 0.000000
-20.671400 0.000000
-20.638700 0.000000
-20.606000 0.000000
-20.573200 0.000000
-20.540500 0.000000
-20.507800 0.000000
-20.475100 0.000000
-20.442400 0.000000
-20.409700 0.000000
-20.377000 0.000000
-20.344300 0.000000
-20.311600 0.000000
-20.278900 0.000000
-20.246200 0.000000
-20.213500 0.000000
-20.180800 0.000000
-20.148100 0.000000
-20.115400 0.000000
-20.082700 0.000000
-20.050000 0.000000
-20.017300 0.000000
-19.984600 0.000000
-19.951900 0.000000
-19.919200 0.000000
-19.886500 0.000000
-19.853800 0.000000
-19.821100 0.000000
-19.788400 0.000000
-19.755700 0.000000
-19.723000 0.000000
-19.690300 0.000000
-19.657600 0.000000
-19.624900 0.000000
-19.592200 0.000000
-19.559400 0.000000
-19.526700 0.000000
-19.494000 0.000000
-19.461300 0.000000
-19.428600 0.000000
-19.395900 0.000000
-19.363200 0.000000
-19.330500 0.000000
-19.297800 0.000000
-19.265100 0.000000
-19.232400 0.000000
-19.199700 0.000000
-19.167000 0.000000
-19.134300 0.000000
-19.101600 0.000000
-19.068900 0.000000
-19.036200 0.000000
-19.003500 0.000000
-18.970800 0.000000
-18.938100 0.000000
-18.905400 0.000000
-18.872700 0.000000
-18.840000 0.000000
-18.807300 0.000000
-18.774600 0.000000
-18.741900 0.000000
-18.709200 0.000000
-18.676500 0.000000
-18.643800 0.000000
-18.611100 0.000000
-18.578400 0.000000
-18.545600 0.000000
-18.512900 0.000000
-18.480200 0.000000
-18.447500 0.000000
-18.414800 0.000000
-18.382100 0.000000
-18.349400 0.000000
-18.316700 0.000000
-18.284000 0.000000
-18.251300 0.000000
-18.218600 0.000000
-18.185900 0.000000
-18.153200 0.000000
-18.120500 0.000000
-18.087800 0.000000
-18.055100 0.000000
-18.022400 0.000000
-17.989700 0.000000
-17.957000 0.000000
-17.924300 0.000000
-17.891600 0.000000
-17.858900 0.000000
-17.826200 0.000000
-17.793500 0.000000
-17.760800 0.000000
-17.728100 0.000000
-17.695400 0.000000
-17.662700 0.000000
-17.630000 0.000000
-17.597300 0.000000
-17.564600 0.000000
-17.531800 0.000000
-17.499100 0.000000
-17.466400 0.000000
-17.433700 0.000000
-17.401000 0.000000
-17.368300 0.000000
-17.335600 0.000000
-17.302900 0.000000
-17.270200 0.000000
-17.237500 0.000000
-17.204800 0.000000
-17.172100 0.000000
-17.139400 0.000000
-17.106700 0.000000
-17.074000 0.000000
-17.041300 0.000000
-17.008600 0.000000
-16.975900 0.000000
-16.943200 0.000000
-16.910500 0.000000
-16.877800 0.000000
-16.845100 0.000000
-16.812400 0.000000
-16.779700 0.000000
-16.747000 0.000000
-16.714300 0.000000
-16.681600 0.000000
-16.648900 0.000000
-16.616200 0.000000
-16.583500 0.000000
-16.550700 0.000000
-16.518000 0.000000
-16.485300 0.000000
-16.452600 0.000000
-16.419900 0.000000
-16.387200 0.000000
-16.354500 0.000000
-16.321800 0.000000
-16.289100 0.000000
-16.256400 0.000000
-16.223700 0.000000
-16.191000 0.000000
-16.158300 0.000000
-16.125600 0.000000
-16.092900 0.000000
-16.060200 0.000000
-16.027500 0.000000
-15.994800 0.000000
-15.962100 0.000000
-15.929400 0.000000
-15.896700 0.000000
-15.864000 0.000000
-15.831300 0.000000
-15.798600 0.000000
-15.765900 0.000000
-15.733200 0.000000
-15.700500 0.000000
-15.667800 0.000000
-15.635100 0.000000
-15.602400 0.000000
-15.569700 0.000000
-15.536900 0.000000
-15.504200 0.000000
-15.471500 0.000000
-15.438800 0.000000
-15.406100 0.000000
-15.373400 0.000000
-15.340700 0.000000
-15.308000 0.000000
-15.275300 0.000000
-15.242600 0.000000
-15.209900 0.000000
-15.177200 0.000000
-15.144500 0.000000
-15.111800 0.000000
-15.079100 0.000000
-15.046400 0.000000
-15.013700 0.000000
-14.981000 0.000000
-14.948300 0.000000
-14.915600 0.000000
-14.882900 0.000000
-14.850200 0.000000
-14.817500 0.000000
-14.784800 0.000000
-14.752100 0.000000
-14.719400 0.000000
-14.686700 0.000000
-14.654000 0.000000
-14.621300 0.000000
-14.588600 0.000000
-14.555900 0.000000
-14.523100 0.000000
-14.490400 0.000000
-14.457700 0.000000
-14.425000 0.000000
-14.392300 0.000000
-14.359600 0.000000
-14.326900 0.000000
-14.294200 0.000000
-14.261500 0.000000
-14.228800 0.000000
-14.196100 0.000000
-14.163400 0.000000
-14.130700 0.000000
-14.098000 0.000000
-14.065300 0.000000
-14.032600 0.000000
-13.999900 0.000000
-13.967200 0.000000
-13.934500 0.000000
-13.901800 0.000000
-13.869100 0.000000
-13.836400 0.000000
-13.803700 0.000000
-13.771000 0.000000
-13.738300 0.000000
-13.705600 0.000000
-13.672900 0.000000
-13.640200 0.000000
-13.607500 0.000000
-13.574800 0.000000
-13.542100 0.000000
-13.509300 0.000000
-13.476600 0.000000
-13.443900 0.000000
-13.411200 0.000000
-13.378500 0.000000
-13.345800 0.000000
-13.313100 0.000000
-13.280400 0.000000
-13.247700 0.000000
-13.215000 0.000000
-13.182300 0.000000
-13.149600 0.000000
-13.116900 0.000000
-13.084200 0.000000
-13.051500 0.000000
-13.018800 0.000000
-12.986100 0.000000
-12.953400 0.000000
-12.920700 0.000000
-12.888000 0.000000
-12.855300 0.000000
-12.822600 0.000000
-12.789900 0.000000
-12.757200 0.000000
-12.724500 0.000000
-12.691800 0.000000
-12.659100 0.000000
-12.626400 0.000000
-12.593700 0.000000
-12.561000 0.000000
-12.528300 0.000000
-12.495500 0.000000
-12.462800 0.000000
-12.430100 0.000000
-12.397400 0.000000
-12.364700 0.000000
-12.332000 0.000000
-12.299300 0.000000
-12.266600 0.000000
-12.233900 0.000000
-12.201200 0.000000
-12.168500 0.000000
-12.135800 0.000000
-12.103100 0.000000
-12.070400 0.000000
-12.037700 0.000000
-12.005000 0.000000
-11.972300 0.000000
-11.939600 0.000000
-11.906900 0.000000
-11.874200 0.000000
-11.841500 0.000000
-11.808800 0.000000
-11.776100 0.000000
-11.743400 0.000000
-11.710700 0.000000
-11.678000 0.000000
-11.645300 0.000000
-11.612600 0.000000
-11.579900 0.000000
-11.547200 0.000000
-11.514500 0.000000
-11.481700 0.000000
-11.449000 0.000000
-11.416300 0.000000
-11.383600 0.000000
-11.350900 0.000000
-11.318200 0.000000
-11.285500 0.000000
-11.252800 0.000000
-11.220100 0.000000
-11.187400 0.000000
-11.154700 0.000000
-11.122000 0.000000
-11.089300 0.000000
-11.056600 0.000000
-11.023900 0.000000
-10.991200 0.000000
-10.958500 0.000000
-10.925800 0.000000
-10.893100 0.000000
-10.860400 0.000000
-10.827700 0.000000
-10.795000 0.000000
-10.762300 0.000000
-10.729600 0.000000
-10.696900 0.000000
-10.664200 0.000000
-10.631500 0.000000
-10.598800 0.000000
-10.566100 0.000000
-10.533400 0.000000
-10.500600 0.000000
-10.467900 0.000000
-10.435200 0.000000
-10.402500 0.213500
-10.369800 0.830300
-10.337100 0.788400
-10.304400 0.872700
-10.271700 0.838100
-10.239000 0.898800
-10.206300 0.959500
-10.173600 0.984500
-10.140900 1.028400
-10.108200 1.081500
-10.075500 1.135000
-10.042800 1.218200
-10.010100 1.288400
-9.977400 1.356700
-9.944700 1.423100
-9.912000 1.588400
-9.879300 1.711200
-9.846600 1.827600
-9.813900 1.939000
-9.781200 2.296100
-9.748500 2.551600
-9.715800 2.805300
-9.683100 3.565500
-9.650400 4.416500
-9.617700 6.087000
-9.585000 5.995200
-9.552300 4.692600
-9.519600 3.815200
-9.486800 0.000000
-9.454100 0.000000
-9.421400 0.000000
-9.388700 0.000000
-9.356000 0.000000
-9.323300 0.000000
-9.290600 0.000000
-9.257900 0.000000
-9.225200 0.000000
-9.192500 0.000000
-9.159800 0.000000
-9.127100 0.000000
-9.094400 0.000000
-9.061700 0.000000
-9.029000 0.000000
-8.996300 0.000000
-8.963600 0.000000
-8.930900 0.000000
-8.898200 0.000000
-8.865500 0.000000
-8.832800 0.000000
-8.800100 0.000000
-8.767400 0.000000
-8.734700 0.000000
-8.702000 0.000000
-8.669300 0.000000
-8.636600 0.000000
-8.603900 0.000000
-8.571200 0.000000
-8.538500 0.000000
-8.505800 0.000000
-8.473000 0.000000
-8.440300 0.000000
-8.407600 0.000000
-8.374900 0.000000
-8.342200 0.000000
-8.309500 0.000000
-8.276800 0.000000
-8.244100 0.000000
-8.211400 0.000000
-8.178700 0.000000
-8.146000 0.000000
-8.113300 0.000000
-8.080600 0.000000
-8.047900 0.000000
-8.015200 0.000000
-7.982500 0.000000
-7.949800 0.000000
-7.917100 0.000000
-7.884400 0.000000
-7.851700 0.000000
-7.819000 0.000000
-7.786300 0.000000
-7.753600 0.000000
-7.720900 0.000000
-7.688200 0.000000
-7.655500 0.000000
-7.622800 0.000000
-7.590100 0.000000
-7.557400 0.000000
-7.524700 0.000000
-7.492000 0.000000
-7.459200 0.000000
-7.426500 0.000000
-7.393800 0.000000
-7.361100 0.000000
-7.328400 0.000000
-7.295700 0.000000
-7.263000 0.000000
-7.230300 0.000000
-7.197600 0.000000
-7.164900 0.000000
-7.132200 0.000000
-7.099500 0.000000
-7.066800 0.000000
-7.034100 0.000000
-7.001400 0.000000
-6.968700 0.000000
-6.936000 0.000000
-6.903300 0.000000
-6.870600 0.000000
-6.837900 0.000000
-6.805200 0.000000
-6.772500 0.000000
-6.739800 0.000000
-6.707100 0.000000
-6.674400 0.000000
-6.641700 0.000000
-6.609000 0.000000
-6.576300 0.000000
-6.543600 0.000000
-6.510900 0.000000
-6.478200 0.000000
-6.445400 0.000000
-6.412700 0.000000
-6.380000 0.000000
-6.347300 0.000000
-6.314600 0.000000
-6.281900 0.000000
-6.249200 0.000000
-6.216500 0.000000
-6.183800 0.000000
-6.151100 0.000000
-6.118400 0.000000
-6.085700 0.000000
-6.053000 0.000000
-6.020300 0.000000
-5.987600 0.000000
-5.954900 0.000000
-5.922200 0.000000
-5.889500 0.000000
-5.856800 0.000000
-5.824100 0.000000
-5.791400 0.000000
-5.758700 0.000000
-5.726000 0.000000
-5.693300 0.000000
-5.660600 0.000000
-5.627900 0.000000
-5.595200 0.000000
-5.562500 0.000000
-5.529800 0.000000
-5.497100 0.000000
-5.464400 0.000000
-5.431600 0.000000
-5.398900 0.000000
-5.366200 0.000000
-5.333500 0.000000
-5.300800 0.000000
-5.268100 0.000000
-5.235400 0.000000
-5.202700 0.000000
-5.170000 0.000000
-5.137300 0.000000
-5.104600 0.000000
-5.071900 0.000000
-5.039200 0.000000
-5.006500 0.000000
-4.973800 0.000000
-4.941100 0.000000
-4.908400 0.000000
-4.875700 0.000000
-4.843000 0.000000
-4.810300 0.000000
-4.777600 0.000000
-4.744900 0.000000
-4.712200 0.000000
-4.679500 0.000000
-4.646800 0.000000
-4.614100 0.000000
-4.581400 0.000000
-4.548700 0.000000
-4.516000 0.000000
-4.483300 0.000000
-4.450500 0.000000
-4.417800 0.000000
-4.385100 0.000000
-4.352400 0.000000
-4.319700 0.000000
-4.287000 0.000000
-4.254300 0.000000
-4.221600 0.000000
-4.188900 0.000000
-4.156200 0.000000
-4.123500 0.000000
-4.090800 0.000000
-4.058100 0.000000
-4.025400 0.000000
-3.992700 0.000000
-3.960000 0.000000
-3.927300 0.000000
-3.894600 0.000000
-3.861900 0.000000
-3.829200 0.000000
-3.796500 0.000000
-3.763800 0.000000
-3.731100 0.000000
-3.698400 0.000000
-3.665700 0.000000
-3.633000 0.000000
-3.600300 0.000000
-3.567600 0.000000
-3.534900 0.000000
-3.502200 0.000000
-3.469500 0.000000
-3.436700 0.000000
-3.404000 0.000000
-3.371300 0.000000
-3.338600 0.000000
-3.305900 0.000000
-3.273200 0.000000
-3.240500 0.000000
-3.207800 0.000000
-3.175100 0.000000
-3.142400 0.000000
-3.109700 0.000000
-3.077000 0.000000
-3.044300 0.000000
-3.011600 0.000000
-2.978900 0.000000
-2.946200 0.000000
-2.913500 0.000000
-2.880800 0.000000
-2.848100 0.000000
-2.815400 0.000000
-2.782700 0.000000
-2.750000 0.000000
-2.717300 0.000000
-2.684600 0.000000
-2.651900 0.000000
-2.619200 0.000000
-2.586500 0.000000
-2.553800 0.000000
-2.521100 0.000000
-2.488400 0.000000
-2.455700 0.000000
-2.422900 0.000000
-2.390200 0.000000
-2.357500 0.000000
-2.324800 0.000000
-2.292100 0.000000
-2.259400 0.000000
-2.226700 0.000000
-2.194000 0.000000
-2.161300 0.000000
-2.128600 0.000000
-2.095900 0.006600
-2.063200 0.033800
-2.030500 0.078800
-1.997800 0.110500
-1.965100 0.119900
-1.932400 0.134700
-1.899700 0.156600
-1.867000 0.184700
-1.834300 0.221200
-1.801600 0.259800
-1.768900 0.273900
-1.736200 0.267400
-1.703500 0.264400
-1.670800 0.269800
-1.638100 0.275800
-1.605400 0.600100
-1.572700 0.962300
-1.540000 1.459900
-1.507300 1.589200
-1.474600 1.620500
-1.441900 1.623900
-1.409100 1.674900
-1.376400 1.729600
-1.343700 1.758400
-1.311000 1.780000
-1.278300 1.799200
-1.245600 1.845600
-1.212900 1.908700
-1.180200 1.973800
-1.147500 2.049300
-1.114800 2.132200
-1.082100 2.229000
-1.049400 2.350500
-1.016700 2.551200
-0.984000 2.855300
-0.951300 3.327000
-0.918600 4.074900
-0.885900 3.338000
-0.853200 2.432000
-0.820500 2.204000
-0.787800 1.930600
-0.755100 1.612000
-0.722400 0.907600
-0.689700 0.764900
-0.657000 0.777200
-0.624300 0.366200
-0.591600 0.122700
-0.558900 0.013800
-0.526200 0.000000
-0.493500 0.000000
-0.460800 0.000000
-0.428100 0.362200
-0.395300 0.610500
-0.362600 0.957500
-0.329900 1.620200
-0.297200 2.048000
-0.264500 2.253000
-0.231800 2.637200
-0.199100 2.326800
-0.166400 2.184500
-0.133700 2.145100
-0.101000 2.204500
-0.068300 2.275600
-0.035600 2.627700
-0.002900 2.757300
0.029800 3.003400
0.062500 3.503200
0.095200 7.094700
0.127900 5.856100
0.160600 4.194100
0.193300 4.906300
0.226000 2.479400
0.258700 0.278200
0.291400 1.744300
0.324100 3.562600
0.356800 3.366500
0.389500 3.048000
0.422200 2.929000
0.454900 2.784600
0.487600 2.608200
0.520300 1.335300
0.553000 1.322500
0.585800 1.276200
0.618500 1.293300
0.651200 1.324400
0.683900 1.357200
0.716600 1.387700
0.749300 1.417900
0.782000 1.453600
0.814700 1.553700
0.847400 1.654100
0.880100 2.334600
0.912800 2.745300
0.945500 3.190500
0.978200 3.149500
1.010900 2.721700
1.043600 2.549500
1.076300 2.401900
1.109000 2.370700
1.141700 2.334200
1.174400 2.455900
1.207100 1.067000
1.239800 0.081200
1.272500 1.717400
1.305200 0.954000
1.337900 0.559900
1.370600 0.512300
1.403300 0.507100
1.436000 0.509700
1.468700 0.513100
1.501400 0.507800
1.534100 0.500200
1.566800 0.486400
1.599600 0.465900
1.632300 0.458900
1.665000 0.459500
1.697700 0.463900
1.730400 0.472100
1.763100 0.481000
1.795800 0.490100
1.828500 0.499500
1.861200 0.507300
1.893900 0.514300
1.926600 0.520200
1.959300 0.524500
1.992000 0.530900
2.024700 0.537900
2.057400 0.546300
2.090100 0.556700
2.122800 0.568500
2.155500 0.584000
2.188200 0.603000
2.220900 0.622400
2.253600 0.641700
2.286300 0.661300
2.319000 0.681600
2.351700 0.703700
2.384400 0.730700
2.417100 0.765400
2.449800 0.915000
2.482500 1.097100
2.515200 1.206600
2.547900 1.246300
2.580600 1.211000
2.613400 1.206000
2.646100 1.193700
2.678800 1.190000
2.711500 1.186400
2.744200 1.203700
2.776900 1.225400
2.809600 1.230600
2.842300 1.177800
2.875000 1.079400
2.907700 1.168200
2.940400 1.648800
2.973100 2.293200
3.005800 2.429200
3.038500 2.229700
3.071200 2.012400
3.103900 2.044000
3.136600 2.105000
3.169300 2.156300
3.202000 2.164000
3.234700 2.177500
3.267400 2.190100
3.300100 2.197900
3.332800 2.225900
3.365500 2.268500
3.398200 2.328300
3.430900 2.401700
3.463600 2.496800
3.496300 2.615400
3.529000 2.840000
3.561700 2.895100
3.594400 3.350000
3.627200 3.735600
3.659900 4.020100
3.692600 4.322100
3.725300 4.555200
3.758000 4.844300
3.790700 4.880400
3.823400 4.593800
3.856100 3.880900
3.888800 3.412600
3.921500 2.993900
3.954200 2.811300
3.986900 2.648700
4.019600 2.731000
4.052300 2.767400
4.085000 2.892700
4.117700 3.309800
4.150400 2.459600
4.183100 2.393800
4.215800 2.328900
4.248500 2.220700
4.281200 2.223000
4.313900 2.723600
4.346600 2.920800
4.379300 2.724200
4.412000 2.294100
4.444700 1.964200
4.477400 1.444600
4.510100 0.881400
4.542800 0.533500
4.575500 0.457800
4.608200 0.412700
4.641000 0.477900
4.673700 0.818100
4.706400 1.535900
4.739100 2.727200
4.771800 4.220500
4.804500 5.653900
4.837200 4.913400
4.869900 4.404700
4.902600 4.132500
4.935300 3.915700
4.968000 3.809100
5.000700 3.940100
5.033400 3.576300
5.066100 3.689900
5.098800 3.941400
5.131500 3.602800
5.164200 2.976100
5.196900 2.841400
5.229600 2.766700
5.262300 2.739800
5.295000 2.853700
5.327700 2.959000
5.360400 3.209700
5.393100 3.327900
5.425800 3.426400
5.458500 3.437100
5.491200 3.438200
5.523900 3.516800
5.556600 3.642000
5.589300 3.723900
5.622000 3.740800
5.654800 3.861100
5.687500 3.679400
5.720200 3.577400
5.752900 3.374800
5.785600 3.263100
5.818300 3.192200
5.851000 3.182600
5.883700 3.157100
5.916400 3.020900
5.949100 2.981800
5.981800 2.866900
6.014500 2.633300
6.047200 2.454300
6.079900 2.353900
6.112600 2.278900
6.145300 2.066600
6.178000 2.056300
6.210700 2.092100
6.243400 2.043400
6.276100 1.934000
6.308800 1.914900
6.341500 1.873700
6.374200 1.884100
6.406900 2.064700
6.439600 2.285200
6.472300 2.545500
6.505000 2.894600
6.537700 3.330500
6.570400 3.786700
6.603100 4.001400
6.635900 3.544700
6.668600 3.373400
6.701300 3.045900
6.734000 3.097900
6.766700 3.279700
6.799400 3.459600
6.832100 3.607600
6.864800 3.798800
6.897500 4.215600
6.930200 4.614000
6.962900 4.454200
6.995600 4.387000
7.028300 3.577300
7.061000 2.947600
7.093700 2.476400
7.126400 2.204400
7.159100 2.195400
7.191800 2.642300
7.224500 2.976200
7.257200 2.850100
7.289900 2.586000
7.322600 2.718400
7.355300 2.604100
7.388000 2.821500
7.420700 3.402700
7.453400 4.205100
7.486100 4.622800
7.518800 4.609600
7.551500 4.655200
7.584200 4.634800
7.616900 4.684100
7.649700 4.905800
7.682400 4.370000
7.715100 3.989500
7.747800 3.840700
7.780500 3.482400
7.813200 2.748000
7.845900 2.403800
7.878600 1.885600
7.911300 1.720900
7.944000 1.715700
7.976700 1.648000
8.009400 1.475500
8.042100 1.530500
8.074800 1.292900
8.107500 1.216100
8.140200 1.207600
8.172900 1.232900
8.205600 1.274000
8.238300 1.321600
8.271000 1.346200
8.303700 1.386100
8.336400 1.498000
8.369100 1.476200
8.401800 1.535300
8.434500 1.604400
8.467200 1.470400
8.499900 1.455100
8.532600 1.451100
8.565300 1.449900
8.598000 1.462800
8.630700 1.482200
8.663500 1.509800
8.696200 1.535400
8.728900 1.559800
8.761600 1.579100
8.794300 1.593200
8.827000 1.634600
8.859700 1.685900
8.892400 1.755900
8.925100 1.805900
8.957800 1.889700
8.990500 2.000500
9.023200 2.157300
9.055900 2.192700
9.088600 2.292200
9.121300 2.425800
9.154000 2.456700
9.186700 2.486000
9.219400 2.515700
9.252100 2.563300
9.284800 2.624600
9.317500 2.627700
9.350200 2.628500
9.382900 2.649200
9.415600 2.684900
9.448300 2.738300
9.481000 2.887500
9.513700 3.017800
9.546400 3.892100
9.579100 4.182800
9.611800 4.011300
9.644500 3.534800
9.677300 3.077900
9.710000 2.730600
9.742700 2.436400
9.775400 2.331300
9.808100 2.324300
9.840800 2.661800
9.873500 2.992100
9.906200 3.322000
9.938900 3.459700
9.971600 3.389800
10.004300 3.530600
10.037000 3.694700
10.069700 3.446000
10.102400 3.429000
10.135100 3.734200
10.167800 3.959700
10.200500 5.251700
10.233200 5.908700
10.265900 5.263600
10.298600 4.767300
10.331300 4.098500
10.364000 3.748600
10.396700 3.683000
10.429400 3.783200
10.462100 3.755500
10.494800 3.990800
10.527500 4.226100
10.560200 4.347800
10.592900 4.446500
10.625600 4.581400
10.658300 4.728300
10.691100 4.945700
10.723800 5.352400
10.756500 5.311700
10.789200 5.031000
10.821900 5.302100
10.854600 5.748800
10.887300 5.829700
10.920000 5.884900
10.952700 6.445100
10.985400 6.450200
11.018100 5.749000
11.050800 5.324400
11.083500 5.094400
11.116200 5.046400
11.148900 4.961000
11.181600 4.895700
11.214300 4.707000
11.247000 4.417800
11.279700 4.293800
11.312400 3.947000
11.345100 3.942700
11.377800 3.990600
11.410500 3.915000
11.443200 3.765400
11.475900 3.674600
11.508600 3.707500
11.541300 3.771000
11.574000 3.852300
11.606700 3.894800
11.639400 3.654700
11.672100 3.574000
11.704900 3.668000
11.737600 3.538500
11.770300 3.296000
11.803000 3.092400
11.835700 2.950800
11.868400 2.830300
11.901100 2.812600
11.933800 2.742000
11.966500 2.829900
11.999200 2.869100
12.031900 2.805400
12.064600 2.819900
12.097300 2.813900
12.130000 2.666500
12.162700 2.397300
12.195400 2.240700
12.228100 2.174600
12.260800 2.256100
12.293500 2.395200
12.326200 2.745800
12.358900 3.094200
12.391600 3.188600
12.424300 3.320500
12.457000 3.631000
12.489700 3.341500
12.522400 3.229100
12.555100 2.995300
12.587800 2.801000
12.620500 2.733900
12.653200 2.977700
12.686000 3.162300
12.718700 3.193500
12.751400 2.930700
12.784100 2.623300
12.816800 2.348900
12.849500 2.203000
12.882200 2.120800
12.914900 2.098100
12.947600 2.180900
12.980300 2.232100
13.013000 2.143500
13.045700 1.800400
13.078400 1.695000
13.111100 1.886900
13.143800 1.804900
13.176500 1.736500
13.209200 1.662700
13.241900 1.579800
13.274600 1.507400
13.307300 1.437900
13.340000 1.383800
13.372700 1.348800
13.405400 1.334500
13.438100 1.326400
13.470800 1.324600
13.503500 1.329100
13.536200 1.338300
13.568900 1.357000
13.601600 1.361600
13.634300 1.368300
13.667000 1.372100
13.699800 1.376900
13.732500 1.387800
13.765200 1.370100
13.797900 1.347700
13.830600 1.329000
13.863300 1.314500
13.896000 1.309000
13.928700 1.288100
13.961400 1.271500
13.994100 1.258900
14.026800 1.253500
14.059500 1.325300
14.092200 1.457900
14.124900 1.424900
14.157600 1.432600
14.190300 1.325200
14.223000 1.184000
14.255700 1.063400
14.288400 0.993600
14.321100 1.006000
14.353800 1.017500
14.386500 1.026800
14.419200 1.036000
14.451900 1.060400
14.484600 1.081100
14.517300 1.103900
14.550000 1.127500
14.582700 1.156100
14.615400 1.247400
14.648100 1.324800
14.680800 1.320700
14.713600 1.269600
14.746300 1.193500
14.779000 1.147200
14.811700 1.128900
14.844400 1.189900
14.877100 1.297100
14.909800 1.379000
14.942500 1.461300
14.975200 1.512000
15.007900 1.562800
15.040600 1.639500
15.073300 1.690300
15.106000 1.753200
15.138700 2.430100
15.171400 2.383500
15.204100 2.408300
15.236800 2.273200
15.269500 2.086700
15.302200 1.994400
15.334900 1.982500
15.367600 2.000900
15.400300 2.033800
15.433000 2.018700
15.465700 1.837600
15.498400 1.430700
15.531100 1.275000
15.563800 1.121100
15.596500 1.074900
15.629200 0.851000
15.661900 0.731500
15.694600 0.661900
15.727400 0.675700
15.760100 0.709700
15.792800 0.741700
15.825500 0.776600
15.858200 0.818900
15.890900 0.865300
15.923600 0.909900
15.956300 0.945700
15.989000 0.975000
16.021700 1.007800
16.054400 1.029500
16.087100 1.048500
16.119800 1.088600
16.152500 1.120000
16.185200 1.149900
16.217900 1.156400
16.250600 1.187700
16.283300 1.211500
16.316000 1.224600
16.348700 1.228200
16.381400 1.240800
16.414100 1.285400
16.446800 1.303600
16.479500 1.280200
16.512200 1.250400
16.544900 1.230300
16.577600 1.221700
16.610300 1.225900
16.643000 1.232500
16.675700 1.241400
16.708400 1.300000
16.741200 1.401500
16.773900 1.580100
16.806600 2.030000
16.839300 2.029600
16.872000 1.978100
16.904700 1.958500
16.937400 1.959400
16.970100 1.968300
17.002800 1.991200
17.035500 2.047300
17.068200 2.120800
17.100900 2.154100
17.133600 2.169600
17.166300 2.169900
17.199000 2.146800
17.231700 2.003100
17.264400 1.891200
17.297100 1.781200
17.329800 1.730300
17.362500 1.677900
17.395200 1.633300
17.427900 1.597900
17.460600 1.559900
17.493300 1.529100
17.526000 1.491700
17.558700 1.413200
17.591400 1.329800
17.624100 1.273400
17.656800 1.268800
17.689500 1.301500
17.722200 1.337800
17.755000 1.388500
17.787700 1.425800
17.820400 1.416900
17.853100 1.401700
17.885800 1.388800
17.918500 1.378800
17.951200 1.371800
17.983900 1.366100
18.016600 1.367900
18.049300 1.402100
18.082000 1.429400
18.114700 1.403300
18.147400 1.387200
18.180100 1.381000
18.212800 1.350300
18.245500 1.332200
18.278200 1.322400
18.310900 1.321900
18.343600 1.343000
18.376300 1.397000
18.409000 1.425000
18.441700 1.463600
18.474400 1.515100
18.507100 1.582300
18.539800 1.694300
18.572500 1.876100
18.605200 2.234200
18.637900 2.919900
18.670600 3.769200
18.703300 5.173500
18.736100 189.614000
18.768800 4.676800
18.801500 3.524300
18.834200 3.041500
18.866900 2.775500
18.899600 2.872800
18.932300 2.848600
18.965000 2.964000
18.997700 3.164400
19.030400 3.595000
19.063100 4.442800
19.095800 5.704800
19.128500 8.191500
19.161200 8.944200
19.193900 5.074700
19.226600 3.919200
19.259300 3.378400
19.292000 3.053300
19.324700 2.856800
19.357400 2.730600
19.390100 2.675300
19.422800 2.655900
19.455500 2.592700
19.488200 2.554800
19.520900 2.543900
19.553600 2.527100
19.586300 2.415800
19.619000 2.338600
19.651700 2.277200
19.684400 2.217800
19.717100 2.145800
19.749900 2.099700
19.782600 2.075300
19.815300 2.059300
19.848000 2.043700
19.880700 2.044000
19.913400 2.047400
19.946100 2.049400
19.978800 2.026100
20.011500 1.980200
20.044200 1.959300
20.076900 1.973200
20.109600 2.026000
20.142300 2.071200
20.175000 2.139200
20.207700 2.242400
20.240400 2.179200
20.273100 2.230500
20.305800 2.293500
20.338500 2.318700
20.371200 2.313300
20.403900 2.270700
20.436600 2.236100
20.469300 2.202900
20.502000 2.177900
20.534700 2.160800
20.567400 2.230900
20.600100 2.303000
20.632800 2.385600
20.665500 2.493100
20.698200 2.634300
20.730900 2.721800
20.763700 2.779400
20.796400 2.752100
20.829100 2.852600
20.861800 2.900200
20.894500 2.974900
20.927200 3.028100
20.959900 3.278100
20.992600 3.781300
21.025300 4.164800
21.058000 4.564500
21.090700 4.621500
21.123400 4.350300
21.156100 3.963700
21.188800 3.620600
21.221500 3.460400
21.254200 3.409900
21.286900 3.343100
21.319600 3.271300
21.352300 3.276600
21.385000 3.262600
21.417700 3.300700
21.450400 3.381000
21.483100 3.504900
21.515800 3.639500
21.548500 3.350500
21.581200 3.398700
21.613900 3.409600
21.646600 3.389700
21.679300 3.097400
21.712000 2.856300
21.744700 2.808000
21.777500 2.804600
21.810200 2.830600
21.842900 2.866200
21.875600 2.975800
21.908300 2.735100
21.941000 2.491500
21.973700 2.417300
22.006400 2.707700
22.039100 2.519600
22.071800 2.539100
22.104500 2.674500
22.137200 2.832900
22.169900 3.022100
22.202600 3.210300
22.235300 3.319200
22.268000 3.265100
22.300700 3.297600
22.333400 3.187900
22.366100 3.095400
22.398800 2.946400
22.431500 2.599900
22.464200 2.377500
22.496900 2.268800
22.529600 2.163700
22.562300 2.066800
22.595000 1.983200
22.627700 1.935200
22.660400 1.933100
22.693100 1.945700
22.725800 1.984500
22.758500 2.037700
22.791300 2.118800
22.824000 2.119800
22.856700 2.058600
22.889400 2.019000
22.922100 2.008900
22.954800 1.982700
22.987500 1.958000
23.020200 1.936400
23.052900 1.920300
23.085600 1.922400
23.118300 1.930800
23.151000 1.917800
23.183700 1.910900
23.216400 1.921000
23.249100 1.967800
23.281800 2.032700
23.314500 2.096900
23.347200 2.126900
23.379900 2.083800
23.412600 2.013400
23.445300 1.921400
23.478000 1.947400
23.510700 1.874100
23.543400 1.836800
23.576100 1.836700
23.608800 1.883400
23.641500 1.885300
23.674200 1.849600
23.706900 1.791200
23.739600 1.771700
23.772400 1.713700
23.805100 1.664800
23.837800 1.701200
23.870500 1.678400
23.903200 1.667300
23.935900 1.684900
23.968600 1.712600
24.001300 1.751800
24.034000 1.807200
24.066700 1.893000
24.099400 1.974600
24.132100 2.024100
24.164800 2.080900
24.197500 2.177300
24.230200 2.163000
24.262900 2.044900
24.295600 1.925700
24.328300 1.870700
24.361000 1.841300
24.393700 1.834200
24.426400 1.843500
24.459100 1.923400
24.491800 1.967300
24.524500 2.000000
24.557200 2.067800
24.589900 2.159600
24.622600 2.216200
24.655300 2.238800
24.688000 2.262500
24.720700 2.243300
24.753400 2.193100
24.786200 2.115500
24.818900 2.076800
24.851600 2.104900
24.884300 2.117600
24.917000 2.204300
24.949700 2.196000
24.982400 2.069000
25.015100 2.010600
25.047800 2.058200
25.080500 2.138300
25.113200 2.208500
25.145900 2.256700
25.178600 2.307300
25.211300 2.282200
25.244000 2.244500
25.276700 2.184600
25.309400 1.983800
25.342100 1.889700
25.374800 1.838400
25.407500 1.799500
25.440200 1.781100
25.472900 1.728300
25.505600 1.673300
25.538300 1.648000
25.571000 1.612800
25.603700 1.549800
25.636400 1.485100
25.669100 1.441000
25.701800 1.432400
25.734500 1.455300
25.767200 1.490000
25.800000 1.552200
25.832700 1.622300
25.865400 1.682800
25.898100 1.734900
25.930800 1.783000
25.963500 1.838300
25.996200 1.907300
26.028900 2.015900
26.061600 2.107500
26.094300 2.109000
26.127000 2.081900
26.159700 2.039300
26.192400 1.965700
26.225100 1.896900
26.257800 1.835900
26.290500 1.781700
26.323200 1.736300
26.355900 1.678000
26.388600 1.607000
26.421300 1.534900
26.454000 1.477700
26.486700 1.461100
26.519400 1.472200
26.552100 1.458400
26.584800 1.475600
26.617500 1.493500
26.650200 1.518200
26.682900 1.540300
26.715600 1.535100
26.748300 1.455600
26.781000 1.361300
26.813800 1.296500
26.846500 1.243800
26.879200 1.221300
26.911900 1.238400
26.944600 1.318600
26.977300 1.497400
27.010000 1.606700
27.042700 1.638600
27.075400 1.568500
27.108100 1.579400
27.140800 1.593700
27.173500 1.604300
27.206200 1.638700
27.238900 1.678600
27.271600 1.695900
27.304300 1.682100
27.337000 1.683700
27.369700 1.709800
27.402400 1.726000
27.435100 1.701800
27.467800 1.671100
27.500500 1.642900
27.533200 1.619200
27.565900 1.570500
27.598600 1.520800
27.631300 1.487600
27.664000 1.467700
27.696700 1.470000
27.729400 1.533500
27.762100 1.563300
27.794800 1.578500
27.827600 1.601700
27.860300 1.603400
27.893000 1.581100
27.925700 1.553000
27.958400 1.527700
27.991100 1.500300
28.023800 1.487400
28.056500 1.488000
28.089200 1.480700
28.121900 1.471900
28.154600 1.496900
28.187300 1.543800
28.220000 1.570000
28.252700 1.580700
28.285400 1.613600
28.318100 1.650100
28.350800 1.698200
28.383500 1.714400
28.416200 1.764600
28.448900 1.821600
28.481600 1.860900
28.514300 1.903000
28.547000 1.919000
28.579700 1.979600
28.612400 2.037200
28.645100 2.205200
28.677800 2.338500
28.710500 2.453300
28.743200 2.426300
28.775900 2.494400
28.808600 2.658400
28.841400 2.925800
28.874100 3.388900
28.906800 3.375100
28.939500 3.237200
28.972200 3.083400
29.004900 2.800700
29.037600 2.580700
29.070300 2.359700
29.103000 2.182800
29.135700 2.086300
29.168400 2.047800
29.201100 2.080100
29.233800 2.193900
29.266500 2.337600
29.299200 2.398000
29.331900 2.512600
29.364600 2.650800
29.397300 2.815800
29.430000 2.878600
29.462700 2.894800
29.495400 2.571500
29.528100 2.365100
29.560800 2.202100
29.593500 2.020900
29.626200 1.935100
29.658900 1.836500
29.691600 1.739500
29.724300 1.654400
29.757000 1.605100
29.789700 1.369300
29.822500 1.201500
29.855200 1.114800
29.887900 1.082600
29.920600 0.996400
29.953300 0.843200
29.986000 0.723200
30.018700 0.618500
30.051400 0.529200
30.084100 0.457700
30.116800 0.395400
30.149500 0.341000
30.182200 0.292800
30.214900 0.276900
30.247600 0.287600
30.280300 0.251500
30.313000 0.195500
30.345700 0.153600
30.378400 0.132700
30.411100 0.117500
30.443800 0.106800
30.476500 0.096500
30.509200 0.086300
30.541900 0.076300
30.574600 0.066400
30.607300 0.056600
30.640000 0.047100
30.672700 0.038600
30.705400 0.030900
30.738100 0.023700
30.770800 0.017100
30.803500 0.011000
30.836300 0.005500
30.869000 0.000400
30.901700 0.000000
30.934400 0.000000
30.967100 0.000000
30.999800 0.000000
31.032500 0.000000
31.065200 0.000000
31.097900 0.000000
31.130600 0.000000
31.163300 0.000000
31.196000 0.000000
31.228700 0.000000
31.261400 0.000000
31.294100 0.000000
31.326800 0.000000
31.359500 0.000000
31.392200 0.000000
31.424900 0.000000
31.457600 0.000000
31.490300 0.000000
31.523000 0.000000
31.555700 0.000000
31.588400 0.000000
31.621100 0.000000
31.653800 0.000000
31.686500 0.000000
31.719200 0.000000
31.751900 0.000000
31.784600 0.000000
31.817300 0.000000
31.850100 0.000000
31.882800 0.000000
31.915500 0.000000
31.948200 0.000000
31.980900 0.000000
32.013600 0.000000
32.046300 0.000000
32.079000 0.000000
32.111700 0.000000
32.144400 0.000000
32.177100 0.000000
32.209800 0.000000
32.242500 0.000000
32.275200 0.000000
32.307900 0.000000
32.340600 0.000000
32.373300 0.000000
32.406000 0.000000
32.438700 0.000000
32.471400 0.000000
32.504100 0.000000
32.536800 0.000000
32.569500 0.000000
32.602200 0.000000
32.634900 0.000000
32.667600 0.000000
32.700300 0.000000
32.733000 0.000000
32.765700 0.000000
32.798400 0.000000
32.831100 0.000000
32.863900 0.000000
32.896600 0.000000
32.929300 0.000000
32.962000 0.000000
32.994700 0.000000
33.027400 0.000000
33.060100 0.000000
33.092800 0.000000
33.125500 0.000000
33.158200 0.000000
33.190900 0.000000
33.223600 0.000000
33.256300 0.000000
33.289000 0.000000
33.321700 0.000000
33.354400 0.000000
33.387100 0.000000
33.419800 0.000000
33.452500 0.000000
33.485200 0.000000
33.517900 0.000000
33.550600 0.000000
33.583300 0.000000
33.616000 0.000000
33.648700 0.000000
33.681400 0.000000
33.714100 0.000000
33.746800 0.000000
33.779500 0.000000
33.812200 0.000000
33.844900 0.000000
e
