set title 'mp-1186041 - Density of States'
set xlabel 'Energy (eV)'
set ylabel 'DOS (states/eV)'
set grid
set xrange [-10:10]
set yrange [0:7.781]
set xzeroaxis lt -1
set terminal png size 800,600
set output 'mp-1186041_dos_gnuplot.png'
plot '-' using 1:2 with lines title 'DOS'
-46.770600 0.000000
-46.725700 0.000000
-46.680800 0.000000
-46.635900 0.000000
-46.591000 0.000000
-46.546100 0.000000
-46.501200 0.000000
-46.456300 0.000000
-46.411400 0.000000
-46.366500 0.000000
-46.321600 0.000000
-46.276700 0.000000
-46.231800 0.000000
-46.186900 0.000000
-46.142000 0.000000
-46.097100 0.000000
-46.052200 0.000000
-46.007300 0.000000
-45.962400 0.000000
-45.917500 0.000000
-45.872600 0.000000
-45.827700 0.000000
-45.782800 0.000000
-45.737900 0.000000
-45.693000 0.000000
-45.648100 0.000000
-45.603200 0.000000
-45.558300 0.000000
-45.513400 0.000000
-45.468500 0.000000
-45.423600 0.000000
-45.378700 0.000000
-45.333800 0.000000
-45.288900 0.000000
-45.244000 0.000000
-45.199100 0.000000
-45.154200 0.000000
-45.109300 0.000000
-45.064400 0.000000
-45.019500 0.000000
-44.974600 0.000000
-44.929700 0.000000
-44.884800 0.000000
-44.839900 0.000000
-44.795000 0.000000
-44.750100 0.000000
-44.705200 0.000000
-44.660300 0.000000
-44.615400 0.000000
-44.570500 0.000000
-44.525600 0.000000
-44.480700 0.000000
-44.435800 0.000000
-44.390900 0.000000
-44.346000 0.000000
-44.301100 0.000000
-44.256200 0.000000
-44.211300 0.000000
-44.166400 0.000000
-44.121500 0.000000
-44.076600 0.000000
-44.031700 0.000000
-43.986800 0.000000
-43.941900 0.000000
-43.897000 0.000000
-43.852100 0.000000
-43.807200 0.000000
-43.762300 0.000000
-43.717400 0.000000
-43.672500 0.000000
-43.627600 0.000000
-43.582700 0.000000
-43.537800 0.000000
-43.492900 0.000000
-43.448000 0.000000
-43.403100 0.000000
-43.358200 0.000000
-43.313300 0.000000
-43.268400 0.000000
-43.223500 0.000000
-43.178600 0.000000
-43.133700 0.000000
-43.088800 0.000000
-43.043900 0.000000
-42.999000 0.000000
-42.954100 0.000000
-42.909200 0.000000
-42.864300 0.000000
-42.819400 0.005100
-42.774500 0.365100
-42.729600 6.092500
-42.684700 25.104700
-42.639800 26.967000
-42.594900 7.699200
-42.550000 0.571400
-42.505100 0.010500
-42.460200 0.000000
-42.415300 0.000000
-42.370400 0.000000
-42.325500 0.000000
-42.280600 0.000000
-42.235700 0.000000
-42.190800 0.000000
-42.145900 0.000000
-42.101000 0.000000
-42.056100 0.000000
-42.011200 0.000000
-41.966300 0.000000
-41.921400 0.000000
-41.876500 0.000000
-41.831600 0.000000
-41.786700 0.000000
-41.741800 0.000000
-41.696900 0.000000
-41.652000 0.000000
-41.607100 0.000000
-41.562200 0.000000
-41.517300 0.000000
-41.472400 0.000000
-41.427500 0.000000
-41.382600 0.000000
-41.337700 0.000000
-41.292800 0.000000
-41.247900 0.000000
-41.203000 0.000000
-41.158100 0.000000
-41.113200 0.000000
-41.068300 0.000000
-41.023400 0.000000
-40.978500 0.000000
-40.933600 0.000000
-40.888700 0.000000
-40.843800 0.000000
-40.798900 0.000000
-40.754000 0.000000
-40.709100 0.000000
-40.664200 0.000000
-40.619300 0.000000
-40.574400 0.000000
-40.529500 0.000000
-40.484600 0.000000
-40.439700 0.000000
-40.394800 0.000000
-40.349900 0.000000
-40.305000 0.000000
-40.260100 0.000000
-40.215200 0.000000
-40.170300 0.000000
-40.125400 0.000000
-40.080500 0.000000
-40.035600 0.000000
-39.990700 0.000000
-39.945800 0.000000
-39.900900 0.000000
-39.856000 0.000000
-39.811100 0.000000
-39.766200 0.000000
-39.721300 0.000000
-39.676400 0.000000
-39.631500 0.000000
-39.586600 0.000000
-39.541700 0.000000
-39.496800 0.000000
-39.451900 0.000000
-39.407000 0.000000
-39.362100 0.000000
-39.317200 0.000000
-39.272300 0.000000
-39.227400 0.000000
-39.182500 0.000000
-39.137600 0.000000
-39.092700 0.000000
-39.047800 0.000000
-39.002900 0.000000
-38.958000 0.000000
-38.913100 0.000000
-38.868300 0.000000
-38.823400 0.000000
-38.778500 0.000000
-38.733600 0.000000
-38.688700 0.000000
-38.643800 0.000000
-38.598900 0.000000
-38.554000 0.000000
-38.509100 0.000000
-38.464200 0.000000
-38.419300 0.000000
-38.374400 0.000000
-38.329500 0.000000
-38.284600 0.000000
-38.239700 0.000000
-38.194800 0.000000
-38.149900 0.000000
-38.105000 0.000000
-38.060100 0.000000
-38.015200 0.000000
-37.970300 0.000000
-37.925400 0.000000
-37.880500 0.000000
-37.835600 0.000000
-37.790700 0.000000
-37.745800 0.000000
-37.700900 0.000000
-37.656000 0.000000
-37.611100 0.000000
-37.566200 0.000000
-37.521300 0.000000
-37.476400 0.000000
-37.431500 0.000000
-37.386600 0.000000
-37.341700 0.000000
-37.296800 0.000000
-37.251900 0.000000
-37.207000 0.000000
-37.162100 0.000000
-37.117200 0.000000
-37.072300 0.000000
-37.027400 0.000000
-36.982500 0.000000
-36.937600 0.000000
-36.892700 0.000000
-36.847800 0.000000
-36.802900 0.000000
-36.758000 0.000000
-36.713100 0.000000
-36.668200 0.000000
-36.623300 0.000000
-36.578400 0.000000
-36.533500 0.000000
-36.488600 0.000000
-36.443700 0.000000
-36.398800 0.000000
-36.353900 0.000000
-36.309000 0.000000
-36.264100 0.000000
-36.219200 0.000000
-36.174300 0.000000
-36.129400 0.000000
-36.084500 0.000000
-36.039600 0.000000
-35.994700 0.000000
-35.949800 0.000000
-35.904900 0.000000
-35.860000 0.000000
-35.815100 0.000000
-35.770200 0.000000
-35.725300 0.000000
-35.680400 0.000000
-35.635500 0.000000
-35.590600 0.000000
-35.545700 0.000000
-35.500800 0.000000
-35.455900 0.000000
-35.411000 0.000000
-35.366100 0.000000
-35.321200 0.000000
-35.276300 0.000000
-35.231400 0.000000
-35.186500 0.000000
-35.141600 0.000000
-35.096700 0.000000
-35.051800 0.000000
-35.006900 0.000000
-34.962000 0.000000
-34.917100 0.000000
-34.872200 0.000000
-34.827300 0.000000
-34.782400 0.000000
-34.737500 0.000000
-34.692600 0.000000
-34.647700 0.000000
-34.602800 0.000000
-34.557900 0.000000
-34.513000 0.000000
-34.468100 0.000000
-34.423200 0.000000
-34.378300 0.000000
-34.333400 0.000000
-34.288500 0.000000
-34.243600 0.000000
-34.198700 0.000000
-34.153800 0.000000
-34.108900 0.000000
-34.064000 0.000000
-34.019100 0.000000
-33.974200 0.000000
-33.929300 0.000000
-33.884400 0.000000
-33.839500 0.000000
-33.794600 0.000000
-33.749700 0.000000
-33.704800 0.000000
-33.659900 0.000000
-33.615000 0.000000
-33.570100 0.000000
-33.525200 0.000000
-33.480300 0.000000
-33.435400 0.000000
-33.390500 0.000000
-33.345600 0.000000
-33.300700 0.000000
-33.255800 0.000000
-33.210900 0.000000
-33.166000 0.000000
-33.121100 0.000000
-33.076200 0.000000
-33.031300 0.000000
-32.986400 0.000000
-32.941500 0.000000
-32.896600 0.000000
-32.851700 0.000000
-32.806800 0.000000
-32.761900 0.000000
-32.717000 0.000000
-32.672100 0.000000
-32.627200 0.000000
-32.582300 0.000000
-32.537400 0.000000
-32.492500 0.000000
-32.447600 0.000000
-32.402700 0.000000
-32.357800 0.000000
-32.312900 0.000000
-32.268000 0.000000
-32.223100 0.000000
-32.178200 0.000000
-32.133300 0.000000
-32.088400 0.000000
-32.043500 0.000000
-31.998600 0.000000
-31.953700 0.000000
-31.908800 0.000000
-31.863900 0.000000
-31.819000 0.000000
-31.774100 0.000000
-31.729200 0.000000
-31.684300 0.000000
-31.639400 0.000000
-31.594500 0.000000
-31.549600 0.000000
-31.504700 0.000000
-31.459800 0.000000
-31.414900 0.000000
-31.370000 0.000000
-31.325100 0.000000
-31.280200 0.000000
-31.235300 0.000000
-31.190400 0.000000
-31.145500 0.000000
-31.100600 0.000000
-31.055700 0.000000
-31.010800 0.000000
-30.965900 0.000000
-30.921000 0.000000
-30.876100 0.000000
-30.831200 0.000000
-30.786300 0.000000
-30.741400 0.000000
-30.696500 0.000000
-30.651600 0.000000
-30.606700 0.000000
-30.561800 0.000000
-30.516900 0.000000
-30.472000 0.000000
-30.427100 0.000000
-30.382200 0.000000
-30.337300 0.000000
-30.292400 0.000000
-30.247500 0.000000
-30.202600 0.000000
-30.157700 0.000000
-30.112800 0.000000
-30.067900 0.000000
-30.023000 0.000000
-29.978100 0.000000
-29.933200 0.000000
-29.888300 0.000000
-29.843400 0.000000
-29.798500 0.000000
-29.753600 0.000000
-29.708700 0.000000
-29.663800 0.000000
-29.618900 0.000000
-29.574000 0.000000
-29.529100 0.000000
-29.484200 0.000000
-29.439300 0.000000
-29.394400 0.000000
-29.349500 0.000000
-29.304600 0.000000
-29.259700 0.000000
-29.214800 0.000000
-29.169900 0.000000
-29.125000 0.000000
-29.080100 0.000000
-29.035200 0.000000
-28.990300 0.000000
-28.945400 0.000000
-28.900500 0.000000
-28.855600 0.000000
-28.810700 0.000000
-28.765800 0.000000
-28.720900 0.000000
-28.676000 0.000000
-28.631100 0.000000
-28.586200 0.000000
-28.541300 0.000000
-28.496400 0.000000
-28.451500 0.000000
-28.406600 0.000000
-28.361700 0.000000
-28.316800 0.000000
-28.271900 0.000000
-28.227000 0.000000
-28.182100 0.000000
-28.137200 0.000000
-28.092300 0.000000
-28.047400 0.000000
-28.002500 0.000000
-27.957600 0.000000
-27.912700 0.000000
-27.867800 0.000000
-27.822900 0.000000
-27.778000 0.000000
-27.733100 0.000000
-27.688200 0.000000
-27.643300 0.000000
-27.598400 0.000000
-27.553500 0.000000
-27.508600 0.000000
-27.463700 0.000000
-27.418800 0.000000
-27.373900 0.000000
-27.329000 0.000000
-27.284100 0.000000
-27.239200 0.000000
-27.194300 0.000000
-27.149400 0.000000
-27.104500 0.000000
-27.059600 0.000000
-27.014700 0.000000
-26.969800 0.000000
-26.924900 0.000000
-26.880000 0.000000
-26.835100 0.000000
-26.790200 0.000000
-26.745300 0.000000
-26.700400 0.000000
-26.655500 0.000000
-26.610600 0.000000
-26.565700 0.000000
-26.520800 0.000000
-26.475900 0.000000
-26.431000 0.000000
-26.386100 0.000000
-26.341200 0.000000
-26.296300 0.000000
-26.251400 0.000000
-26.206500 0.000000
-26.161600 0.000000
-26.116700 0.000000
-26.071800 0.000000
-26.026900 0.000000
-25.982000 0.000000
-25.937100 0.000000
-25.892200 0.000000
-25.847300 0.000000
-25.802400 0.000000
-25.757500 0.000000
-25.712600 0.000000
-25.667700 0.000000
-25.622800 0.000000
-25.577900 0.000000
-25.533000 0.000000
-25.488100 0.000000
-25.443200 0.000000
-25.398300 0.000000
-25.353400 0.000000
-25.308500 0.000000
-25.263600 0.000000
-25.218700 0.000000
-25.173800 0.000000
-25.128900 0.000000
-25.084000 0.000000
-25.039100 0.000000
-24.994200 0.000000
-24.949300 0.000000
-24.904400 0.000000
-24.859500 0.000000
-24.814600 0.000000
-24.769700 0.000000
-24.724800 0.000000
-24.679900 0.000000
-24.635000 0.000000
-24.590100 0.000000
-24.545200 0.000000
-24.500300 0.000000
-24.455400 0.000000
-24.410500 0.000000
-24.365600 0.000000
-24.320700 0.000000
-24.275800 0.000000
-24.230900 0.000000
-24.186000 0.000000
-24.141100 0.000000
-24.096200 0.000000
-24.051300 0.000000
-24.006400 0.000000
-23.961500 0.000000
-23.916600 0.000000
-23.871700 0.000000
-23.826800 0.000000
-23.781900 0.000000
-23.737000 0.000000
-23.692100 0.000000
-23.647200 0.000000
-23.602300 0.000000
-23.557400 0.000000
-23.512500 0.000000
-23.467600 0.000000
-23.422700 0.000000
-23.377800 0.000000
-23.332900 0.000000
-23.288000 0.000000
-23.243100 0.000000
-23.198200 0.000000
-23.153300 0.000000
-23.108400 0.000000
-23.063500 0.000000
-23.018600 0.000000
-22.973700 0.000000
-22.928800 0.000000
-22.883900 0.000000
-22.839000 0.000000
-22.794100 0.000000
-22.749200 0.000000
-22.704300 0.000000
-22.659400 0.000000
-22.614500 0.000000
-22.569600 0.000000
-22.524700 0.000000
-22.479800 0.000000
-22.434900 0.000000
-22.390000 0.000000
-22.345100 0.000000
-22.300200 0.000000
-22.255300 0.000000
-22.210400 0.000000
-22.165500 0.000000
-22.120600 0.000000
-22.075700 0.000000
-22.030800 0.000000
-21.985900 0.000000
-21.941000 0.000000
-21.896100 0.000000
-21.851200 0.000000
-21.806300 0.000000
-21.761400 0.000000
-21.716500 0.000000
-21.671600 0.000000
-21.626700 0.000000
-21.581800 0.000000
-21.536900 0.000000
-21.492000 0.000000
-21.447100 0.000000
-21.402200 0.000000
-21.357300 0.000000
-21.312400 0.000000
-21.267500 0.000000
-21.222600 0.000000
-21.177700 0.000000
-21.132800 0.000000
-21.087900 0.000000
-21.043000 0.000000
-20.998100 0.000000
-20.953200 0.000000
-20.908300 0.000000
-20.863400 0.000000
-20.818500 0.000000
-20.773600 0.000000
-20.728700 0.000000
-20.683800 0.000000
-20.638900 0.000000
-20.594000 0.000000
-20.549100 0.000000
-20.504200 0.000000
-20.459300 0.000000
-20.414400 0.000000
-20.369500 0.000000
-20.324600 0.000000
-20.279700 0.000000
-20.234800 0.000000
-20.189900 0.000000
-20.145000 0.000000
-20.100100 0.000000
-20.055200 0.000000
-20.010300 0.000000
-19.965400 0.000000
-19.920500 0.000000
-19.875600 0.000000
-19.830700 0.000000
-19.785800 0.000000
-19.740900 0.000000
-19.696000 0.000000
-19.651100 0.000000
-19.606200 0.000000
-19.561300 0.000000
-19.516400 0.000000
-19.471500 0.000000
-19.426600 0.000000
-19.381700 0.000000
-19.336800 0.000000
-19.291900 0.000000
-19.247000 0.000000
-19.202100 0.000000
-19.157200 0.000000
-19.112300 0.000000
-19.067400 0.000000
-19.022500 0.000000
-18.977700 0.000000
-18.932800 0.000000
-18.887900 0.000000
-18.843000 0.000000
-18.798100 0.000000
-18.753200 0.000000
-18.708300 0.000000
-18.663400 0.000000
-18.618500 0.000000
-18.573600 0.000000
-18.528700 0.000000
-18.483800 0.000000
-18.438900 0.000000
-18.394000 0.000000
-18.349100 0.000000
-18.304200 0.000000
-18.259300 0.000000
-18.214400 0.000000
-18.169500 0.000000
-18.124600 0.000000
-18.079700 0.000000
-18.034800 0.000000
-17.989900 0.000000
-17.945000 0.000000
-17.900100 0.000000
-17.855200 0.000000
-17.810300 0.000000
-17.765400 0.000000
-17.720500 0.000000
-17.675600 0.000000
-17.630700 0.000000
-17.585800 0.000000
-17.540900 0.000000
-17.496000 0.000000
-17.451100 0.000000
-17.406200 0.000000
-17.361300 0.000000
-17.316400 0.000000
-17.271500 0.000000
-17.226600 0.000000
-17.181700 0.000000
-17.136800 0.000000
-17.091900 0.000000
-17.047000 0.000000
-17.002100 0.000000
-16.957200 0.000000
-16.912300 0.000000
-16.867400 0.000000
-16.822500 0.000000
-16.777600 0.000000
-16.732700 0.000000
-16.687800 0.000000
-16.642900 0.000000
-16.598000 0.000000
-16.553100 0.000000
-16.508200 0.000000
-16.463300 0.000000
-16.418400 0.000000
-16.373500 0.000000
-16.328600 0.000000
-16.283700 0.000000
-16.238800 0.000000
-16.193900 0.000000
-16.149000 0.000000
-16.104100 0.000000
-16.059200 0.000000
-16.014300 0.000000
-15.969400 0.000000
-15.924500 0.000000
-15.879600 0.000000
-15.834700 0.000000
-15.789800 0.000000
-15.744900 0.000000
-15.700000 0.000000
-15.655100 0.000000
-15.610200 0.000000
-15.565300 0.000000
-15.520400 0.000000
-15.475500 0.000000
-15.430600 0.000000
-15.385700 0.000000
-15.340800 0.000000
-15.295900 0.000000
-15.251000 0.000000
-15.206100 0.000000
-15.161200 0.000000
-15.116300 0.000000
-15.071400 0.000000
-15.026500 0.000000
-14.981600 0.000000
-14.936700 0.000000
-14.891800 0.000000
-14.846900 0.000000
-14.802000 0.000000
-14.757100 0.000000
-14.712200 0.000000
-14.667300 0.000000
-14.622400 0.000000
-14.577500 0.000000
-14.532600 0.000000
-14.487700 0.000000
-14.442800 0.000000
-14.397900 0.000000
-14.353000 0.000000
-14.308100 0.000000
-14.263200 0.000000
-14.218300 0.000500
-14.173400 0.049300
-14.128500 1.319600
-14.083600 11.168800
-14.038700 32.676100
-13.993800 42.179200
-13.948900 47.753000
-13.904000 59.489400
-13.859100 62.689600
-13.814200 48.401700
-13.769300 21.989900
-13.724400 5.527800
-13.679500 0.782900
-13.634600 0.048600
-13.589700 0.000900
-13.544800 0.000000
-13.499900 0.000000
-13.455000 0.000000
-13.410100 0.000000
-13.365200 0.000000
-13.320300 0.000000
-13.275400 0.000000
-13.230500 0.000000
-13.185600 0.000000
-13.140700 0.000000
-13.095800 0.000000
-13.050900 0.000000
-13.006000 0.000000
-12.961100 0.000000
-12.916200 0.000000
-12.871300 0.000000
-12.826400 0.000000
-12.781500 0.000000
-12.736600 0.000000
-12.691700 0.000000
-12.646800 0.000000
-12.601900 0.000000
-12.557000 0.000000
-12.512100 0.000000
-12.467200 0.000000
-12.422300 0.000000
-12.377400 0.000000
-12.332500 0.000000
-12.287600 0.000000
-12.242700 0.000000
-12.197800 0.000000
-12.152900 0.000000
-12.108000 0.000000
-12.063100 0.000000
-12.018200 0.000000
-11.973300 0.000000
-11.928400 0.000000
-11.883500 0.000000
-11.838600 0.000000
-11.793700 0.000000
-11.748800 0.000000
-11.703900 0.000000
-11.659000 0.000000
-11.614100 0.000000
-11.569200 0.000000
-11.524300 0.000000
-11.479400 0.000000
-11.434500 0.000000
-11.389600 0.000000
-11.344700 0.000000
-11.299800 0.000000
-11.254900 0.000000
-11.210000 0.000000
-11.165100 0.000000
-11.120200 0.000000
-11.075300 0.000000
-11.030400 0.000000
-10.985500 0.000000
-10.940600 0.000000
-10.895700 0.000000
-10.850800 0.000000
-10.805900 0.000000
-10.761000 0.000000
-10.716100 0.000000
-10.671200 0.000000
-10.626300 0.000000
-10.581400 0.000000
-10.536500 0.000000
-10.491600 0.000000
-10.446700 0.000000
-10.401800 0.000000
-10.356900 0.000000
-10.312000 0.000000
-10.267100 0.000000
-10.222200 0.000000
-10.177300 0.000000
-10.132400 0.000000
-10.087500 0.000000
-10.042600 0.000000
-9.997700 0.000000
-9.952800 0.000000
-9.907900 0.000000
-9.863000 0.000000
-9.818100 0.000000
-9.773200 0.000000
-9.728300 0.000000
-9.683400 0.000000
-9.638500 0.000000
-9.593600 0.000000
-9.548700 0.000000
-9.503800 0.000000
-9.458900 0.000000
-9.414000 0.000000
-9.369100 0.000000
-9.324200 0.000000
-9.279300 0.000000
-9.234400 0.000000
-9.189500 0.000000
-9.144600 0.000000
-9.099700 0.000000
-9.054800 0.000000
-9.009900 0.000000
-8.965000 0.000000
-8.920100 0.000000
-8.875200 0.000000
-8.830300 0.000000
-8.785400 0.000000
-8.740500 0.000000
-8.695600 0.000000
-8.650700 0.000000
-8.605800 0.000000
-8.560900 0.000000
-8.516000 0.000000
-8.471100 0.000000
-8.426200 0.000000
-8.381300 0.000000
-8.336400 0.000000
-8.291500 0.000000
-8.246600 0.000000
-8.201700 0.000000
-8.156800 0.000000
-8.111900 0.000000
-8.067000 0.000000
-8.022100 0.000000
-7.977200 0.000000
-7.932300 0.000000
-7.887400 0.000000
-7.842500 0.000000
-7.797600 0.000000
-7.752700 0.000000
-7.707800 0.000000
-7.662900 0.000000
-7.618000 0.000000
-7.573100 0.000000
-7.528200 0.000000
-7.483300 0.000000
-7.438400 0.000000
-7.393500 0.000000
-7.348600 0.000000
-7.303700 0.000000
-7.258800 0.000000
-7.213900 0.000000
-7.169000 0.000000
-7.124100 0.000000
-7.079200 0.000000
-7.034300 0.000000
-6.989400 0.000000
-6.944500 0.000000
-6.899600 0.000000
-6.854700 0.000000
-6.809800 0.000000
-6.764900 0.000000
-6.720000 0.000000
-6.675100 0.000000
-6.630200 0.000000
-6.585300 0.000000
-6.540400 0.000000
-6.495500 0.000000
-6.450600 0.000000
-6.405700 0.000000
-6.360800 0.000000
-6.315900 0.000000
-6.271000 0.000000
-6.226100 0.000000
-6.181200 0.000000
-6.136300 0.000000
-6.091400 0.000000
-6.046500 0.000000
-6.001600 0.000000
-5.956700 0.000000
-5.911800 0.000000
-5.866900 0.000000
-5.822000 0.000000
-5.777100 0.000000
-5.732200 0.000000
-5.687300 0.000000
-5.642400 0.000000
-5.597500 0.000000
-5.552600 0.000000
-5.507700 0.000000
-5.462800 0.000000
-5.417900 0.000000
-5.373000 0.000000
-5.328100 0.000000
-5.283200 0.000000
-5.238300 0.000000
-5.193400 0.000000
-5.148500 0.000000
-5.103600 0.000000
-5.058700 0.000000
-5.013800 0.000000
-4.968900 0.000000
-4.924000 0.000000
-4.879100 0.000000
-4.834200 0.000000
-4.789300 0.000000
-4.744400 0.000000
-4.699500 0.000000
-4.654600 0.000000
-4.609700 0.000000
-4.564800 0.000000
-4.519900 0.000000
-4.475000 0.000000
-4.430100 0.000000
-4.385200 0.000000
-4.340300 0.000000
-4.295400 0.000000
-4.250500 0.000000
-4.205600 0.000000
-4.160700 0.000000
-4.115800 0.000000
-4.070900 0.000000
-4.026000 0.000000
-3.981100 0.000000
-3.936200 0.000000
-3.891300 0.000000
-3.846400 0.000000
-3.801500 0.000000
-3.756600 0.000000
-3.711700 0.000000
-3.666800 0.000000
-3.621900 0.000000
-3.577000 0.000000
-3.532100 0.000000
-3.487200 0.000000
-3.442300 0.000600
-3.397400 0.007800
-3.352500 0.028900
-3.307600 0.056200
-3.262700 0.107700
-3.217800 0.183700
-3.172900 0.125700
-3.128000 0.056100
-3.083100 0.161800
-3.038200 0.269000
-2.993300 0.241500
-2.948400 0.279600
-2.903500 0.244300
-2.858600 0.106200
-2.813700 0.129900
-2.768800 0.268100
-2.723900 0.384200
-2.679000 0.337300
-2.634100 0.388800
-2.589200 0.291900
-2.544300 0.115300
-2.499400 0.243800
-2.454500 0.466700
-2.409600 0.460600
-2.364700 0.404000
-2.319800 0.369900
-2.274900 0.239900
-2.230000 0.260600
-2.185100 0.351000
-2.140200 0.425500
-2.095300 0.481600
-2.050400 0.667200
-2.005500 0.443600
-1.960600 0.222700
-1.915700 0.544800
-1.870800 0.774000
-1.825900 0.492500
-1.781000 0.385000
-1.736100 0.286600
-1.691200 0.154200
-1.646300 0.252100
-1.601400 0.389600
-1.556500 0.594400
-1.511600 0.922700
-1.466700 0.909400
-1.421800 0.486500
-1.376900 0.266900
-1.332000 0.385900
-1.287100 0.535500
-1.242200 0.597700
-1.197300 0.513300
-1.152400 0.331600
-1.107500 0.191900
-1.062600 0.288000
-1.017700 0.277200
-0.972800 0.301500
-0.927900 0.563900
-0.883000 0.727000
-0.838100 0.623700
-0.793200 0.400600
-0.748300 0.408300
-0.703400 0.485800
-0.658500 0.362000
-0.613600 0.376100
-0.568700 0.672100
-0.523800 0.799700
-0.478900 0.801500
-0.434000 0.825300
-0.389100 0.703800
-0.344200 0.663000
-0.299300 0.609700
-0.254400 0.520700
-0.209500 0.429400
-0.164600 0.541400
-0.119700 0.558200
-0.074800 0.654700
-0.029900 0.821500
0.015000 0.572400
0.059900 0.339000
0.104800 0.295200
0.149700 0.446500
0.194600 0.593000
0.239500 0.552300
0.284400 0.608200
0.329300 0.629700
0.374200 0.674300
0.419100 0.734400
0.464000 0.565900
0.508900 0.449200
0.553800 0.403900
0.598700 0.564400
0.643600 0.622200
0.688500 0.652400
0.733400 0.836000
0.778300 0.890100
0.823200 0.812700
0.868100 0.855300
0.913000 0.985500
0.957800 0.866300
1.002700 0.560000
1.047600 0.539900
1.092500 0.968800
1.137400 1.038700
1.182300 0.670000
1.227200 0.505100
1.272100 0.710900
1.317000 0.767100
1.361900 0.662800
1.406800 0.594800
1.451700 0.617100
1.496600 0.623000
1.541500 0.692600
1.586400 0.757700
1.631300 0.793100
1.676200 0.827100
1.721100 0.729200
1.766000 0.469700
1.810900 0.626500
1.855800 0.982800
1.900700 0.784300
1.945600 0.509900
1.990500 0.510800
2.035400 0.586200
2.080300 0.458300
2.125200 0.262000
2.170100 0.218300
2.215000 0.391400
2.259900 0.482900
2.304800 0.466000
2.349700 0.385800
2.394600 0.188000
2.439500 0.223900
2.484400 0.273600
2.529300 0.166000
2.574200 0.230500
2.619100 0.307900
2.664000 0.133500
2.708900 0.074100
2.753800 0.185100
2.798700 0.259000
2.843600 0.347900
2.888500 0.515300
2.933400 0.562400
2.978300 0.487300
3.023200 0.603900
3.068100 0.474800
3.113000 0.318200
3.157900 0.354500
3.202800 0.354400
3.247700 0.546300
3.292600 0.973600
3.337500 1.035100
3.382400 0.761300
3.427300 0.626600
3.472200 0.668600
3.517100 1.037800
3.562000 1.179600
3.606900 1.222200
3.651800 1.314000
3.696700 1.259800
3.741600 1.144500
3.786500 1.298200
3.831400 1.706900
3.876300 1.594300
3.921200 1.224800
3.966100 1.046500
4.011000 0.965700
4.055900 1.044600
4.100800 1.469600
4.145700 1.745600
4.190600 1.728500
4.235500 2.390900
4.280400 3.681700
4.325300 4.377800
4.370200 4.722600
4.415100 4.217300
4.460000 3.567900
4.504900 3.787400
4.549800 4.912000
4.594700 6.223300
4.639600 7.074000
4.684500 6.943700
4.729400 5.006000
4.774300 2.646700
4.819200 3.168800
4.864100 6.240200
4.909000 5.867400
4.953900 3.648100
4.998800 3.382300
5.043700 4.098400
5.088600 3.590300
5.133500 2.759500
5.178400 2.617400
5.223300 2.704900
5.268200 2.617200
5.313100 2.303900
5.358000 1.809800
5.402900 2.079600
5.447800 2.486500
5.492700 2.366800
5.537600 1.744100
5.582500 1.214600
5.627400 0.785800
5.672300 0.718400
5.717200 1.055900
5.762100 1.407900
5.807000 1.379300
5.851900 1.242800
5.896800 1.106000
5.941700 1.171200
5.986600 1.195400
6.031500 1.265800
6.076400 1.296100
6.121300 1.368600
6.166200 1.535200
6.211100 1.454000
6.256000 1.316100
6.300900 0.960200
6.345800 0.653400
6.390700 0.384600
6.435600 0.557200
6.480500 1.029900
6.525400 1.446900
6.570300 1.194100
6.615200 1.021100
6.660100 1.325200
6.705000 1.250000
6.749900 0.807400
6.794800 0.624000
6.839700 0.701300
6.884600 0.904500
6.929500 0.975600
6.974400 0.727600
7.019300 0.450600
7.064200 0.741800
7.109100 1.270300
7.154000 1.433900
7.198900 1.428900
7.243800 1.333200
7.288700 1.107500
7.333600 1.145900
7.378500 1.278800
7.423400 0.861300
7.468300 0.421900
7.513200 0.370100
7.558100 0.576400
7.603000 0.849500
7.647900 0.737700
7.692800 0.583800
7.737700 0.661200
7.782600 0.682700
7.827500 0.902000
7.872400 1.304900
7.917300 1.529700
7.962200 1.436900
8.007100 1.270100
8.052000 0.927000
8.096900 0.804700
8.141800 0.978600
8.186700 0.920800
8.231600 1.011600
8.276500 1.349000
8.321400 1.298900
8.366300 1.107600
8.411200 1.117400
8.456100 1.365400
8.501000 1.349100
8.545900 0.719900
8.590800 0.404900
8.635700 0.407200
8.680600 0.550100
8.725500 0.685000
8.770400 0.960000
8.815300 1.131900
8.860200 1.129300
8.905100 1.172500
8.950000 1.060900
8.994900 1.203300
9.039800 1.252700
9.084700 1.086700
9.129600 0.924500
9.174500 0.874300
9.219400 1.263800
9.264300 1.993700
9.309200 1.719700
9.354100 1.096200
9.399000 0.624200
9.443900 0.352000
9.488800 0.651900
9.533700 0.974100
9.578600 1.138500
9.623500 1.182400
9.668400 1.279200
9.713300 1.495400
9.758200 1.658300
9.803100 1.503900
9.848000 1.307000
9.892900 1.349100
9.937800 1.127200
9.982700 0.768700
10.027600 0.846100
10.072500 1.053500
10.117400 1.228800
10.162300 1.407100
10.207200 1.594600
10.252100 1.523000
10.297000 1.134200
10.341900 0.878500
10.386800 0.875500
10.431700 1.053100
10.476600 1.217400
10.521500 1.538000
10.566400 1.521600
10.611300 1.351300
10.656200 1.601700
10.701100 1.516600
10.746000 1.062800
10.790900 0.865500
10.835800 1.045100
10.880700 1.685200
10.925600 1.668200
10.970500 1.165700
11.015400 0.821400
11.060300 1.031000
11.105200 1.543800
11.150100 1.779900
11.195000 1.249700
11.239900 0.848000
11.284800 1.105500
11.329700 1.343900
11.374600 1.569500
11.419500 1.523200
11.464400 1.473700
11.509300 1.187500
11.554200 0.881400
11.599100 0.889100
11.644000 1.163300
11.688900 1.370700
11.733800 1.378200
11.778700 1.442300
11.823600 1.650100
11.868500 1.535100
11.913400 1.298100
11.958300 1.348500
12.003200 0.923000
12.048100 0.764900
12.093000 0.984500
12.137900 0.986100
12.182800 1.034800
12.227700 1.040400
12.272600 0.820700
12.317500 0.889600
12.362400 1.390400
12.407300 1.565900
12.452200 1.250100
12.497100 1.173600
12.542000 1.281200
12.586900 1.058700
12.631800 1.119900
12.676700 1.501300
12.721600 1.649100
12.766500 1.473000
12.811400 1.011500
12.856300 0.942500
12.901200 1.280700
12.946100 1.400400
12.991000 0.805400
13.035900 0.543600
13.080800 0.586800
13.125700 0.638000
13.170600 0.793500
13.215500 1.189000
13.260400 1.346200
13.305300 1.113600
13.350200 1.314700
13.395100 1.483500
13.440000 1.130100
13.484900 0.949700
13.529800 0.875200
13.574700 0.820100
13.619600 1.131600
13.664500 1.582100
13.709400 1.193400
13.754300 0.720200
13.799200 0.674900
13.844100 1.258700
13.889000 1.400500
13.933900 0.798900
13.978800 0.688800
14.023700 0.773100
14.068600 0.430100
14.113500 0.469800
14.158400 0.809400
14.203300 1.121400
14.248200 1.518900
14.293100 1.514200
14.338000 1.141200
14.382900 1.026500
14.427800 0.986300
14.472700 0.824500
14.517600 0.616500
14.562500 0.574900
14.607400 0.943100
14.652300 1.005600
14.697200 0.758100
14.742100 0.799600
14.787000 1.150200
14.831900 1.176200
14.876800 1.168200
14.921700 0.995400
14.966600 0.622400
15.011500 0.675100
15.056400 0.580600
15.101300 0.627900
15.146200 0.986700
15.191100 1.032800
15.236000 0.857300
15.280900 1.617600
15.325800 2.283400
15.370700 1.477600
15.415600 1.197900
15.460500 1.529100
15.505400 1.339300
15.550300 0.902700
15.595200 0.709200
15.640100 0.705700
15.685000 0.929900
15.729900 1.600100
15.774800 1.634800
15.819700 1.159400
15.864600 0.877200
15.909500 0.719300
15.954400 0.829200
15.999300 1.083100
16.044200 1.449100
16.089100 2.026400
16.134000 2.377800
16.178900 1.765300
16.223800 1.210400
16.268700 1.189100
16.313600 1.188100
16.358500 1.512400
16.403400 1.607500
16.448300 1.486400
16.493200 1.525400
16.538100 1.570000
16.583000 1.597000
16.627900 1.609800
16.672800 1.550100
16.717700 1.528400
16.762600 1.449200
16.807500 1.356800
16.852400 1.511200
16.897300 1.377000
16.942200 1.218000
16.987100 1.184400
17.032000 1.474900
17.076900 1.639000
17.121800 1.664700
17.166700 1.437000
17.211600 1.220100
17.256500 1.544900
17.301400 1.628300
17.346300 1.444200
17.391200 1.372600
17.436100 1.361000
17.481000 1.297800
17.525900 1.187300
17.570800 1.438200
17.615700 1.649600
17.660600 1.399200
17.705500 1.383600
17.750400 1.719900
17.795300 1.372900
17.840200 1.369700
17.885100 1.911500
17.930000 2.416500
17.974900 2.309000
18.019800 1.744900
18.064700 1.473700
18.109600 1.250400
18.154500 0.992000
18.199400 1.017900
18.244300 1.105300
18.289200 1.158900
18.334100 1.007900
18.379000 1.039400
18.423900 1.471500
18.468800 1.357200
18.513700 1.261500
18.558600 1.573800
18.603500 1.596900
18.648400 1.701000
18.693300 1.606200
18.738200 1.268100
18.783100 0.771700
18.828000 0.515600
18.872900 0.767900
18.917800 0.998400
18.962700 1.470500
19.007600 2.051200
19.052500 2.232900
19.097400 2.336000
19.142300 2.152100
19.187200 1.553000
19.232100 1.288300
19.277000 1.343900
19.321900 1.205900
19.366800 1.190400
19.411700 1.082500
19.456600 1.256200
19.501500 1.253200
19.546400 1.008000
19.591300 1.051700
19.636200 1.300500
19.681100 1.352800
19.726000 1.351600
19.770900 1.211300
19.815800 1.250400
19.860700 1.302700
19.905600 1.108800
19.950500 0.891800
19.995400 0.664500
20.040300 0.805100
20.085200 1.137500
20.130100 1.538100
20.175000 1.635700
20.219900 1.329700
20.264800 1.057600
20.309700 1.110500
20.354600 1.458500
20.399500 1.749700
20.444400 1.855300
20.489300 1.743700
20.534200 1.591400
20.579100 1.407600
20.624000 1.575600
20.668900 1.689800
20.713800 1.804300
20.758700 1.839000
20.803600 1.673000
20.848500 1.363500
20.893300 1.135900
20.938200 1.154900
20.983100 1.223200
21.028000 1.555400
21.072900 1.862700
21.117800 1.643900
21.162700 1.527900
21.207600 1.338800
21.252500 1.436200
21.297400 1.253500
21.342300 1.266600
21.387200 1.652600
21.432100 1.652900
21.477000 1.221400
21.521900 0.814300
21.566800 1.081400
21.611700 1.728600
21.656600 1.543100
21.701500 1.207500
21.746400 1.413800
21.791300 1.507200
21.836200 1.550300
21.881100 1.693400
21.926000 2.030500
21.970900 2.371700
22.015800 1.892100
22.060700 1.536100
22.105600 1.575500
22.150500 1.773900
22.195400 1.781400
22.240300 1.807200
22.285200 1.970000
22.330100 1.804500
22.375000 1.607800
22.419900 1.850100
22.464800 1.522600
22.509700 1.416600
22.554600 1.532500
22.599500 1.727000
22.644400 1.675500
22.689300 1.613400
22.734200 1.412500
22.779100 1.138500
22.824000 1.445400
22.868900 1.606600
22.913800 1.464300
22.958700 1.523500
23.003600 2.094600
23.048500 2.587100
23.093400 1.915000
23.138300 1.475300
23.183200 2.031400
23.228100 2.231100
23.273000 1.871000
23.317900 1.605300
23.362800 1.292200
23.407700 1.125900
23.452600 1.675600
23.497500 1.984700
23.542400 1.840300
23.587300 1.795000
23.632200 2.115900
23.677100 2.434200
23.722000 2.505200
23.766900 1.957200
23.811800 1.375900
23.856700 1.452500
23.901600 1.786100
23.946500 2.263500
23.991400 2.266900
24.036300 1.702100
24.081200 1.711200
24.126100 2.344200
24.171000 1.954000
24.215900 1.310600
24.260800 1.556500
24.305700 2.037000
24.350600 2.100800
24.395500 2.008200
24.440400 1.899100
24.485300 1.581400
24.530200 1.545000
24.575100 1.663300
24.620000 1.592000
24.664900 1.548300
24.709800 1.946600
24.754700 2.591300
24.799600 2.250100
24.844500 1.967000
24.889400 1.883700
24.934300 1.579500
24.979200 1.409600
25.024100 1.803600
25.069000 2.251800
25.113900 1.938600
25.158800 1.830200
25.203700 2.282300
25.248600 2.451100
25.293500 2.007600
25.338400 1.730700
25.383300 1.791200
25.428200 2.092200
25.473100 2.351000
25.518000 2.107900
25.562900 1.751000
25.607800 1.642600
25.652700 1.505900
25.697600 1.429800
25.742500 1.452600
25.787400 1.777300
25.832300 2.151700
25.877200 2.398400
25.922100 2.623100
25.967000 2.625000
26.011900 2.037500
26.056800 1.824300
26.101700 2.205900
26.146600 2.509400
26.191500 2.372600
26.236400 1.938500
26.281300 1.591800
26.326200 1.738800
26.371100 1.658500
26.416000 1.532600
26.460900 1.450200
26.505800 1.521700
26.550700 1.971400
26.595600 2.263400
26.640500 2.139400
26.685400 1.981400
26.730300 1.613300
26.775200 1.356000
26.820100 1.694000
26.865000 2.320500
26.909900 2.574900
26.954800 2.568500
26.999700 2.782500
27.044600 2.918200
27.089500 2.043100
27.134400 1.431700
27.179300 1.572100
27.224200 2.076100
27.269100 2.344300
27.314000 2.331200
27.358900 2.287100
27.403800 1.784700
27.448700 1.700800
27.493600 1.810400
27.538500 1.979800
27.583400 2.294700
27.628300 2.422100
27.673200 2.411100
27.718100 2.148300
27.763000 1.855500
27.807900 1.834700
27.852800 2.177800
27.897700 2.363600
27.942600 2.307200
27.987500 2.322900
28.032400 2.050200
28.077300 1.821600
28.122200 1.643600
28.167100 1.159800
28.212000 1.151800
28.256900 1.417100
28.301800 1.713500
28.346700 2.209500
28.391600 2.306900
28.436500 2.156200
28.481400 1.813100
28.526300 1.347900
28.571200 1.546200
28.616100 2.447000
28.661000 3.441600
28.705900 3.422700
28.750800 2.400100
28.795700 2.306100
28.840600 2.418100
28.885500 2.133100
28.930400 2.438800
28.975300 2.171500
29.020200 1.713200
29.065100 1.939600
29.110000 2.402800
29.154900 2.617900
29.199800 2.318300
29.244700 2.295400
29.289600 2.545400
29.334500 2.230800
29.379400 1.894000
29.424300 1.855300
29.469200 2.115500
29.514100 2.471900
29.559000 2.259400
29.603900 1.698800
29.648800 1.854200
29.693700 2.025900
29.738600 1.956400
29.783500 2.130500
29.828400 1.964600
29.873300 2.043400
29.918200 1.550200
29.963100 1.385700
30.008000 2.170600
30.052900 2.588200
30.097800 2.045300
30.142700 1.730400
30.187600 1.884900
30.232500 1.788300
30.277400 1.914500
30.322300 2.255300
30.367200 2.523200
30.412100 2.626200
30.457000 2.764800
30.501900 2.913400
30.546800 2.671400
30.591700 2.609800
30.636600 2.810600
30.681500 2.791700
30.726400 2.375700
30.771300 2.167300
30.816200 1.885600
30.861100 1.625300
30.906000 1.939600
30.950900 2.318100
30.995800 2.571400
31.040700 2.590000
31.085600 2.369000
31.130500 2.279000
31.175400 2.045000
31.220300 1.751800
31.265200 1.596200
31.310100 1.624600
31.355000 1.957400
31.399900 2.442100
31.444800 2.502900
31.489700 2.625100
31.534600 2.154300
31.579500 1.436100
31.624400 1.242200
31.669300 1.468600
31.714200 1.852500
31.759100 2.121500
31.804000 2.115200
31.848900 2.027600
31.893800 2.131000
31.938700 2.363600
31.983600 2.055100
32.028500 1.706700
32.073400 1.886100
32.118300 1.921000
32.163200 1.912400
32.208100 1.752800
32.253000 1.448700
32.297900 1.514400
32.342800 1.662000
32.387700 1.838300
32.432600 2.138900
32.477500 2.070000
32.522400 1.879100
32.567300 2.212600
32.612200 2.112400
32.657100 1.937100
32.702000 1.678400
32.746900 1.481000
32.791800 1.757900
32.836700 1.766700
32.881600 1.773200
32.926500 1.838700
32.971400 2.114200
33.016300 2.334900
33.061200 1.858100
33.106100 1.491700
33.151000 1.806800
33.195900 1.885000
33.240800 1.966700
33.285700 2.456000
33.330600 2.755600
33.375500 2.457800
33.420400 1.931200
33.465300 1.890800
33.510200 2.103200
33.555100 1.860800
33.600000 1.656100
33.644900 1.492900
33.689800 1.478400
33.734700 1.667400
33.779600 1.822300
33.824500 2.269700
33.869400 2.274200
33.914300 2.071500
33.959200 2.507600
34.004100 2.589900
34.049000 2.233900
34.093900 2.564100
34.138800 2.680600
34.183700 2.024200
34.228600 1.637500
34.273500 1.771500
34.318400 1.729200
34.363300 1.730600
34.408200 1.505700
34.453100 1.286300
34.498000 1.517600
34.542900 2.023100
34.587800 2.434200
34.632700 2.836900
34.677600 3.120600
34.722500 2.700000
34.767400 2.070400
34.812300 1.987400
34.857200 2.087700
34.902100 2.044500
34.947000 2.288400
34.991900 3.112600
35.036800 3.147000
35.081700 2.713200
35.126600 2.374400
35.171500 2.226800
35.216400 2.307800
35.261300 2.300400
35.306200 2.719800
35.351100 2.875200
35.396000 2.017200
35.440900 1.575900
35.485800 1.405600
35.530700 1.756500
35.575600 2.390800
35.620500 2.671200
35.665400 2.170500
35.710300 1.625300
35.755200 1.704600
35.800100 1.959500
35.845000 2.237400
35.889900 2.493200
35.934800 2.119200
35.979700 2.018900
36.024600 2.352800
36.069500 1.943300
36.114400 1.833300
36.159300 2.758400
36.204200 2.727500
36.249100 2.100600
36.294000 2.174600
36.338900 2.637700
36.383800 2.564600
36.428700 2.243600
36.473600 2.602200
36.518500 2.952700
36.563400 3.148900
36.608300 2.640300
36.653200 2.162300
36.698100 2.073400
36.743000 2.272700
36.787900 2.510200
36.832800 2.185500
36.877700 1.788100
36.922600 1.775200
36.967500 1.952600
37.012400 2.232000
37.057300 2.154200
37.102200 2.296900
37.147100 2.967600
37.192000 2.894800
37.236900 2.587800
37.281800 2.459200
37.326700 2.450900
37.371600 2.050800
37.416500 1.935400
37.461400 1.973400
37.506300 1.821400
37.551200 1.547700
37.596100 1.402600
37.641000 1.495500
37.685900 1.593500
37.730800 1.705600
37.775700 1.353400
37.820600 1.432100
37.865500 1.558000
37.910400 1.075900
37.955300 0.643200
38.000200 0.501800
38.045100 0.487900
38.090000 0.670100
38.134900 0.718300
38.179800 0.345200
38.224700 0.356600
38.269600 0.539200
38.314500 0.498100
38.359400 0.509200
38.404300 0.511000
38.449200 0.300600
38.494100 0.062400
38.539000 0.033300
38.583900 0.082100
38.628800 0.054200
38.673700 0.008600
38.718600 0.000300
38.763500 0.000000
38.808400 0.000000
38.853300 0.000000
38.898200 0.000000
38.943100 0.000000
38.988000 0.000000
39.032900 0.000000
39.077800 0.000000
39.122700 0.000000
39.167600 0.000000
39.212500 0.000000
39.257400 0.000000
39.302300 0.000000
39.347200 0.000000
39.392100 0.000000
39.437000 0.000000
39.481900 0.000000
39.526800 0.000000
39.571700 0.000000
39.616600 0.000000
39.661500 0.000000
39.706400 0.000000
39.751300 0.000000
39.796200 0.000000
39.841100 0.000000
39.886000 0.000000
39.930900 0.000000
39.975800 0.000000
40.020700 0.000000
40.065600 0.000000
40.110500 0.000000
40.155400 0.000000
40.200300 0.000000
40.245200 0.000000
40.290100 0.000000
40.335000 0.000000
40.379900 0.000000
40.424800 0.000000
40.469700 0.000000
40.514600 0.000000
40.559500 0.000000
40.604400 0.000000
40.649300 0.000000
40.694200 0.000000
40.739100 0.000000
40.783900 0.000000
40.828800 0.000000
40.873700 0.000000
40.918600 0.000000
40.963500 0.000000
41.008400 0.000000
41.053300 0.000000
41.098200 0.000000
41.143100 0.000000
41.188000 0.000000
41.232900 0.000000
41.277800 0.000000
41.322700 0.000000
41.367600 0.000000
41.412500 0.000000
41.457400 0.000000
41.502300 0.000000
41.547200 0.000000
41.592100 0.000000
41.637000 0.000000
41.681900 0.000000
41.726800 0.000000
41.771700 0.000000
41.816600 0.000000
41.861500 0.000000
41.906400 0.000000
41.951300 0.000000
41.996200 0.000000
42.041100 0.000000
42.086000 0.000000
42.130900 0.000000
42.175800 0.000000
42.220700 0.000000
42.265600 0.000000
42.310500 0.000000
42.355400 0.000000
42.400300 0.000000
42.445200 0.000000
42.490100 0.000000
42.535000 0.000000
42.579900 0.000000
42.624800 0.000000
42.669700 0.000000
42.714600 0.000000
42.759500 0.000000
42.804400 0.000000
42.849300 0.000000
42.894200 0.000000
42.939100 0.000000
42.984000 0.000000
43.028900 0.000000
e
