set title 'mp-1216560 - Density of States'
set xlabel 'Energy (eV)'
set ylabel 'DOS (states/eV)'
set grid
set xrange [-10:10]
set yrange [0:113.921]
set xzeroaxis lt -1
set terminal png size 800,600
set output 'mp-1216560_dos_gnuplot.png'
plot '-' using 1:2 with lines title 'DOS'
-17.416700 0.000000
-17.394800 0.000000
-17.372900 0.000000
-17.350900 0.000000
-17.329000 0.000000
-17.307100 0.000000
-17.285100 0.000000
-17.263200 0.000000
-17.241300 0.000000
-17.219300 0.000000
-17.197400 0.000000
-17.175500 0.000000
-17.153500 0.000000
-17.131600 0.000000
-17.109700 0.000000
-17.087700 0.000000
-17.065800 0.000000
-17.043900 0.000000
-17.021900 0.000000
-17.000000 0.000000
-16.978100 0.000000
-16.956100 0.000000
-16.934200 0.000000
-16.912300 0.000000
-16.890300 0.000000
-16.868400 0.000000
-16.846500 0.000000
-16.824500 0.000000
-16.802600 0.000000
-16.780700 0.000000
-16.758700 0.000000
-16.736800 0.000000
-16.714900 0.000000
-16.692900 0.000000
-16.671000 0.000000
-16.649100 0.000000
-16.627100 0.000000
-16.605200 0.000000
-16.583300 0.000000
-16.561300 0.000000
-16.539400 0.000000
-16.517500 0.000000
-16.495500 0.000000
-16.473600 0.000000
-16.451700 0.000000
-16.429700 0.000000
-16.407800 0.000000
-16.385900 0.000000
-16.363900 0.000000
-16.342000 0.000000
-16.320100 0.000000
-16.298100 0.000000
-16.276200 0.000000
-16.254300 0.000000
-16.232300 0.000000
-16.210400 0.000000
-16.188500 0.000000
-16.166500 0.000000
-16.144600 0.000000
-16.122700 0.000000
-16.100700 0.000000
-16.078800 0.000000
-16.056900 0.000000
-16.034900 0.000000
-16.013000 0.000000
-15.991100 0.000000
-15.969100 0.000000
-15.947200 0.000000
-15.925300 0.000000
-15.903300 0.000000
-15.881400 0.000000
-15.859500 0.000000
-15.837500 0.000000
-15.815600 0.000000
-15.793700 0.000000
-15.771700 0.000000
-15.749800 0.000000
-15.727900 0.000000
-15.705900 0.000000
-15.684000 0.000000
-15.662100 0.000000
-15.640200 0.000000
-15.618200 0.000000
-15.596300 0.000000
-15.574400 0.000000
-15.552400 0.000000
-15.530500 0.000000
-15.508600 0.000000
-15.486600 0.000000
-15.464700 0.000000
-15.442800 0.000000
-15.420800 15.599600
-15.398900 50.211700
-15.377000 25.225100
-15.355000 22.808300
-15.333100 36.693000
-15.311200 202.029400
-15.289200 46.286100
-15.267300 0.000000
-15.245400 0.000000
-15.223400 0.000000
-15.201500 0.000000
-15.179600 0.000000
-15.157600 0.000000
-15.135700 0.000000
-15.113800 0.000000
-15.091800 0.000000
-15.069900 0.000000
-15.048000 0.000000
-15.026000 0.000000
-15.004100 0.000000
-14.982200 0.000000
-14.960200 0.000000
-14.938300 0.000000
-14.916400 0.000000
-14.894400 0.000000
-14.872500 0.000000
-14.850600 0.000000
-14.828600 0.000000
-14.806700 0.000000
-14.784800 0.000000
-14.762800 0.000000
-14.740900 0.000000
-14.719000 0.000000
-14.697000 0.000000
-14.675100 0.000000
-14.653200 0.000000
-14.631200 0.000000
-14.609300 0.000000
-14.587400 0.000000
-14.565400 0.000000
-14.543500 0.000000
-14.521600 0.000000
-14.499600 0.000000
-14.477700 0.000000
-14.455800 0.000000
-14.433800 0.000000
-14.411900 0.000000
-14.390000 0.000000
-14.368000 0.000000
-14.346100 0.000000
-14.324200 0.000000
-14.302200 0.000000
-14.280300 0.000000
-14.258400 0.000000
-14.236400 0.000000
-14.214500 0.000000
-14.192600 0.000000
-14.170600 0.000000
-14.148700 0.000000
-14.126800 0.000000
-14.104800 0.000000
-14.082900 0.000000
-14.061000 0.000000
-14.039000 0.000000
-14.017100 0.000000
-13.995200 0.000000
-13.973200 0.000000
-13.951300 0.000000
-13.929400 0.000000
-13.907400 0.000000
-13.885500 0.000000
-13.863600 0.000000
-13.841600 0.000000
-13.819700 0.000000
-13.797800 0.000000
-13.775800 0.000000
-13.753900 0.000000
-13.732000 0.000000
-13.710000 0.000000
-13.688100 0.000000
-13.666200 0.000000
-13.644200 0.000000
-13.622300 0.000000
-13.600400 0.000000
-13.578400 0.000000
-13.556500 0.000000
-13.534600 0.000000
-13.512600 0.000000
-13.490700 0.000000
-13.468800 0.000000
-13.446800 0.000000
-13.424900 0.000000
-13.403000 0.000000
-13.381000 0.000000
-13.359100 0.000000
-13.337200 0.000000
-13.315200 0.000000
-13.293300 0.000000
-13.271400 0.000000
-13.249400 0.000000
-13.227500 0.000000
-13.205600 0.000000
-13.183600 0.000000
-13.161700 0.000000
-13.139800 0.000000
-13.117800 0.000000
-13.095900 0.000000
-13.074000 0.000000
-13.052000 0.000000
-13.030100 0.000000
-13.008200 0.000000
-12.986200 0.000000
-12.964300 0.000000
-12.942400 0.000000
-12.920400 0.000000
-12.898500 0.000000
-12.876600 0.000000
-12.854600 0.000000
-12.832700 0.000000
-12.810800 0.000000
-12.788800 0.000000
-12.766900 0.000000
-12.745000 0.000000
-12.723000 0.000000
-12.701100 0.000000
-12.679200 0.000000
-12.657200 0.000000
-12.635300 0.000000
-12.613400 0.000000
-12.591400 0.000000
-12.569500 0.000000
-12.547600 0.000000
-12.525600 0.000000
-12.503700 0.000000
-12.481800 0.000000
-12.459800 0.000000
-12.437900 0.000000
-12.416000 0.000000
-12.394000 0.000000
-12.372100 0.000000
-12.350200 0.000000
-12.328200 0.000000
-12.306300 0.000000
-12.284400 0.000000
-12.262400 0.000000
-12.240500 0.000000
-12.218600 0.000000
-12.196600 0.000000
-12.174700 0.000000
-12.152800 0.000000
-12.130800 0.000000
-12.108900 0.000000
-12.087000 0.000000
-12.065000 0.000000
-12.043100 0.000000
-12.021200 0.000000
-11.999200 0.000000
-11.977300 0.000000
-11.955400 0.000000
-11.933400 0.000000
-11.911500 0.000000
-11.889600 0.000000
-11.867600 0.000000
-11.845700 0.000000
-11.823800 0.000000
-11.801800 0.000000
-11.779900 0.000000
-11.758000 0.000000
-11.736000 0.000000
-11.714100 0.000000
-11.692200 0.000000
-11.670200 0.000000
-11.648300 0.000000
-11.626400 0.000000
-11.604400 0.000000
-11.582500 0.000000
-11.560600 0.000000
-11.538600 0.000000
-11.516700 0.000000
-11.494800 0.000000
-11.472800 0.000000
-11.450900 0.000000
-11.429000 0.000000
-11.407000 0.000000
-11.385100 0.000000
-11.363200 0.000000
-11.341200 0.000000
-11.319300 0.000000
-11.297400 0.000000
-11.275400 0.000000
-11.253500 0.000000
-11.231600 0.000000
-11.209600 0.000000
-11.187700 0.000000
-11.165800 0.000000
-11.143800 0.000000
-11.121900 0.000000
-11.100000 0.000000
-11.078000 0.000000
-11.056100 0.000000
-11.034200 0.000000
-11.012200 0.000000
-10.990300 0.000000
-10.968400 0.000000
-10.946400 0.000000
-10.924500 0.000000
-10.902600 0.000000
-10.880600 0.000000
-10.858700 0.000000
-10.836800 0.000000
-10.814800 0.000000
-10.792900 0.000000
-10.771000 0.000000
-10.749000 0.000000
-10.727100 0.000000
-10.705200 0.000000
-10.683200 0.000000
-10.661300 0.000000
-10.639400 0.000000
-10.617400 0.000000
-10.595500 0.000000
-10.573600 0.000000
-10.551600 0.000000
-10.529700 0.000000
-10.507800 0.000000
-10.485800 0.000000
-10.463900 0.000000
-10.442000 0.000000
-10.420000 0.000000
-10.398100 0.000000
-10.376200 0.000000
-10.354200 0.000000
-10.332300 0.000000
-10.310400 0.000000
-10.288400 0.000000
-10.266500 0.000000
-10.244600 0.000000
-10.222600 0.000000
-10.200700 0.000000
-10.178800 0.000000
-10.156800 0.000000
-10.134900 0.000000
-10.113000 0.000000
-10.091000 0.000000
-10.069100 0.000000
-10.047200 0.000000
-10.025200 0.000000
-10.003300 0.000000
-9.981400 0.000000
-9.959400 0.000000
-9.937500 0.000000
-9.915600 0.000000
-9.893600 0.000000
-9.871700 0.000000
-9.849800 0.000000
-9.827800 0.000000
-9.805900 0.000000
-9.784000 0.000000
-9.762000 0.000000
-9.740100 0.000000
-9.718200 0.000000
-9.696200 0.000000
-9.674300 0.000000
-9.652400 0.000000
-9.630400 0.000000
-9.608500 0.000000
-9.586600 0.000000
-9.564600 0.000000
-9.542700 0.000000
-9.520800 0.000000
-9.498800 0.000000
-9.476900 0.000000
-9.455000 0.000000
-9.433000 0.000000
-9.411100 0.000000
-9.389200 0.000000
-9.367200 0.000000
-9.345300 0.000000
-9.323400 0.000000
-9.301400 0.000000
-9.279500 0.000000
-9.257600 0.000000
-9.235600 0.000000
-9.213700 0.000000
-9.191800 0.000000
-9.169900 0.000000
-9.147900 0.000000
-9.126000 0.000000
-9.104100 0.000000
-9.082100 0.000000
-9.060200 0.000000
-9.038300 0.000000
-9.016300 0.000000
-8.994400 0.000000
-8.972500 0.000000
-8.950500 0.000000
-8.928600 0.000000
-8.906700 0.000000
-8.884700 0.000000
-8.862800 0.000000
-8.840900 0.000000
-8.818900 0.000000
-8.797000 0.000000
-8.775100 0.000000
-8.753100 0.000000
-8.731200 0.000000
-8.709300 0.000000
-8.687300 0.000000
-8.665400 0.000000
-8.643500 0.000000
-8.621500 0.000000
-8.599600 0.000000
-8.577700 0.000000
-8.555700 0.000000
-8.533800 0.000000
-8.511900 0.000000
-8.489900 0.000000
-8.468000 0.000000
-8.446100 0.000000
-8.424100 0.000000
-8.402200 0.000000
-8.380300 0.000000
-8.358300 0.000000
-8.336400 0.000000
-8.314500 0.000000
-8.292500 0.000000
-8.270600 0.000000
-8.248700 0.000000
-8.226700 0.000000
-8.204800 0.000000
-8.182900 0.000000
-8.160900 0.000000
-8.139000 0.000000
-8.117100 0.000000
-8.095100 0.000000
-8.073200 0.000000
-8.051300 0.000000
-8.029300 0.000000
-8.007400 0.000000
-7.985500 0.000000
-7.963500 0.000000
-7.941600 0.000000
-7.919700 0.000000
-7.897700 0.000000
-7.875800 0.000000
-7.853900 0.000000
-7.831900 0.000000
-7.810000 0.000000
-7.788100 0.000000
-7.766100 0.000000
-7.744200 0.000000
-7.722300 0.000000
-7.700300 0.000000
-7.678400 0.000000
-7.656500 0.000000
-7.634500 0.000000
-7.612600 0.000000
-7.590700 0.000000
-7.568700 0.000000
-7.546800 0.000000
-7.524900 0.000000
-7.502900 0.000000
-7.481000 0.000000
-7.459100 0.000000
-7.437100 0.000000
-7.415200 0.000000
-7.393300 0.000000
-7.371300 0.000000
-7.349400 0.000000
-7.327500 0.000000
-7.305500 0.000000
-7.283600 0.000000
-7.261700 0.000000
-7.239700 0.000000
-7.217800 0.000000
-7.195900 0.000000
-7.173900 0.000000
-7.152000 0.000000
-7.130100 0.000000
-7.108100 0.000000
-7.086200 0.000000
-7.064300 0.000000
-7.042300 0.000000
-7.020400 0.000000
-6.998500 0.000000
-6.976500 0.000000
-6.954600 0.000000
-6.932700 0.000000
-6.910700 0.000000
-6.888800 0.000000
-6.866900 0.000000
-6.844900 0.000000
-6.823000 0.000000
-6.801100 0.000000
-6.779100 0.000000
-6.757200 0.000000
-6.735300 0.000000
-6.713300 0.000000
-6.691400 0.000000
-6.669500 0.000000
-6.647500 0.000000
-6.625600 0.000000
-6.603700 0.000000
-6.581700 0.000000
-6.559800 0.000000
-6.537900 0.000000
-6.515900 0.000000
-6.494000 0.000000
-6.472100 0.000000
-6.450100 0.000000
-6.428200 0.000000
-6.406300 0.000000
-6.384300 0.000000
-6.362400 0.000000
-6.340500 0.000000
-6.318500 0.000000
-6.296600 0.000000
-6.274700 0.000000
-6.252700 0.000000
-6.230800 0.000000
-6.208900 0.000000
-6.186900 0.000000
-6.165000 0.000000
-6.143100 0.000000
-6.121100 0.000000
-6.099200 0.000000
-6.077300 0.000000
-6.055300 0.000000
-6.033400 0.000000
-6.011500 0.000000
-5.989500 0.000000
-5.967600 0.000000
-5.945700 0.000000
-5.923700 0.000000
-5.901800 0.000000
-5.879900 0.000000
-5.857900 0.000000
-5.836000 0.000000
-5.814100 3.323700
-5.792100 5.428500
-5.770200 7.533400
-5.748300 10.884800
-5.726300 13.627900
-5.704400 16.600200
-5.682500 31.466700
-5.660500 48.974300
-5.638600 57.410500
-5.616700 51.392100
-5.594700 45.572200
-5.572800 102.153200
-5.550900 33.826400
-5.528900 67.351200
-5.507000 57.385500
-5.485100 76.349600
-5.463100 63.287700
-5.441200 35.354800
-5.419300 103.564300
-5.397300 64.975500
-5.375400 32.897000
-5.353500 47.300000
-5.331500 60.810300
-5.309600 55.609000
-5.287700 73.821700
-5.265700 72.922400
-5.243800 90.439900
-5.221900 94.264000
-5.199900 78.500200
-5.178000 79.926600
-5.156100 80.817900
-5.134100 49.660700
-5.112200 35.059000
-5.090300 49.508700
-5.068300 21.006100
-5.046400 14.694500
-5.024500 11.524200
-5.002500 0.000000
-4.980600 0.000000
-4.958700 0.000000
-4.936700 0.000000
-4.914800 0.000000
-4.892900 0.000000
-4.870900 0.000000
-4.849000 0.000000
-4.827100 0.000000
-4.805100 0.000000
-4.783200 0.000000
-4.761300 0.000000
-4.739300 0.000000
-4.717400 0.000000
-4.695500 0.000000
-4.673500 0.000000
-4.651600 0.000000
-4.629700 0.000000
-4.607700 0.000000
-4.585800 0.000000
-4.563900 0.000000
-4.541900 0.000000
-4.520000 0.000000
-4.498100 0.000000
-4.476100 0.000000
-4.454200 0.000000
-4.432300 0.000000
-4.410300 0.000000
-4.388400 0.000000
-4.366500 0.000000
-4.344500 0.000000
-4.322600 0.000000
-4.300700 0.000000
-4.278700 0.000000
-4.256800 0.000000
-4.234900 0.000000
-4.212900 0.000000
-4.191000 0.000000
-4.169100 0.000000
-4.147100 0.000000
-4.125200 0.000000
-4.103300 0.000000
-4.081300 0.000000
-4.059400 0.000000
-4.037500 0.000000
-4.015500 0.000000
-3.993600 0.000000
-3.971700 0.000000
-3.949700 0.000000
-3.927800 0.000000
-3.905900 0.000000
-3.883900 0.000000
-3.862000 0.001100
-3.840100 0.034400
-3.818100 0.095400
-3.796200 0.156500
-3.774300 0.217600
-3.752300 0.278700
-3.730400 0.339800
-3.708500 0.400900
-3.686500 0.462000
-3.664600 0.523100
-3.642700 0.584200
-3.620700 0.462600
-3.598800 0.327000
-3.576900 0.332200
-3.554900 0.337300
-3.533000 0.342500
-3.511100 0.347600
-3.489100 0.352800
-3.467200 0.357900
-3.445300 0.363000
-3.423300 0.368200
-3.401400 0.373300
-3.379500 0.378500
-3.357500 0.383600
-3.335600 0.388800
-3.313700 0.393900
-3.291700 0.399100
-3.269800 0.404200
-3.247900 0.409400
-3.225900 0.414500
-3.204000 0.427800
-3.182100 0.450800
-3.160100 0.477600
-3.138200 0.501700
-3.116300 0.528300
-3.094300 0.558800
-3.072400 0.592500
-3.050500 0.629400
-3.028500 0.669600
-3.006600 0.713900
-2.984700 0.703700
-2.962700 0.704100
-2.940800 0.710900
-2.918900 0.721800
-2.896900 0.736700
-2.875000 0.749400
-2.853100 0.759500
-2.831100 0.766900
-2.809200 0.770900
-2.787300 0.770900
-2.765400 0.762500
-2.743400 0.733100
-2.721500 0.739900
-2.699600 0.748900
-2.677600 0.762400
-2.655700 0.780300
-2.633800 0.802400
-2.611800 0.826400
-2.589900 0.852000
-2.568000 0.879000
-2.546000 0.907600
-2.524100 0.937400
-2.502200 0.966700
-2.480200 0.979600
-2.458300 0.978500
-2.436400 0.988400
-2.414400 0.997400
-2.392500 1.005800
-2.370600 1.013500
-2.348600 1.021000
-2.326700 1.028500
-2.304800 1.035700
-2.282800 1.042500
-2.260900 1.050100
-2.239000 1.033200
-2.217000 1.036900
-2.195100 1.044300
-2.173200 1.052500
-2.151200 1.061400
-2.129300 1.071000
-2.107400 1.081200
-2.085400 1.093000
-2.063500 1.108000
-2.041600 1.123100
-2.019600 1.136800
-1.997700 1.148900
-1.975800 1.159200
-1.953800 1.167900
-1.931900 1.175100
-1.910000 1.180200
-1.888000 1.182700
-1.866100 1.182800
-1.844200 1.192600
-1.822200 1.203300
-1.800300 1.210800
-1.778400 1.227400
-1.756400 1.243900
-1.734500 1.259400
-1.712600 1.273400
-1.690600 1.282400
-1.668700 1.291800
-1.646800 1.301700
-1.624800 1.311800
-1.602900 1.322300
-1.581000 1.332600
-1.559000 1.337000
-1.537100 1.344800
-1.515200 1.353000
-1.493200 1.361500
-1.471300 1.370100
-1.449400 1.378600
-1.427400 1.387100
-1.405500 1.394700
-1.383600 1.402100
-1.361600 1.408800
-1.339700 1.415600
-1.317800 1.425200
-1.295800 1.435000
-1.273900 1.445100
-1.252000 1.455400
-1.230000 1.466100
-1.208100 1.477300
-1.186200 1.488000
-1.164200 1.498400
-1.142300 1.508700
-1.120400 1.518700
-1.098400 1.527900
-1.076500 1.535700
-1.054600 1.545100
-1.032600 1.554700
-1.010700 1.564400
-0.988800 1.574200
-0.966800 1.584300
-0.944900 1.594700
-0.923000 1.608200
-0.901000 1.622500
-0.879100 1.637400
-0.857200 1.655300
-0.835200 1.676900
-0.813300 1.701300
-0.791400 1.714300
-0.769400 1.711900
-0.747500 1.694000
-0.725600 1.695900
-0.703600 1.710500
-0.681700 1.726500
-0.659800 1.744100
-0.637800 1.763200
-0.615900 1.783900
-0.594000 1.806200
-0.572000 1.829500
-0.550100 1.851600
-0.528200 1.865100
-0.506200 1.879400
-0.484300 1.894300
-0.462400 1.909600
-0.440400 1.925500
-0.418500 1.941800
-0.396600 1.958100
-0.374600 1.973900
-0.352700 2.226000
-0.330800 2.223600
-0.308800 2.222300
-0.286900 2.221000
-0.265000 2.219700
-0.243000 2.218200
-0.221100 2.216900
-0.199200 2.215900
-0.177200 2.217200
-0.155300 2.222800
-0.133400 2.232300
-0.111400 2.245400
-0.089500 2.263500
-0.067600 2.284100
-0.045600 2.301500
-0.023700 2.315800
-0.001800 2.327100
0.020200 2.335300
0.042100 2.333700
0.064000 2.310800
0.086000 2.256000
0.107900 2.251000
0.129800 2.246900
0.151800 2.242800
0.173700 2.238600
0.195600 2.234500
0.217600 4.552200
0.239500 2.224200
0.261400 2.225400
0.283400 2.226900
0.305300 2.228600
0.327200 2.230500
0.349200 2.232600
0.371100 2.234600
0.393000 2.236200
0.415000 2.237700
0.436900 2.238700
0.458800 2.250400
0.480800 2.289700
0.502700 2.374500
0.524600 2.420400
0.546600 2.443600
0.568500 2.450200
0.590400 2.438400
0.612400 2.422600
0.634300 2.409100
0.656200 2.396500
0.678200 2.384900
0.700100 2.373200
0.722000 2.361700
0.744000 2.352600
0.765900 2.345600
0.787800 2.338900
0.809800 2.335700
0.831700 2.339700
0.853600 2.349000
0.875600 2.373200
0.897500 2.398100
0.919400 2.416300
0.941400 2.427700
0.963300 2.434600
0.985200 2.439300
1.007200 2.640000
1.029100 3.958400
1.051000 3.554400
1.073000 2.910200
1.094900 2.596500
1.116800 2.487300
1.138800 2.401200
1.160700 2.252400
1.182600 2.145700
1.204600 2.123900
1.226500 2.128600
1.248400 2.159300
1.270400 2.212900
1.292300 2.292100
1.314200 2.404300
1.336200 2.521800
1.358100 2.672400
1.380000 2.690800
1.402000 2.637400
1.423900 2.629800
1.445800 2.658400
1.467800 2.697400
1.489700 2.810700
1.511600 3.114300
1.533600 3.109500
1.555500 2.815500
1.577400 2.503500
1.599400 2.373900
1.621300 2.265300
1.643200 2.161300
1.665200 2.064300
1.687100 2.070800
1.709000 2.147300
1.731000 2.236100
1.752900 2.250400
1.774800 2.088300
1.796800 1.872600
1.818700 1.863900
1.840600 1.972300
1.862600 2.079800
1.884500 2.201100
1.906400 2.318800
1.928400 2.548100
1.950300 2.792900
1.972200 2.976000
1.994200 2.363300
2.016100 2.998200
2.038000 2.980300
2.060000 2.889400
2.081900 2.666900
2.103800 2.499600
2.125800 2.464900
2.147700 2.554100
2.169600 2.487600
2.191600 1.469700
2.213500 1.049300
2.235400 0.722300
2.257400 0.391600
2.279300 0.000000
2.301200 0.000000
2.323200 0.000000
2.345100 0.000000
2.367000 0.000000
2.389000 0.000000
2.410900 0.000000
2.432800 0.000000
2.454800 0.000000
2.476700 0.000000
2.498600 0.000000
2.520600 0.000000
2.542500 0.000000
2.564400 0.000000
2.586400 0.000000
2.608300 0.000000
2.630200 0.000000
2.652200 0.000000
2.674100 0.000000
2.696000 0.000000
2.718000 0.000000
2.739900 0.000000
2.761800 0.000000
2.783800 0.000000
2.805700 0.000000
2.827600 0.000000
2.849600 0.000000
2.871500 0.000000
2.893400 0.000000
2.915400 0.000000
2.937300 0.000000
2.959200 0.000000
2.981200 0.002500
3.003100 0.009500
3.025000 0.018100
3.047000 0.028300
3.068900 0.040200
3.090800 0.053700
3.112800 0.068800
3.134700 0.084600
3.156600 0.101000
3.178600 0.118100
3.200500 0.338200
3.222400 1.769000
3.244400 1.930400
3.266300 0.815900
3.288200 0.556000
3.310200 0.573200
3.332100 0.592600
3.354000 0.612100
3.376000 0.631400
3.397900 0.650400
3.419800 0.669200
3.441800 0.687800
3.463700 0.706600
3.485600 0.725700
3.507600 0.745200
3.529500 0.765000
3.551400 0.784800
3.573400 0.804700
3.595300 0.824700
3.617200 0.844800
3.639100 0.864900
3.661100 0.885300
3.683000 0.906200
3.704900 0.927600
3.726900 0.949300
3.748800 0.971200
3.770700 0.993200
3.792700 1.014600
3.814600 1.035900
3.836500 1.057100
3.858500 1.078100
3.880400 1.099200
3.902300 1.175700
3.924300 1.411400
3.946200 1.585400
3.968100 1.544400
3.990100 1.503300
4.012000 1.453700
4.033900 1.392900
4.055900 1.328100
4.077800 1.308500
4.099700 1.290500
4.121700 1.284700
4.143600 1.293800
4.165500 1.317600
4.187500 1.356100
4.209400 1.619000
4.231300 1.898600
4.253300 2.022200
4.275200 1.995700
4.297100 1.786500
4.319100 1.676100
4.341000 1.597100
4.362900 1.524200
4.384900 1.481400
4.406800 1.494700
4.428700 1.530300
4.450700 1.593500
4.472600 1.702400
4.494500 1.872200
4.516500 2.078700
4.538400 2.312800
4.560300 2.551700
4.582300 2.745300
4.604200 2.613200
4.626100 2.412400
4.648100 2.393000
4.670000 2.442700
4.691900 2.497700
4.713900 2.558100
4.735800 2.636000
4.757700 2.711800
4.779700 2.767100
4.801600 2.805500
4.823500 2.834000
4.845500 2.852400
4.867400 2.848700
4.889300 2.849700
4.911300 2.881900
4.933200 2.920000
4.955100 2.948400
4.977100 2.995300
4.999000 2.687100
5.020900 2.509100
5.042900 2.526600
5.064800 2.533500
5.086700 2.616200
5.108700 2.692100
5.130600 2.873200
5.152500 3.049900
5.174500 3.246100
5.196400 3.730100
5.218300 3.672800
5.240300 3.140300
5.262200 2.916400
5.284100 2.725200
5.306100 2.545200
5.328000 2.428500
5.349900 2.361400
5.371900 2.343100
5.393800 2.388500
5.415700 2.447600
5.437700 2.514800
5.459600 2.589800
5.481500 2.702400
5.503500 2.820800
5.525400 2.962000
5.547300 3.152300
5.569300 3.331800
5.591200 3.522600
5.613100 3.698400
5.635100 3.792600
5.657000 3.832500
5.678900 3.988800
5.700900 3.511400
5.722800 3.075200
5.744700 2.889800
5.766700 2.957200
5.788600 3.081800
5.810500 3.227000
5.832500 3.386700
5.854400 3.613900
5.876300 3.630300
5.898300 3.364000
5.920200 3.242600
5.942100 3.139600
5.964100 3.059400
5.986000 2.979100
6.007900 2.888000
6.029900 2.767900
6.051800 2.634600
6.073700 2.506400
6.095700 2.407100
6.117600 2.321200
6.139500 2.260900
6.161500 2.236900
6.183400 2.386100
6.205300 2.520100
6.227300 2.550300
6.249200 2.590000
6.271100 2.624300
6.293100 2.711800
6.315000 2.802300
6.336900 2.893600
6.358900 2.891100
6.380800 2.668200
6.402700 2.454500
6.424700 2.332400
6.446600 2.243600
6.468500 2.174200
6.490500 2.091900
6.512400 2.018300
6.534300 1.967400
6.556300 1.938700
6.578200 1.914800
6.600100 1.893300
6.622100 1.870300
6.644000 1.842000
6.665900 1.818600
6.687900 1.800800
6.709800 1.786400
6.731700 1.802900
6.753700 1.806200
6.775600 1.798900
6.797500 1.784400
6.819500 1.781400
6.841400 1.794900
6.863300 1.813600
6.885300 1.835500
6.907200 1.860600
6.929100 1.890800
6.951100 1.926200
6.973000 1.972000
6.994900 2.031500
7.016900 2.101400
7.038800 2.181600
7.060700 2.270600
7.082700 2.358800
7.104600 2.454600
7.126500 2.534100
7.148500 2.605100
7.170400 2.669000
7.192300 2.736300
7.214300 2.821700
7.236200 2.919100
7.258100 2.984900
7.280100 2.992300
7.302000 2.937500
7.323900 2.943000
7.345900 2.954000
7.367800 2.970100
7.389700 2.991200
7.411700 3.017700
7.433600 3.033000
7.455500 3.050000
7.477500 3.069200
7.499400 3.091400
7.521300 3.117700
7.543300 3.144700
7.565200 3.166100
7.587100 3.171000
7.609100 3.147900
7.631000 3.097000
7.652900 3.020600
7.674900 2.928000
7.696800 2.837200
7.718700 2.768500
7.740700 2.721400
7.762600 2.695200
7.784500 2.688400
7.806500 2.695000
7.828400 2.717200
7.850300 2.741800
7.872300 2.764700
7.894200 2.787400
7.916100 2.815400
7.938100 2.848000
7.960000 2.883200
7.981900 2.920600
8.003900 2.958000
8.025800 2.990800
8.047700 3.020300
8.069700 3.048300
8.091600 3.072500
8.113500 3.093800
8.135500 3.113900
8.157400 3.140500
8.179300 3.176700
8.201300 3.193100
8.223200 3.188600
8.245100 3.174000
8.267100 3.149800
8.289000 3.137700
8.310900 3.135200
8.332900 3.130600
8.354800 3.122200
8.376700 3.117800
8.398700 3.111400
8.420600 3.104000
8.442500 3.095500
8.464500 3.086500
8.486400 3.076700
8.508300 3.064600
8.530300 3.050800
8.552200 3.037200
8.574100 3.022900
8.596100 3.005200
8.618000 2.988100
8.639900 2.971800
8.661900 2.954200
8.683800 2.933100
8.705700 2.898700
8.727700 2.869100
8.749600 2.831900
8.771500 2.776600
8.793500 2.757100
8.815400 2.739200
8.837300 2.715900
8.859300 2.689400
8.881200 2.672100
8.903100 2.667000
8.925100 2.668300
8.947000 2.677000
8.968900 2.692300
8.990900 2.707700
9.012800 2.651600
9.034700 2.684300
9.056700 2.709200
9.078600 2.735600
9.100500 2.765800
9.122500 2.800800
9.144400 2.850400
9.166300 2.919400
9.188300 3.024200
9.210200 3.143500
9.232100 3.265300
9.254100 3.389700
9.276000 3.527400
9.297900 3.723900
9.319900 4.380500
9.341800 4.135400
9.363700 4.083000
9.385700 3.934600
9.407600 3.771500
9.429500 3.633000
9.451500 3.543700
9.473400 3.507900
9.495300 3.518500
9.517300 3.546600
9.539200 3.606500
9.561100 3.680100
9.583100 3.762300
9.605000 3.617000
9.626900 3.669200
9.648900 3.745100
9.670800 3.879700
9.692700 4.014200
9.714700 4.131100
9.736600 4.254400
9.758500 4.368900
9.780500 4.383900
9.802400 4.305500
9.824300 3.941300
9.846300 3.788600
9.868200 3.733800
9.890100 3.715700
9.912100 3.715800
9.934000 3.708500
9.955900 3.691600
9.977900 3.692000
9.999800 3.584800
10.021700 3.491400
10.043600 3.468900
10.065600 3.448300
10.087500 3.428100
10.109400 3.408000
10.131400 3.393500
10.153300 3.411100
10.175200 3.427000
10.197200 3.436300
10.219100 3.439700
10.241000 3.436900
10.263000 3.428100
10.284900 3.413200
10.306800 3.392400
10.328800 3.365300
10.350700 3.331500
10.372600 3.291100
10.394600 3.248700
10.416500 3.206600
10.438400 3.164500
10.460400 3.157100
10.482300 3.151200
10.504200 3.141300
10.526200 3.127800
10.548100 3.112600
10.570000 3.099000
10.592000 3.087800
10.613900 3.079600
10.635800 3.117200
10.657800 3.081600
10.679700 3.063700
10.701600 3.054400
10.723600 3.125800
10.745500 3.215100
10.767400 3.219300
10.789400 3.209200
10.811300 3.202600
10.833200 3.194500
10.855200 3.189000
10.877100 3.188300
10.899000 3.193400
10.921000 3.202300
10.942900 3.191100
10.964800 3.199900
10.986800 3.213600
11.008700 3.225800
11.030600 3.236400
11.052600 3.251700
11.074500 3.279500
11.096400 3.299300
11.118400 3.343800
11.140300 3.405000
11.162200 3.494000
11.184200 3.609500
11.206100 3.734800
11.228000 3.597600
11.250000 3.494200
11.271900 3.431800
11.293800 3.410900
11.315800 3.402400
11.337700 3.402100
11.359600 3.407900
11.381600 3.418000
11.403500 3.419000
11.425400 3.420500
11.447400 3.418900
11.469300 3.413400
11.491200 3.375800
11.513200 3.329100
11.535100 3.298900
11.557000 3.267600
11.579000 3.240100
11.600900 3.218500
11.622800 3.201400
11.644800 3.186300
11.666700 3.173000
11.688600 3.161400
11.710600 3.150800
11.732500 3.141200
11.754400 3.132300
11.776400 3.123700
11.798300 3.115300
11.820200 3.105400
11.842200 3.187300
11.864100 3.178400
11.886000 3.160500
11.908000 3.142800
11.929900 3.124300
11.951800 3.109400
11.973800 3.096600
11.995700 3.082300
12.017600 3.076800
12.039600 3.075300
12.061500 3.084100
12.083400 3.097100
12.105400 3.113700
12.127300 3.133000
12.149200 3.144700
12.171200 3.115800
12.193100 3.088300
12.215000 3.066300
12.237000 3.042200
12.258900 3.009400
12.280800 2.978900
12.302800 2.951900
12.324700 2.931900
12.346600 2.915600
12.368600 2.903300
12.390500 2.894500
12.412400 2.883900
12.434400 2.876000
12.456300 2.871900
12.478200 2.876100
12.500200 2.895600
12.522100 2.925800
12.544000 2.969900
12.566000 3.017100
12.587900 3.062400
12.609800 3.111500
12.631800 3.144300
12.653700 3.150600
12.675600 3.141400
12.697600 3.138400
12.719500 3.125800
12.741400 3.089100
12.763400 2.935000
12.785300 2.797300
12.807200 2.694000
12.829200 2.638800
12.851100 2.600700
12.873000 2.561800
12.895000 2.507200
12.916900 2.459800
12.938800 2.434600
12.960800 2.416200
12.982700 2.404300
13.004600 2.399300
13.026600 2.406700
13.048500 2.425200
13.070400 2.452500
13.092400 2.491300
13.114300 2.579800
13.136200 2.644900
13.158200 2.682300
13.180100 2.657500
13.202000 2.617200
13.224000 2.639500
13.245900 2.671800
13.267800 2.715700
13.289800 2.755300
13.311700 2.806400
13.333600 2.816400
13.355600 2.819300
13.377500 2.829000
13.399400 2.844300
13.421400 2.858300
13.443300 2.875500
13.465200 2.911300
13.487200 2.992100
13.509100 3.077200
13.531000 3.087700
13.553000 3.091700
13.574900 3.092300
13.596800 3.074100
13.618800 3.050700
13.640700 3.040700
13.662600 3.029900
13.684600 3.019700
13.706500 3.010100
13.728400 3.001700
13.750400 2.993200
13.772300 2.987400
13.794200 2.990700
13.816200 3.008400
13.838100 3.016700
13.860000 3.106700
13.882000 3.162300
13.903900 3.101000
13.925800 2.933100
13.947800 2.912600
13.969700 2.958500
13.991600 3.010800
14.013600 3.012900
14.035500 3.000300
14.057400 2.980900
14.079400 2.956800
14.101300 2.919800
14.123200 2.942200
14.145200 3.071700
14.167100 3.143200
14.189000 3.149300
14.211000 3.172600
14.232900 3.207000
14.254800 3.239900
14.276800 3.269900
14.298700 3.297400
14.320600 3.250000
14.342600 3.293300
14.364500 3.314600
14.386400 3.355300
14.408400 3.402400
14.430300 3.457700
14.452200 3.524700
14.474200 3.598500
14.496100 3.504000
14.518000 3.423100
14.540000 3.356700
14.561900 3.303000
14.583800 3.265200
14.605800 3.243600
14.627700 3.179700
14.649600 3.204900
14.671600 3.244200
14.693500 3.278900
14.715400 3.354600
14.737400 3.430500
14.759300 3.485300
14.781200 3.538600
14.803200 3.584300
14.825100 3.610400
14.847000 3.606900
14.869000 3.583400
14.890900 3.567200
14.912800 3.581000
14.934800 3.592100
14.956700 3.604000
14.978600 3.619700
15.000600 3.646900
15.022500 3.691100
15.044400 3.736100
15.066400 3.789000
15.088300 3.845200
15.110200 3.911300
15.132200 3.998400
15.154100 4.053500
15.176000 4.057200
15.198000 4.050100
15.219900 4.031000
15.241800 3.975800
15.263800 3.888000
15.285700 4.148500
15.307600 3.782200
15.329600 3.740200
15.351500 3.719700
15.373400 3.699700
15.395400 3.683900
15.417300 3.671000
15.439200 3.656100
15.461200 3.639000
15.483100 3.624400
15.505000 3.614000
15.527000 3.607800
15.548900 3.610400
15.570800 3.621900
15.592800 3.604300
15.614700 3.576100
15.636600 3.634200
15.658600 3.750100
15.680500 3.850400
15.702400 3.893000
15.724400 3.933100
15.746300 3.964000
15.768200 3.990100
15.790200 4.018000
15.812100 4.047700
15.834000 4.066800
15.856000 4.073100
15.877900 4.073300
15.899800 4.086500
15.921800 4.093700
15.943700 4.094600
15.965600 4.100800
15.987600 4.126200
16.009500 4.164000
16.031400 4.197600
16.053400 4.221500
16.075300 4.216500
16.097200 4.146500
16.119200 3.980400
16.141100 3.723700
16.163000 3.587200
16.185000 3.608300
16.206900 3.676600
16.228800 3.938500
16.250800 4.394700
16.272700 4.637700
16.294600 4.896600
16.316600 4.629700
16.338500 4.473300
16.360400 4.422400
16.382400 4.494000
16.404300 4.435000
16.426200 4.280800
16.448200 4.220700
16.470100 4.152400
16.492000 4.112600
16.513900 4.297800
16.535900 4.441700
16.557800 4.279400
16.579700 4.131000
16.601700 3.998600
16.623600 3.889700
16.645500 3.844200
16.667500 3.988700
16.689400 4.070600
16.711300 4.077300
16.733300 4.056700
16.755200 4.008900
16.777100 3.956100
16.799100 4.107100
16.821000 4.033700
16.842900 3.746500
16.864900 3.741400
16.886800 3.831400
16.908700 3.880200
16.930700 3.912800
16.952600 3.889600
16.974500 3.774900
16.996500 3.682300
17.018400 3.474900
17.040300 3.279100
17.062300 3.195300
17.084200 3.241500
17.106100 3.219500
17.128100 3.157800
17.150000 3.253800
17.171900 3.376200
17.193900 3.560800
17.215800 4.492200
17.237700 4.359600
17.259700 4.195000
17.281600 3.976100
17.303500 3.764300
17.325500 3.642900
17.347400 3.583400
17.369300 3.575700
17.391300 3.652300
17.413200 3.797000
17.435100 3.867900
17.457100 3.906200
17.479000 3.925300
17.500900 4.037400
17.522900 3.701200
17.544800 3.583400
17.566700 3.483800
17.588700 3.417500
17.610600 3.351800
17.632500 3.288700
17.654500 3.235500
17.676400 3.206900
17.698300 3.476400
17.720300 4.521800
17.742200 3.158800
17.764100 3.175300
17.786100 3.222200
17.808000 3.227100
17.829900 3.046500
17.851900 2.966500
17.873800 2.892800
17.895700 2.847400
17.917700 2.812800
17.939600 2.792200
17.961500 2.781300
17.983500 2.820700
18.005400 3.097800
18.027300 3.270900
18.049300 2.978700
18.071200 3.020300
18.093100 3.031700
18.115100 3.016300
18.137000 2.999300
18.158900 2.986500
18.180900 3.007200
18.202800 3.140800
18.224700 3.413400
18.246700 3.438300
18.268600 3.472300
18.290500 3.524800
18.312500 3.564400
18.334400 3.597800
18.356300 3.617500
18.378300 3.620300
18.400200 3.596600
18.422100 3.579200
18.444100 3.659000
18.466000 4.145300
18.487900 4.533900
18.509900 4.177500
18.531800 4.214400
18.553700 4.214800
18.575700 4.216200
18.597600 4.230700
18.619500 4.274900
18.641500 4.217800
18.663400 4.177500
18.685300 4.121800
18.707300 3.986000
18.729200 3.913500
18.751100 3.882300
18.773100 3.836700
18.795000 3.802600
18.816900 3.787200
18.838900 3.785900
18.860800 3.804700
18.882700 3.865000
18.904700 4.107500
18.926600 4.465400
18.948500 4.553400
18.970500 4.720000
18.992400 5.019700
19.014300 5.238600
19.036300 5.436200
19.058200 5.688900
19.080100 5.499100
19.102100 5.235700
19.124000 5.118600
19.145900 5.206400
19.167900 5.066000
19.189800 4.634900
19.211700 4.498200
19.233700 4.466200
19.255600 4.404300
19.277500 4.301500
19.299500 4.224400
19.321400 4.155500
19.343300 4.074100
19.365300 3.998500
19.387200 3.906200
19.409100 3.800500
19.431100 3.710500
19.453000 3.628600
19.474900 3.569500
19.496900 3.544000
19.518800 3.552900
19.540700 3.573100
19.562700 3.647900
19.584600 3.882900
19.606500 4.129100
19.628500 4.154800
19.650400 4.250600
19.672300 4.106900
19.694300 4.087700
19.716200 4.117300
19.738100 4.005500
19.760100 4.039900
19.782000 4.313900
19.803900 4.316100
19.825900 4.390900
19.847800 4.466400
19.869700 4.528600
19.891700 4.622300
19.913600 4.815400
19.935500 5.137000
19.957500 5.512700
19.979400 5.809900
20.001300 6.182800
20.023300 6.220400
20.045200 6.048600
20.067100 5.980500
20.089100 5.930900
20.111000 5.929000
20.132900 6.175500
20.154900 6.217700
20.176800 6.266000
20.198700 6.286000
20.220700 6.145300
20.242600 5.988300
20.264500 5.939600
20.286500 5.909100
20.308400 5.808400
20.330300 5.589800
20.352300 5.343200
20.374200 5.325200
20.396100 5.353200
20.418100 5.349600
20.440000 5.331800
20.461900 5.152500
20.483900 5.123800
20.505800 5.249500
20.527700 5.411200
20.549700 5.702500
20.571600 5.873100
20.593500 5.982800
20.615500 6.022000
20.637400 5.874800
20.659300 5.771600
20.681300 5.689800
20.703200 5.565400
20.725100 5.401300
20.747100 5.239300
20.769000 5.187200
20.790900 5.155700
20.812900 5.024000
20.834800 4.952900
20.856700 4.937700
20.878700 4.944800
20.900600 4.974800
20.922500 4.968900
20.944500 4.941700
20.966400 4.934100
20.988300 4.944400
21.010300 4.960200
21.032200 4.976600
21.054100 4.885700
21.076100 4.779300
21.098000 4.711800
21.119900 4.678300
21.141900 4.679700
21.163800 4.724000
21.185700 4.796500
21.207700 4.896100
21.229600 4.965800
21.251500 4.982900
21.273500 5.031700
21.295400 5.086600
21.317300 5.114300
21.339300 5.172600
21.361200 5.180900
21.383100 5.139700
21.405100 5.078700
21.427000 4.971800
21.448900 4.793300
21.470900 4.698700
21.492800 4.735900
21.514700 5.018100
21.536700 5.317200
21.558600 5.597700
21.580500 5.751700
21.602500 5.734200
21.624400 5.555200
21.646300 5.422500
21.668300 5.269300
21.690200 5.127800
21.712100 5.016800
21.734100 4.930700
21.756000 4.842000
21.777900 4.749100
21.799900 4.716800
21.821800 4.697700
21.843700 4.683400
21.865700 4.668100
21.887600 4.663100
21.909500 4.716100
21.931500 4.894700
21.953400 5.031700
21.975300 5.179000
21.997300 7.201500
22.019200 4.663900
22.041100 4.490700
22.063100 4.439500
22.085000 4.490400
22.106900 4.512800
22.128900 4.542300
22.150800 4.591800
22.172700 4.637500
22.194700 4.654200
22.216600 4.668200
22.238500 4.577300
22.260500 4.442700
22.282400 4.302900
22.304300 4.192800
22.326300 4.102700
22.348200 4.028900
22.370100 3.960600
22.392100 3.896600
22.414000 3.845500
22.435900 3.808100
22.457900 3.771300
22.479800 3.789100
22.501700 3.798800
22.523700 3.739200
22.545600 3.593800
22.567500 3.468700
22.589500 3.355400
22.611400 3.235400
22.633300 3.111000
22.655300 3.034200
22.677200 3.008000
22.699100 3.003300
22.721100 2.957600
22.743000 2.911500
22.764900 3.003700
22.786900 3.016300
22.808800 3.360100
22.830700 3.359700
22.852700 3.216400
22.874600 2.715300
22.896500 2.608300
22.918400 2.512500
22.940400 2.425800
22.962300 2.342400
22.984200 2.155600
23.006200 2.299900
23.028100 1.973500
23.050000 1.848200
23.072000 1.841300
23.093900 1.871900
23.115800 1.889400
23.137800 1.855800
23.159700 1.785000
23.181600 1.696700
23.203600 1.618700
23.225500 1.567800
23.247400 1.497600
23.269400 1.428300
23.291300 1.358400
23.313200 1.269300
23.335200 1.201000
23.357100 1.148800
23.379000 1.108000
23.401000 1.070600
23.422900 1.035800
23.444800 1.001500
23.466800 0.974300
23.488700 0.949700
23.510600 0.922300
23.532600 0.889200
23.554500 0.849300
23.576400 0.798000
23.598400 0.738000
23.620300 0.676600
23.642200 0.614500
23.664200 0.561600
23.686100 0.515500
23.708000 0.471600
23.730000 0.430000
23.751900 0.390600
23.773800 0.353400
23.795800 0.318400
23.817700 0.285200
23.839600 0.253900
23.861600 0.224500
23.883500 0.196900
23.905400 0.171300
23.927400 0.147500
23.949300 0.125200
23.971200 0.104400
23.993200 0.084900
24.015100 0.066800
24.037000 0.053800
24.059000 0.043900
24.080900 0.035900
24.102800 0.029900
24.124800 0.025800
24.146700 0.022500
24.168600 0.019400
24.190600 0.016500
24.212500 0.013900
24.234400 0.011500
24.256400 0.009300
24.278300 0.007400
24.300200 0.005700
24.322200 0.004200
24.344100 0.002900
24.366000 0.001900
24.388000 0.001100
24.409900 0.000500
24.431800 0.000100
24.453800 0.000000
24.475700 0.000000
24.497600 0.000000
24.519600 0.000000
24.541500 0.000000
24.563400 0.000000
24.585400 0.000000
24.607300 0.000000
24.629200 0.000000
24.651200 0.000000
24.673100 0.000000
24.695000 0.000000
24.717000 0.000000
24.738900 0.000000
24.760800 0.000000
24.782800 0.000000
24.804700 0.000000
24.826600 0.000000
24.848600 0.000000
24.870500 0.000000
24.892400 0.000000
24.914400 0.000000
24.936300 0.000000
24.958200 0.000000
24.980200 0.000000
25.002100 0.000000
25.024000 0.000000
25.046000 0.000000
25.067900 0.000000
25.089800 0.000000
25.111800 0.000000
25.133700 0.000000
25.155600 0.000000
25.177600 0.000000
25.199500 0.000000
25.221400 0.000000
25.243400 0.000000
25.265300 0.000000
25.287200 0.000000
25.309200 0.000000
25.331100 0.000000
25.353000 0.000000
25.375000 0.000000
25.396900 0.000000
25.418800 0.000000
25.440800 0.000000
25.462700 0.000000
25.484600 0.000000
25.506600 0.000000
25.528500 0.000000
25.550400 0.000000
25.572400 0.000000
25.594300 0.000000
25.616200 0.000000
25.638200 0.000000
25.660100 0.000000
25.682000 0.000000
25.704000 0.000000
25.725900 0.000000
25.747800 0.000000
25.769800 0.000000
25.791700 0.000000
25.813600 0.000000
25.835600 0.000000
25.857500 0.000000
25.879400 0.000000
25.901400 0.000000
25.923300 0.000000
25.945200 0.000000
25.967200 0.000000
25.989100 0.000000
26.011000 0.000000
26.033000 0.000000
26.054900 0.000000
26.076800 0.000000
26.098800 0.000000
26.120700 0.000000
26.142600 0.000000
26.164600 0.000000
26.186500 0.000000
26.208400 0.000000
26.230400 0.000000
26.252300 0.000000
26.274200 0.000000
26.296200 0.000000
26.318100 0.000000
26.340000 0.000000
26.362000 0.000000
26.383900 0.000000
26.405800 0.000000
26.427800 0.000000
26.449700 0.000000
e
