set title 'mp-1064933 - Density of States'
set xlabel 'Energy (eV)'
set ylabel 'DOS (states/eV)'
set grid
set xrange [-10:10]
set yrange [0:12.098]
set xzeroaxis lt -1
set terminal png size 800,600
set output 'mp-1064933_dos_gnuplot.png'
plot '-' using 1:2 with lines title 'DOS'
-15.183100 0.000000
-15.168900 0.000000
-15.154700 0.000000
-15.140500 0.000000
-15.126300 0.000000
-15.112100 0.000000
-15.097900 0.000000
-15.083700 0.000000
-15.069400 0.000000
-15.055200 0.000000
-15.041000 0.000000
-15.026800 0.000000
-15.012600 0.000000
-14.998400 0.000000
-14.984200 0.000000
-14.970000 0.000000
-14.955800 0.000000
-14.941600 0.000000
-14.927400 0.000000
-14.913200 0.000000
-14.899000 0.000000
-14.884800 0.000000
-14.870600 0.000000
-14.856400 0.000000
-14.842200 0.000000
-14.828000 0.000000
-14.813800 0.000000
-14.799600 0.000000
-14.785400 0.000000
-14.771200 0.000000
-14.757000 0.000000
-14.742700 0.000000
-14.728500 0.000000
-14.714300 0.000000
-14.700100 0.000000
-14.685900 0.000000
-14.671700 0.000000
-14.657500 0.000000
-14.643300 0.000000
-14.629100 0.000000
-14.614900 0.000000
-14.600700 0.000000
-14.586500 0.000000
-14.572300 0.000000
-14.558100 0.000000
-14.543900 0.000000
-14.529700 0.000000
-14.515500 0.000000
-14.501300 0.000000
-14.487100 0.000000
-14.472900 0.000000
-14.458700 0.000000
-14.444500 0.000000
-14.430300 0.000000
-14.416000 0.000000
-14.401800 0.000000
-14.387600 0.000000
-14.373400 0.000000
-14.359200 0.000000
-14.345000 0.000000
-14.330800 0.000000
-14.316600 0.000000
-14.302400 0.000000
-14.288200 0.000000
-14.274000 0.000000
-14.259800 0.000000
-14.245600 0.000000
-14.231400 0.000000
-14.217200 0.000000
-14.203000 0.000000
-14.188800 0.000000
-14.174600 0.000000
-14.160400 0.000000
-14.146200 0.000000
-14.132000 0.000000
-14.117800 0.000000
-14.103600 0.000000
-14.089300 0.000000
-14.075100 0.000000
-14.060900 0.000000
-14.046700 0.000000
-14.032500 0.000000
-14.018300 0.000000
-14.004100 0.000000
-13.989900 0.000000
-13.975700 0.000000
-13.961500 0.000000
-13.947300 0.000000
-13.933100 0.000000
-13.918900 0.000000
-13.904700 0.000000
-13.890500 0.003200
-13.876300 0.393100
-13.862100 0.674000
-13.847900 0.876500
-13.833700 1.037500
-13.819500 1.212200
-13.805300 1.400000
-13.791100 1.557300
-13.776900 1.686500
-13.762600 1.866700
-13.748400 2.061600
-13.734200 2.269200
-13.720000 2.492300
-13.705800 2.717100
-13.691600 3.023000
-13.677400 3.399300
-13.663200 4.206700
-13.649000 4.483000
-13.634800 4.311700
-13.620600 4.342100
-13.606400 4.372200
-13.592200 4.320600
-13.578000 4.283400
-13.563800 4.274300
-13.549600 4.273200
-13.535400 4.311800
-13.521200 4.282500
-13.507000 4.237500
-13.492800 4.250600
-13.478600 4.258200
-13.464400 4.237400
-13.450200 4.116900
-13.435900 3.714100
-13.421700 3.570800
-13.407500 3.437200
-13.393300 3.285600
-13.379100 3.208100
-13.364900 3.146200
-13.350700 3.086400
-13.336500 3.029700
-13.322300 2.975100
-13.308100 2.936700
-13.293900 2.908800
-13.279700 2.878500
-13.265500 2.843800
-13.251300 2.815300
-13.237100 2.790100
-13.222900 2.767200
-13.208700 2.753800
-13.194500 2.746200
-13.180300 2.739700
-13.166100 2.734100
-13.151900 2.729800
-13.137700 2.726700
-13.123500 2.728900
-13.109300 2.734400
-13.095000 2.743300
-13.080800 2.755600
-13.066600 2.769300
-13.052400 2.784400
-13.038200 2.802500
-13.024000 2.824000
-13.009800 2.850200
-12.995600 2.884900
-12.981400 2.933100
-12.967200 2.977300
-12.953000 3.031500
-12.938800 3.087800
-12.924600 3.149700
-12.910400 3.221900
-12.896200 3.305300
-12.882000 3.411800
-12.867800 3.571300
-12.853600 3.700200
-12.839400 3.861500
-12.825200 4.079500
-12.811000 4.349700
-12.796800 4.697500
-12.782600 5.227600
-12.768300 6.064300
-12.754100 8.652900
-12.739900 9.982100
-12.725700 13.406400
-12.711500 0.000000
-12.697300 0.000000
-12.683100 0.000000
-12.668900 0.000000
-12.654700 0.000000
-12.640500 0.000000
-12.626300 0.000000
-12.612100 0.000000
-12.597900 0.000000
-12.583700 0.000000
-12.569500 0.000000
-12.555300 0.000000
-12.541100 0.000000
-12.526900 0.000000
-12.512700 0.000000
-12.498500 0.000000
-12.484300 0.000000
-12.470100 0.000000
-12.455900 0.000000
-12.441600 0.000000
-12.427400 0.000000
-12.413200 0.000000
-12.399000 0.000000
-12.384800 0.000000
-12.370600 0.000000
-12.356400 0.000000
-12.342200 0.000000
-12.328000 0.000000
-12.313800 0.000000
-12.299600 0.000000
-12.285400 0.000000
-12.271200 0.000000
-12.257000 0.000000
-12.242800 0.000000
-12.228600 0.000000
-12.214400 0.000000
-12.200200 0.000000
-12.186000 0.000000
-12.171800 0.000000
-12.157600 0.000000
-12.143400 0.000000
-12.129200 0.000000
-12.114900 0.000000
-12.100700 0.000000
-12.086500 0.000000
-12.072300 0.000000
-12.058100 0.000000
-12.043900 0.000000
-12.029700 0.000000
-12.015500 0.000000
-12.001300 0.000000
-11.987100 0.000000
-11.972900 0.000000
-11.958700 0.000000
-11.944500 0.000000
-11.930300 0.000000
-11.916100 0.000000
-11.901900 0.000000
-11.887700 0.000000
-11.873500 0.000000
-11.859300 0.000000
-11.845100 0.000000
-11.830900 0.000000
-11.816700 0.000000
-11.802500 0.000000
-11.788200 0.000000
-11.774000 0.000000
-11.759800 0.000000
-11.745600 0.000000
-11.731400 0.000000
-11.717200 0.000000
-11.703000 0.000000
-11.688800 0.000000
-11.674600 0.000000
-11.660400 0.000000
-11.646200 0.000000
-11.632000 0.000000
-11.617800 0.000000
-11.603600 0.000000
-11.589400 0.000000
-11.575200 0.000000
-11.561000 0.000000
-11.546800 0.000000
-11.532600 0.000000
-11.518400 0.000000
-11.504200 0.000000
-11.490000 0.000000
-11.475800 0.000000
-11.461500 0.000000
-11.447300 0.000000
-11.433100 0.000000
-11.418900 0.000000
-11.404700 0.000000
-11.390500 0.000000
-11.376300 0.000000
-11.362100 0.000000
-11.347900 0.000000
-11.333700 0.000000
-11.319500 0.000000
-11.305300 0.000000
-11.291100 0.000000
-11.276900 0.000000
-11.262700 0.000000
-11.248500 0.000000
-11.234300 0.000000
-11.220100 0.000000
-11.205900 0.000000
-11.191700 0.000000
-11.177500 0.000000
-11.163300 0.000000
-11.149100 0.000000
-11.134800 0.000000
-11.120600 0.000000
-11.106400 0.000000
-11.092200 0.000000
-11.078000 0.000000
-11.063800 0.000000
-11.049600 0.000000
-11.035400 0.000000
-11.021200 0.000000
-11.007000 0.000000
-10.992800 0.000000
-10.978600 0.000000
-10.964400 0.000000
-10.950200 0.000000
-10.936000 0.000000
-10.921800 0.000000
-10.907600 0.000000
-10.893400 0.000000
-10.879200 0.000000
-10.865000 0.000000
-10.850800 0.000000
-10.836600 0.000000
-10.822400 0.000000
-10.808200 0.000000
-10.793900 0.000000
-10.779700 0.000000
-10.765500 0.000000
-10.751300 0.000000
-10.737100 0.000000
-10.722900 0.000000
-10.708700 0.000000
-10.694500 0.000000
-10.680300 0.000000
-10.666100 0.000000
-10.651900 0.000000
-10.637700 0.000000
-10.623500 0.000000
-10.609300 0.000000
-10.595100 0.000000
-10.580900 0.000000
-10.566700 0.000000
-10.552500 0.000000
-10.538300 0.000000
-10.524100 0.000000
-10.509900 0.000000
-10.495700 0.000000
-10.481500 0.000000
-10.467200 0.000000
-10.453000 0.000000
-10.438800 0.000000
-10.424600 0.000000
-10.410400 0.000000
-10.396200 0.000000
-10.382000 0.000000
-10.367800 0.000000
-10.353600 0.000000
-10.339400 0.000000
-10.325200 0.000000
-10.311000 0.000000
-10.296800 0.000000
-10.282600 0.000000
-10.268400 0.000000
-10.254200 0.000000
-10.240000 0.000000
-10.225800 0.000000
-10.211600 0.000000
-10.197400 0.000000
-10.183200 0.000000
-10.169000 0.000000
-10.154800 0.000000
-10.140500 0.000000
-10.126300 0.000000
-10.112100 0.000000
-10.097900 0.000000
-10.083700 0.000000
-10.069500 0.000000
-10.055300 0.000000
-10.041100 0.000000
-10.026900 0.000000
-10.012700 0.000000
-9.998500 0.000000
-9.984300 0.000000
-9.970100 0.000000
-9.955900 0.000000
-9.941700 0.000000
-9.927500 0.000000
-9.913300 0.000000
-9.899100 0.000000
-9.884900 0.000000
-9.870700 0.000000
-9.856500 0.000000
-9.842300 0.000000
-9.828100 0.000000
-9.813800 0.000000
-9.799600 0.000000
-9.785400 0.000000
-9.771200 0.000000
-9.757000 0.000000
-9.742800 0.000000
-9.728600 0.000000
-9.714400 0.000000
-9.700200 0.000000
-9.686000 0.000000
-9.671800 0.000000
-9.657600 0.000000
-9.643400 0.000000
-9.629200 0.000000
-9.615000 0.000000
-9.600800 0.000000
-9.586600 0.000000
-9.572400 0.000000
-9.558200 0.000000
-9.544000 0.000000
-9.529800 0.000000
-9.515600 0.000000
-9.501400 0.000000
-9.487100 0.000000
-9.472900 0.000000
-9.458700 0.000000
-9.444500 0.000000
-9.430300 0.000000
-9.416100 0.000000
-9.401900 0.000000
-9.387700 0.000000
-9.373500 0.000000
-9.359300 0.000000
-9.345100 0.000000
-9.330900 0.000000
-9.316700 0.000000
-9.302500 0.000000
-9.288300 0.000000
-9.274100 0.000000
-9.259900 0.000000
-9.245700 0.000000
-9.231500 0.000000
-9.217300 0.000000
-9.203100 0.000000
-9.188900 0.000000
-9.174700 0.000000
-9.160400 0.000000
-9.146200 0.000000
-9.132000 0.000000
-9.117800 0.000000
-9.103600 0.000000
-9.089400 0.000000
-9.075200 0.000000
-9.061000 0.000000
-9.046800 0.000000
-9.032600 0.000000
-9.018400 0.000000
-9.004200 0.000000
-8.990000 0.000000
-8.975800 0.000000
-8.961600 0.000000
-8.947400 0.000000
-8.933200 0.000000
-8.919000 0.000000
-8.904800 0.000000
-8.890600 0.000000
-8.876400 0.000000
-8.862200 0.000000
-8.848000 0.000000
-8.833700 0.000000
-8.819500 0.000000
-8.805300 0.000000
-8.791100 0.000000
-8.776900 0.000000
-8.762700 0.000000
-8.748500 0.000000
-8.734300 0.000000
-8.720100 0.000000
-8.705900 0.000000
-8.691700 0.000000
-8.677500 0.000000
-8.663300 0.000000
-8.649100 0.000000
-8.634900 0.000000
-8.620700 0.000000
-8.606500 0.000000
-8.592300 0.000000
-8.578100 0.000000
-8.563900 0.000000
-8.549700 0.000000
-8.535500 0.000000
-8.521300 0.000000
-8.507100 0.000000
-8.492800 0.000000
-8.478600 0.000000
-8.464400 0.000000
-8.450200 0.000000
-8.436000 0.000000
-8.421800 0.000000
-8.407600 0.000000
-8.393400 0.000000
-8.379200 0.000000
-8.365000 0.797500
-8.350800 1.877200
-8.336600 2.459500
-8.322400 3.243100
-8.308200 4.295800
-8.294000 6.149800
-8.279800 9.795900
-8.265600 9.300700
-8.251400 5.600500
-8.237200 5.357600
-8.223000 5.088000
-8.208800 4.675000
-8.194600 3.940700
-8.180400 3.692400
-8.166100 3.630800
-8.151900 3.557900
-8.137700 3.472700
-8.123500 3.365500
-8.109300 3.212600
-8.095100 2.929400
-8.080900 2.770600
-8.066700 2.771100
-8.052500 2.771500
-8.038300 2.767300
-8.024100 2.734100
-8.009900 2.694800
-7.995700 2.647500
-7.981500 2.586700
-7.967300 2.487600
-7.953100 2.321500
-7.938900 2.315800
-7.924700 2.316100
-7.910500 2.316300
-7.896300 2.316600
-7.882100 2.316800
-7.867900 2.314200
-7.853700 2.296600
-7.839400 2.275800
-7.825200 2.249600
-7.811000 2.213800
-7.796800 2.139500
-7.782600 2.107900
-7.768400 2.108000
-7.754200 2.108200
-7.740000 2.108400
-7.725800 2.108600
-7.711600 2.108700
-7.697400 2.108900
-7.683200 2.109000
-7.669000 2.106600
-7.654800 2.103600
-7.640600 2.100100
-7.626400 2.095600
-7.612200 2.089900
-7.598000 2.090100
-7.583800 2.090200
-7.569600 2.090300
-7.555400 2.090500
-7.541200 2.090600
-7.527000 2.090800
-7.512700 2.090900
-7.498500 2.091100
-7.484300 2.103700
-7.470100 2.130800
-7.455900 2.171200
-7.441700 2.253100
-7.427500 2.305800
-7.413300 2.305900
-7.399100 2.306000
-7.384900 2.306200
-7.370700 2.306300
-7.356500 2.306400
-7.342300 2.306600
-7.328100 2.306700
-7.313900 2.340100
-7.299700 2.466600
-7.285500 2.722400
-7.271300 2.921500
-7.257100 2.995800
-7.242900 2.995900
-7.228700 2.996000
-7.214500 2.996100
-7.200300 2.996200
-7.186000 2.996300
-7.171800 3.576600
-7.157600 4.661000
-7.143400 5.216000
-7.129200 5.476200
-7.115000 5.475500
-7.100800 10.998200
-7.086600 4.866100
-7.072400 2.746700
-7.058200 0.000000
-7.044000 0.000000
-7.029800 0.000000
-7.015600 0.000000
-7.001400 0.000000
-6.987200 0.000000
-6.973000 0.000000
-6.958800 0.000000
-6.944600 0.000000
-6.930400 0.000000
-6.916200 0.000000
-6.902000 0.000000
-6.887800 0.000000
-6.873600 0.000000
-6.859300 0.000000
-6.845100 0.000000
-6.830900 0.000000
-6.816700 0.000000
-6.802500 0.000000
-6.788300 0.000000
-6.774100 0.000000
-6.759900 0.000000
-6.745700 0.000000
-6.731500 0.000000
-6.717300 0.000000
-6.703100 0.000000
-6.688900 0.000000
-6.674700 0.000000
-6.660500 0.000000
-6.646300 0.000000
-6.632100 0.000000
-6.617900 0.000000
-6.603700 0.000000
-6.589500 0.000000
-6.575300 0.000000
-6.561100 0.000000
-6.546900 0.000000
-6.532600 0.000000
-6.518400 0.000000
-6.504200 0.000000
-6.490000 0.000000
-6.475800 0.000000
-6.461600 0.000000
-6.447400 0.000000
-6.433200 0.000000
-6.419000 0.000000
-6.404800 0.000000
-6.390600 0.000000
-6.376400 0.000000
-6.362200 0.000000
-6.348000 0.000000
-6.333800 0.000000
-6.319600 0.000000
-6.305400 0.000000
-6.291200 0.000000
-6.277000 0.000000
-6.262800 0.000000
-6.248600 0.000000
-6.234400 0.000000
-6.220200 0.000000
-6.206000 0.000000
-6.191700 0.000000
-6.177500 0.000000
-6.163300 0.000000
-6.149100 0.000000
-6.134900 0.000000
-6.120700 0.000000
-6.106500 0.000000
-6.092300 0.000000
-6.078100 0.000000
-6.063900 0.000000
-6.049700 0.000000
-6.035500 0.000000
-6.021300 0.000000
-6.007100 0.000000
-5.992900 0.000000
-5.978700 0.000000
-5.964500 0.000000
-5.950300 0.000000
-5.936100 0.000000
-5.921900 0.000000
-5.907700 0.000000
-5.893500 0.000000
-5.879300 0.000000
-5.865000 0.000000
-5.850800 0.000000
-5.836600 0.000000
-5.822400 0.000000
-5.808200 0.000000
-5.794000 0.000000
-5.779800 0.000000
-5.765600 0.000000
-5.751400 0.000000
-5.737200 0.000000
-5.723000 0.000000
-5.708800 0.000000
-5.694600 0.000000
-5.680400 0.000000
-5.666200 0.000000
-5.652000 0.000000
-5.637800 0.000000
-5.623600 0.000000
-5.609400 0.000000
-5.595200 0.000000
-5.581000 0.000000
-5.566800 0.000000
-5.552600 0.000000
-5.538300 0.000000
-5.524100 0.000000
-5.509900 0.000000
-5.495700 0.000000
-5.481500 0.000000
-5.467300 0.000000
-5.453100 0.000000
-5.438900 0.000000
-5.424700 0.000000
-5.410500 0.000000
-5.396300 0.000000
-5.382100 0.000000
-5.367900 0.000000
-5.353700 0.000000
-5.339500 0.000000
-5.325300 0.000000
-5.311100 0.000000
-5.296900 0.000000
-5.282700 0.000000
-5.268500 0.000000
-5.254300 0.000000
-5.240100 0.000000
-5.225900 0.000000
-5.211600 0.000000
-5.197400 0.000000
-5.183200 0.000000
-5.169000 0.000000
-5.154800 0.000000
-5.140600 0.000000
-5.126400 0.000000
-5.112200 0.000000
-5.098000 0.000000
-5.083800 0.000000
-5.069600 0.000000
-5.055400 0.000000
-5.041200 0.000000
-5.027000 0.000000
-5.012800 0.000000
-4.998600 0.000000
-4.984400 0.000000
-4.970200 0.000000
-4.956000 0.000000
-4.941800 0.000000
-4.927600 0.000000
-4.913400 0.000000
-4.899200 0.000000
-4.884900 0.000000
-4.870700 0.000000
-4.856500 0.000000
-4.842300 0.000000
-4.828100 0.000000
-4.813900 0.000000
-4.799700 0.000000
-4.785500 0.000000
-4.771300 0.000000
-4.757100 0.000000
-4.742900 0.000000
-4.728700 0.000000
-4.714500 0.000000
-4.700300 0.000000
-4.686100 0.000000
-4.671900 0.000000
-4.657700 0.000000
-4.643500 0.000000
-4.629300 0.000000
-4.615100 0.000000
-4.600900 0.000000
-4.586700 0.000000
-4.572500 0.000000
-4.558200 0.000000
-4.544000 0.000000
-4.529800 0.000000
-4.515600 0.000000
-4.501400 0.000000
-4.487200 0.000000
-4.473000 0.000000
-4.458800 0.000000
-4.444600 0.000000
-4.430400 0.000000
-4.416200 0.000000
-4.402000 0.000000
-4.387800 0.000000
-4.373600 0.000000
-4.359400 0.000000
-4.345200 0.000000
-4.331000 0.000000
-4.316800 0.000000
-4.302600 0.000000
-4.288400 0.000000
-4.274200 0.000000
-4.260000 0.000000
-4.245800 0.000000
-4.231500 0.000000
-4.217300 0.000000
-4.203100 0.000000
-4.188900 0.000000
-4.174700 0.000000
-4.160500 0.000000
-4.146300 0.000000
-4.132100 0.000000
-4.117900 0.000000
-4.103700 0.000000
-4.089500 0.000000
-4.075300 0.000000
-4.061100 0.000000
-4.046900 0.000000
-4.032700 0.000000
-4.018500 0.000000
-4.004300 0.000000
-3.990100 0.000000
-3.975900 0.000000
-3.961700 0.000000
-3.947500 0.000000
-3.933300 0.000000
-3.919100 0.000000
-3.904900 0.000000
-3.890600 0.000000
-3.876400 0.000000
-3.862200 0.000000
-3.848000 0.000000
-3.833800 0.000000
-3.819600 0.000000
-3.805400 0.000000
-3.791200 0.000000
-3.777000 0.000000
-3.762800 0.000000
-3.748600 0.000000
-3.734400 0.000000
-3.720200 0.000000
-3.706000 0.000000
-3.691800 0.000000
-3.677600 0.000000
-3.663400 0.000000
-3.649200 0.000000
-3.635000 0.000000
-3.620800 0.000000
-3.606600 0.000000
-3.592400 0.000000
-3.578200 0.000000
-3.563900 0.000000
-3.549700 0.000000
-3.535500 0.000000
-3.521300 0.000000
-3.507100 0.000000
-3.492900 0.000000
-3.478700 0.534000
-3.464500 1.552400
-3.450300 1.399000
-3.436100 1.739900
-3.421900 2.028100
-3.407700 2.217200
-3.393500 2.345800
-3.379300 2.537400
-3.365100 2.763500
-3.350900 3.015300
-3.336700 3.426900
-3.322500 3.452900
-3.308300 3.139300
-3.294100 3.033900
-3.279900 2.400700
-3.265700 2.298400
-3.251500 2.249300
-3.237200 3.411800
-3.223000 4.019500
-3.208800 4.068000
-3.194600 4.061100
-3.180400 3.961700
-3.166200 3.880400
-3.152000 3.798200
-3.137800 3.804700
-3.123600 3.824900
-3.109400 3.881000
-3.095200 3.949000
-3.081000 3.989900
-3.066800 3.991400
-3.052600 3.984100
-3.038400 3.994000
-3.024200 4.021400
-3.010000 4.057600
-2.995800 4.096500
-2.981600 4.146800
-2.967400 4.199700
-2.953200 4.254100
-2.939000 4.397100
-2.924800 4.519600
-2.910500 4.644500
-2.896300 4.763600
-2.882100 4.880200
-2.867900 5.053000
-2.853700 5.769900
-2.839500 6.275300
-2.825300 6.378100
-2.811100 5.145300
-2.796900 4.706400
-2.782700 4.319700
-2.768500 4.056400
-2.754300 3.800300
-2.740100 3.590600
-2.725900 3.520000
-2.711700 3.481400
-2.697500 3.448600
-2.683300 3.548900
-2.669100 3.686400
-2.654900 3.818300
-2.640700 3.883000
-2.626500 3.902700
-2.612300 3.885900
-2.598100 3.838700
-2.583800 3.733600
-2.569600 3.688700
-2.555400 3.478900
-2.541200 3.210100
-2.527000 3.080300
-2.512800 2.970900
-2.498600 2.846200
-2.484400 2.763300
-2.470200 2.669800
-2.456000 2.586600
-2.441800 2.444200
-2.427600 2.138500
-2.413400 1.807800
-2.399200 1.486300
-2.385000 1.224200
-2.370800 0.929100
-2.356600 0.821700
-2.342400 0.732600
-2.328200 0.656000
-2.314000 0.594800
-2.299800 0.537400
-2.285600 0.484600
-2.271400 0.436300
-2.257100 0.391300
-2.242900 0.347800
-2.228700 0.306000
-2.214500 0.274300
-2.200300 0.248900
-2.186100 0.224900
-2.171900 0.202100
-2.157700 0.180900
-2.143500 0.161000
-2.129300 0.142400
-2.115100 0.125200
-2.100900 0.109400
-2.086700 0.096400
-2.072500 0.082200
-2.058300 0.064000
-2.044100 0.063400
-2.029900 0.244900
-2.015700 0.567700
-2.001500 0.882900
-1.987300 1.136500
-1.973100 1.427800
-1.958900 1.746000
-1.944700 1.960100
-1.930400 1.986700
-1.916200 2.042300
-1.902000 2.011200
-1.887800 2.016000
-1.873600 2.083400
-1.859400 2.149900
-1.845200 2.239900
-1.831000 2.343200
-1.816800 2.514100
-1.802600 2.751900
-1.788400 3.021500
-1.774200 3.381000
-1.760000 3.743500
-1.745800 4.129500
-1.731600 5.722500
-1.717400 4.940000
-1.703200 4.899400
-1.689000 4.995700
-1.674800 5.143300
-1.660600 5.174600
-1.646400 5.162300
-1.632200 5.220300
-1.618000 5.335700
-1.603700 5.486900
-1.589500 5.892900
-1.575300 6.532200
-1.561100 7.253900
-1.546900 7.938700
-1.532700 7.574200
-1.518500 5.119100
-1.504300 4.073000
-1.490100 3.835400
-1.475900 3.736900
-1.461700 3.682800
-1.447500 3.635500
-1.433300 3.638800
-1.419100 3.693200
-1.404900 3.778400
-1.390700 3.794700
-1.376500 3.771600
-1.362300 3.551000
-1.348100 3.330400
-1.333900 3.224200
-1.319700 3.189100
-1.305500 3.273200
-1.291300 3.417300
-1.277100 3.571600
-1.262800 3.690100
-1.248600 3.743300
-1.234400 3.749400
-1.220200 3.959600
-1.206000 4.525900
-1.191800 4.607200
-1.177600 4.841500
-1.163400 4.980700
-1.149200 5.180600
-1.135000 5.406900
-1.120800 5.378600
-1.106600 5.632500
-1.092400 5.807100
-1.078200 5.896500
-1.064000 6.058100
-1.049800 6.300900
-1.035600 6.223300
-1.021400 6.609800
-1.007200 7.394000
-0.993000 7.924900
-0.978800 8.138500
-0.964600 8.312600
-0.950400 7.727900
-0.936100 7.282500
-0.921900 7.110600
-0.907700 6.623200
-0.893500 6.311300
-0.879300 5.926900
-0.865100 5.506500
-0.850900 5.181900
-0.836700 5.008600
-0.822500 5.173100
-0.808300 5.415000
-0.794100 5.912600
-0.779900 6.850300
-0.765700 8.294500
-0.751500 9.582400
-0.737300 8.688400
-0.723100 6.117100
-0.708900 1.071400
-0.694700 1.003500
-0.680500 0.953300
-0.666300 0.914100
-0.652100 0.884700
-0.637900 0.864500
-0.623700 0.846000
-0.609400 0.827600
-0.595200 0.809800
-0.581000 0.793000
-0.566800 0.778000
-0.552600 0.764000
-0.538400 0.751000
-0.524200 0.738700
-0.510000 0.726800
-0.495800 0.714900
-0.481600 0.703900
-0.467400 0.694600
-0.453200 0.686000
-0.439000 0.678100
-0.424800 0.670600
-0.410600 0.663600
-0.396400 0.656800
-0.382200 0.650400
-0.368000 0.645200
-0.353800 0.640400
-0.339600 0.635900
-0.325400 0.630900
-0.311200 0.626700
-0.297000 0.622800
-0.282700 0.619200
-0.268500 0.616600
-0.254300 0.614300
-0.240100 0.612200
-0.225900 0.610300
-0.211700 0.608400
-0.197500 0.606600
-0.183300 0.605000
-0.169100 0.603700
-0.154900 0.602500
-0.140700 0.601500
-0.126500 0.600500
-0.112300 0.599600
-0.098100 0.598800
-0.083900 0.598000
-0.069700 0.597300
-0.055500 0.596800
-0.041300 0.596200
-0.027100 0.595600
-0.012900 0.595500
0.001300 0.595600
0.015500 0.596000
0.029700 0.599700
0.044000 0.601800
0.058200 0.603900
0.072400 0.605400
0.086600 0.606700
0.100800 0.608000
0.115000 0.609300
0.129200 0.610600
0.143400 0.611900
0.157600 0.613200
0.171800 0.614600
0.186000 0.616000
0.200200 0.617400
0.214400 0.618800
0.228600 0.620300
0.242800 0.621900
0.257000 0.623600
0.271200 0.625400
0.285400 0.627500
0.299600 0.630000
0.313800 0.762800
0.328000 1.174300
0.342200 1.640400
0.356400 1.582800
0.370700 1.599800
0.384900 1.646900
0.399100 1.708300
0.413300 1.759900
0.427500 1.833900
0.441700 1.919400
0.455900 1.997100
0.470100 2.077100
0.484300 2.156000
0.498500 2.213000
0.512700 2.247000
0.526900 2.277600
0.541100 2.326700
0.555300 2.405800
0.569500 2.494300
0.583700 2.553300
0.597900 2.774200
0.612100 2.830900
0.626300 2.816500
0.640500 2.788600
0.654700 2.759600
0.668900 2.778300
0.683100 2.818000
0.697400 2.851000
0.711600 2.849200
0.725800 2.807400
0.740000 2.732600
0.754200 2.734200
0.768400 2.734600
0.782600 2.735000
0.796800 2.725000
0.811000 2.818200
0.825200 2.721800
0.839400 2.606100
0.853600 2.534400
0.867800 2.494000
0.882000 2.465700
0.896200 2.441600
0.910400 2.403900
0.924600 2.388500
0.938800 2.398900
0.953000 2.417800
0.967200 2.438000
0.981400 2.464200
0.995600 2.490500
1.009800 2.479000
1.024000 2.481600
1.038300 2.491100
1.052500 2.511500
1.066700 2.534700
1.080900 2.526600
1.095100 2.508000
1.109300 2.532900
1.123500 2.557800
1.137700 2.572800
1.151900 2.589800
1.166100 2.608100
1.180300 2.642100
1.194500 2.703000
1.208700 2.721000
1.222900 2.736500
1.237100 2.766300
1.251300 2.824900
1.265500 2.898000
1.279700 2.930800
1.293900 2.986500
1.308100 3.091100
1.322300 3.193300
1.336500 3.318400
1.350700 3.564500
1.365000 3.552600
1.379200 3.367100
1.393400 3.190900
1.407600 3.088500
1.421800 3.068400
1.436000 2.897900
1.450200 2.662200
1.464400 2.458600
1.478600 2.337500
1.492800 2.283100
1.507000 2.309300
1.521200 2.315100
1.535400 2.249600
1.549600 2.086800
1.563800 1.981300
1.578000 1.907000
1.592200 1.844800
1.606400 1.789400
1.620600 1.731200
1.634800 1.683400
1.649000 1.641300
1.663200 1.649800
1.677400 1.658100
1.691700 1.673000
1.705900 1.690400
1.720100 1.709300
1.734300 1.729400
1.748500 1.750800
1.762700 1.772700
1.776900 1.798300
1.791100 1.847000
1.805300 1.917400
1.819500 1.947000
1.833700 1.939700
1.847900 1.948600
1.862100 1.966000
1.876300 1.993900
1.890500 2.026500
1.904700 2.060800
1.918900 2.095900
1.933100 2.125900
1.947300 2.172200
1.961500 2.173500
1.975700 2.226100
1.989900 2.284300
2.004100 2.282400
2.018400 2.297800
2.032600 2.481900
2.046800 2.442300
2.061000 2.422400
2.075200 2.435100
2.089400 2.443000
2.103600 2.428100
2.117800 2.427100
2.132000 2.427200
2.146200 2.427000
2.160400 2.433100
2.174600 2.442400
2.188800 2.445900
2.203000 2.457700
2.217200 2.456800
2.231400 2.450500
2.245600 2.466600
2.259800 2.479400
2.274000 2.490900
2.288200 2.506300
2.302400 2.518100
2.316600 2.524800
2.330800 2.530200
2.345100 2.536400
2.359300 2.544700
2.373500 2.560300
2.387700 2.582000
2.401900 2.612100
2.416100 2.628000
2.430300 2.669600
2.444500 2.713600
2.458700 2.610000
2.472900 2.620300
2.487100 2.621500
2.501300 2.664400
2.515500 2.744100
2.529700 2.829200
2.543900 2.896200
2.558100 3.003500
2.572300 3.310700
2.586500 3.087400
2.600700 3.035400
2.614900 3.011500
2.629100 3.018900
2.643300 3.025600
2.657500 3.050100
2.671800 3.096300
2.686000 3.142400
2.700200 3.189300
2.714400 3.268900
2.728600 3.472600
2.742800 3.492300
2.757000 3.544800
2.771200 3.630500
2.785400 3.756600
2.799600 3.917200
2.813800 4.089300
2.828000 4.284700
2.842200 4.611400
2.856400 5.308500
2.870600 5.280300
2.884800 5.230000
2.899000 5.330100
2.913200 5.347800
2.927400 5.271900
2.941600 5.346100
2.955800 5.262500
2.970000 4.319700
2.984200 3.466900
2.998500 2.803800
3.012700 2.594300
3.026900 2.399200
3.041100 2.231100
3.055300 2.145500
3.069500 2.126100
3.083700 2.109300
3.097900 2.044500
3.112100 1.989000
3.126300 1.956900
3.140500 1.810700
3.154700 1.611400
3.168900 1.456600
3.183100 1.380100
3.197300 1.301600
3.211500 1.277100
3.225700 1.205100
3.239900 1.095600
3.254100 1.012200
3.268300 0.793100
3.282500 0.603400
3.296700 0.603400
3.310900 0.603400
3.325100 0.603400
3.339400 0.603400
3.353600 0.603400
3.367800 0.603400
3.382000 0.603400
3.396200 0.603400
3.410400 0.603400
3.424600 0.603400
3.438800 0.603400
3.453000 0.603400
3.467200 0.603400
3.481400 0.603400
3.495600 0.603400
3.509800 0.603400
3.524000 0.603400
3.538200 0.603400
3.552400 0.603400
3.566600 0.603400
3.580800 0.603400
3.595000 0.603400
3.609200 0.603400
3.623400 0.603400
3.637600 0.603400
3.651800 0.603400
3.666100 0.603400
3.680300 0.603400
3.694500 0.603400
3.708700 0.603400
3.722900 0.603400
3.737100 0.603400
3.751300 0.603400
3.765500 0.603400
3.779700 0.603500
3.793900 0.603500
3.808100 0.603500
3.822300 0.603500
3.836500 0.603500
3.850700 0.621100
3.864900 0.664600
3.879100 0.675200
3.893300 0.675200
3.907500 0.675200
3.921700 0.675200
3.935900 0.675200
3.950100 0.675200
3.964300 0.675200
3.978500 0.675200
3.992800 0.675200
4.007000 0.675200
4.021200 0.675200
4.035400 0.675200
4.049600 0.675200
4.063800 0.675200
4.078000 0.675200
4.092200 0.675200
4.106400 0.675200
4.120600 0.675200
4.134800 0.675200
4.149000 0.675200
4.163200 0.675200
4.177400 0.675200
4.191600 0.675200
4.205800 0.675200
4.220000 0.675200
4.234200 0.675200
4.248400 0.675200
4.262600 0.675200
4.276800 0.675200
4.291000 0.675200
4.305200 0.675200
4.319500 0.675200
4.333700 0.675200
4.347900 0.675200
4.362100 0.675200
4.376300 0.675200
4.390500 0.675200
4.404700 0.691200
4.418900 0.754700
4.433100 0.948500
4.447300 0.948500
4.461500 0.948500
4.475700 0.948500
4.489900 0.948500
4.504100 0.948500
4.518300 0.948500
4.532500 0.948500
4.546700 0.948500
4.560900 0.948500
4.575100 0.948500
4.589300 0.948500
4.603500 0.948500
4.617700 0.948500
4.631900 0.948500
4.646200 0.948500
4.660400 0.948500
4.674600 0.948500
4.688800 0.948500
4.703000 0.948500
4.717200 0.948500
4.731400 0.948500
4.745600 0.948500
4.759800 0.948500
4.774000 0.948500
4.788200 0.948500
4.802400 0.964600
4.816600 1.318200
4.830800 2.249000
4.845000 2.573000
4.859200 2.573000
4.873400 2.573000
4.887600 2.573000
4.901800 2.573000
4.916000 2.573000
4.930200 2.573000
4.944400 2.573000
4.958600 2.262800
4.972900 1.384900
4.987100 0.000000
5.001300 0.000000
5.015500 0.000000
5.029700 0.000000
5.043900 0.000000
5.058100 0.000000
5.072300 0.000000
5.086500 0.000000
5.100700 0.000000
5.114900 0.000000
5.129100 0.000000
5.143300 0.000000
5.157500 0.000000
5.171700 0.000000
5.185900 0.000000
5.200100 0.000000
5.214300 0.000000
5.228500 0.000000
5.242700 0.000000
5.256900 0.000000
5.271100 0.000000
5.285300 0.000000
5.299600 0.000000
5.313800 0.000000
5.328000 0.000000
5.342200 0.000000
5.356400 0.000000
5.370600 0.000000
5.384800 0.000000
5.399000 0.000000
5.413200 0.000000
5.427400 0.000000
5.441600 0.000000
5.455800 0.000000
5.470000 0.000000
5.484200 0.000000
5.498400 0.000000
5.512600 0.000000
5.526800 0.000000
5.541000 0.000000
5.555200 0.000000
5.569400 0.000000
5.583600 0.000000
5.597800 0.000000
5.612000 0.000000
5.626200 0.000000
5.640500 0.000000
5.654700 0.000000
5.668900 0.000000
5.683100 0.000000
5.697300 0.000000
5.711500 0.000000
5.725700 0.000000
5.739900 0.000000
5.754100 0.000000
5.768300 0.000000
5.782500 0.000200
5.796700 0.138000
5.810900 0.370300
5.825100 0.641500
5.839300 0.856000
5.853500 1.080000
5.867700 1.284600
5.881900 1.248000
5.896100 1.147500
5.910300 1.100400
5.924500 1.153400
5.938700 1.193100
5.952900 1.217400
5.967200 1.233700
5.981400 1.242100
5.995600 1.242600
6.009800 1.253700
6.024000 1.283300
6.038200 1.313000
6.052400 1.342500
6.066600 1.372000
6.080800 1.400900
6.095000 1.411100
6.109200 1.408400
6.123400 1.403800
6.137600 1.403400
6.151800 1.410000
6.166000 1.427900
6.180200 1.446300
6.194400 1.465100
6.208600 1.484600
6.222800 1.506300
6.237000 1.529300
6.251200 1.553100
6.265400 1.577700
6.279600 1.599600
6.293900 1.616800
6.308100 1.633700
6.322300 1.650700
6.336500 1.669900
6.350700 1.691400
6.364900 1.713800
6.379100 1.737300
6.393300 1.763900
6.407500 1.792800
6.421700 1.822700
6.435900 1.854000
6.450100 1.887200
6.464300 1.922400
6.478500 1.960500
6.492700 2.006700
6.506900 2.053100
6.521100 2.091400
6.535300 2.126000
6.549500 2.166800
6.563700 2.305300
6.577900 2.551400
6.592100 2.859500
6.606300 3.302600
6.620600 3.761100
6.634800 3.922300
6.649000 4.109000
6.663200 4.229700
6.677400 4.397500
6.691600 4.564700
6.705800 4.739500
6.720000 4.981600
6.734200 5.209700
6.748400 5.553600
6.762600 5.974600
6.776800 6.409400
6.791000 6.780700
6.805200 7.167900
6.819400 7.597300
6.833600 8.110200
6.847800 9.076300
6.862000 8.389800
6.876200 7.682500
6.890400 7.524000
6.904600 7.205200
6.918800 6.697700
6.933000 5.475700
6.947300 4.321800
6.961500 3.465200
6.975700 2.812800
6.989900 2.236200
7.004100 1.837100
7.018300 1.733300
7.032500 1.665600
7.046700 1.602300
7.060900 1.541600
7.075100 1.485500
7.089300 1.431300
7.103500 1.381800
7.117700 1.340500
7.131900 1.300500
7.146100 1.262000
7.160300 1.226200
7.174500 1.198800
7.188700 1.179100
7.202900 1.154800
7.217100 1.125800
7.231300 1.092000
7.245500 1.049700
7.259700 1.008900
7.274000 0.971900
7.288200 0.938800
7.302400 0.913300
7.316600 0.898900
7.330800 0.906300
7.345000 0.906300
7.359200 0.902600
7.373400 0.903500
7.387600 0.903200
7.401800 0.908000
7.416000 0.806000
7.430200 0.712100
7.444400 0.611600
7.458600 0.517900
7.472800 0.431300
7.487000 0.351500
7.501200 0.278700
7.515400 0.212900
7.529600 0.154000
7.543800 0.000000
7.558000 0.000000
7.572200 0.000000
7.586400 0.000000
7.600700 0.000000
7.614900 0.000000
7.629100 0.000000
7.643300 0.000000
7.657500 0.000000
7.671700 0.000000
7.685900 0.000000
7.700100 0.000000
7.714300 0.000000
7.728500 0.000000
7.742700 0.000000
7.756900 0.000000
7.771100 0.000000
7.785300 0.000000
7.799500 0.000000
7.813700 0.000000
7.827900 0.000000
7.842100 0.000000
7.856300 0.000000
7.870500 0.000000
7.884700 0.000000
7.898900 0.000000
7.913100 0.000000
7.927300 0.000000
7.941600 0.000000
7.955800 0.000000
7.970000 0.000000
7.984200 0.000000
7.998400 0.000000
8.012600 0.000000
8.026800 0.000000
8.041000 0.000000
8.055200 0.000000
8.069400 0.000000
8.083600 0.000000
8.097800 0.000000
8.112000 0.000000
8.126200 0.000000
8.140400 0.000000
8.154600 0.000000
8.168800 0.000000
8.183000 0.000000
8.197200 0.000000
8.211400 0.000000
8.225600 0.000000
8.239800 0.000000
8.254000 0.000000
8.268300 0.000000
8.282500 0.005400
8.296700 0.027200
8.310900 0.053900
8.325100 0.085500
8.339300 0.126700
8.353500 0.184000
8.367700 0.249300
8.381900 0.208100
8.396100 0.230200
8.410300 0.251200
8.424500 0.270800
8.438700 0.289200
8.452900 0.305400
8.467100 0.319000
8.481300 0.480100
8.495500 0.362700
8.509700 0.380900
8.523900 0.399800
8.538100 0.434300
8.552300 0.502800
8.566500 0.596400
8.580700 0.687100
8.595000 0.771100
8.609200 0.870000
8.623400 0.956300
8.637600 1.000900
8.651800 1.053000
8.666000 1.142300
8.680200 1.183500
8.694400 1.216700
8.708600 1.273100
8.722800 1.329600
8.737000 1.386500
8.751200 1.452500
8.765400 1.509600
8.779600 1.573600
8.793800 1.639100
8.808000 1.690300
8.822200 1.734300
8.836400 1.777300
8.850600 1.886300
8.864800 1.922100
8.879000 1.975200
8.893200 2.037600
8.907400 2.080600
8.921700 2.154600
8.935900 2.231500
8.950100 2.312900
8.964300 2.410700
8.978500 2.517000
8.992700 2.625500
9.006900 2.738800
9.021100 2.736300
9.035300 2.815500
9.049500 2.898700
9.063700 2.985600
9.077900 3.087700
9.092100 3.202900
9.106300 3.369400
9.120500 3.509700
9.134700 3.657000
9.148900 3.842700
9.163100 4.053300
9.177300 4.239900
9.191500 4.321200
9.205700 4.341500
9.219900 4.302800
9.234100 4.224000
9.248400 4.108500
9.262600 3.974600
9.276800 3.799900
9.291000 3.649500
9.305200 3.604300
9.319400 3.565300
9.333600 3.525500
9.347800 3.504600
9.362000 3.396700
9.376200 3.358500
9.390400 3.348800
9.404600 3.341800
9.418800 3.331200
9.433000 3.328700
9.447200 3.315900
9.461400 3.307700
9.475600 3.312500
9.489800 3.312700
9.504000 3.303600
9.518200 3.316900
9.532400 3.347300
9.546600 3.416600
9.560800 3.508900
9.575100 3.519300
9.589300 3.545900
9.603500 3.590500
9.617700 3.636400
9.631900 3.690000
9.646100 3.742100
9.660300 3.788800
9.674500 3.831300
9.688700 3.865800
9.702900 3.893900
9.717100 3.911400
9.731300 3.921200
9.745500 3.928900
9.759700 3.922300
9.773900 3.943000
9.788100 3.921300
9.802300 3.889600
9.816500 3.827400
9.830700 3.794700
9.844900 3.807600
9.859100 3.837000
9.873300 3.843300
9.887500 3.806500
9.901800 3.776700
9.916000 3.738300
9.930200 3.702400
9.944400 3.675500
9.958600 3.673400
9.972800 3.689000
9.987000 3.731900
10.001200 3.681700
10.015400 3.652800
10.029600 3.625600
10.043800 3.613600
10.058000 3.632500
10.072200 3.629600
10.086400 3.617900
10.100600 3.608000
10.114800 3.627700
10.129000 3.726400
10.143200 3.526800
10.157400 3.528400
10.171600 3.525900
10.185800 3.528300
10.200000 3.535400
10.214200 3.545700
10.228400 3.557300
10.242700 3.572700
10.256900 3.588500
10.271100 3.593200
10.285300 3.596900
10.299500 3.613000
10.313700 3.642600
10.327900 3.678600
10.342100 3.680200
10.356300 3.667400
10.370500 3.563300
10.384700 3.546600
10.398900 3.339400
10.413100 3.167800
10.427300 2.993500
10.441500 2.814500
10.455700 2.689100
10.469900 2.599600
10.484100 2.530300
10.498300 2.516200
10.512500 2.507000
10.526700 2.509000
10.540900 2.529300
10.555100 2.571200
10.569400 2.620100
10.583600 2.617800
10.597800 2.558800
10.612000 2.508900
10.626200 2.467300
10.640400 2.438900
10.654600 2.410000
10.668800 2.379300
10.683000 2.343600
10.697200 2.296200
10.711400 2.206000
10.725600 2.143500
10.739800 2.069000
10.754000 2.000700
10.768200 1.957800
10.782400 1.975000
10.796600 2.024400
10.810800 2.052300
10.825000 2.022100
10.839200 1.979700
10.853400 1.944800
10.867600 1.914200
10.881800 1.885500
10.896100 1.858200
10.910300 1.832300
10.924500 1.808200
10.938700 1.787000
10.952900 1.761100
10.967100 1.733800
10.981300 1.709400
10.995500 1.687300
11.009700 1.654300
11.023900 1.620200
11.038100 1.585400
11.052300 1.551400
11.066500 1.521200
11.080700 1.494100
11.094900 1.447300
11.109100 1.385200
11.123300 1.332900
11.137500 1.294600
11.151700 1.262500
11.165900 1.237700
11.180100 1.223800
11.194300 1.217300
11.208500 1.213000
11.222800 1.194400
11.237000 1.171800
11.251200 1.152000
11.265400 1.134100
11.279600 1.119100
11.293800 1.107900
11.308000 1.097800
11.322200 1.084000
11.336400 1.057400
11.350600 1.044100
11.364800 1.031500
11.379000 1.019700
11.393200 1.010800
11.407400 1.001000
11.421600 0.990100
11.435800 0.993900
11.450000 0.994900
11.464200 0.995800
11.478400 0.984100
11.492600 0.972000
11.506800 0.961300
11.521000 0.951900
11.535200 0.941700
11.549500 0.926400
11.563700 0.908300
11.577900 0.887900
11.592100 0.864700
11.606300 0.837600
11.620500 0.806500
11.634700 0.781100
11.648900 0.769000
11.663100 0.727200
11.677300 0.664200
11.691500 0.565000
11.705700 0.516100
11.719900 0.466600
11.734100 0.411200
11.748300 0.368300
11.762500 0.321900
11.776700 0.259600
11.790900 0.204600
11.805100 0.158400
11.819300 0.120800
11.833500 0.058500
11.847700 0.040400
11.861900 0.027400
11.876200 0.017100
11.890400 0.009300
11.904600 0.003900
11.918800 0.001000
11.933000 0.000000
11.947200 0.000000
11.961400 0.000000
11.975600 0.000000
11.989800 0.000000
12.004000 0.000000
12.018200 0.000000
12.032400 0.000000
12.046600 0.000000
12.060800 0.000000
12.075000 0.000000
12.089200 0.000000
12.103400 0.000000
12.117600 0.000000
12.131800 0.000000
12.146000 0.000000
12.160200 0.000000
12.174400 0.000000
12.188600 0.000000
12.202900 0.000000
12.217100 0.000000
12.231300 0.000000
12.245500 0.000000
12.259700 0.000000
12.273900 0.000000
12.288100 0.000000
12.302300 0.000000
12.316500 0.000000
12.330700 0.000000
12.344900 0.000000
12.359100 0.000000
12.373300 0.000000
12.387500 0.000000
12.401700 0.000000
12.415900 0.000000
12.430100 0.000000
12.444300 0.000000
12.458500 0.000000
12.472700 0.000000
12.486900 0.000000
12.501100 0.000000
12.515300 0.000000
12.529500 0.000000
12.543800 0.000000
12.558000 0.000000
12.572200 0.000000
12.586400 0.000000
12.600600 0.000000
12.614800 0.000000
12.629000 0.000000
12.643200 0.000000
12.657400 0.000000
12.671600 0.000000
12.685800 0.000000
12.700000 0.000000
12.714200 0.000000
12.728400 0.000000
12.742600 0.000000
12.756800 0.000000
12.771000 0.000000
12.785200 0.000000
12.799400 0.000000
12.813600 0.000000
12.827800 0.000000
12.842000 0.000000
12.856200 0.000000
12.870500 0.000000
12.884700 0.000000
12.898900 0.000000
12.913100 0.000000
12.927300 0.000000
12.941500 0.000000
12.955700 0.000000
12.969900 0.000000
12.984100 0.000000
12.998300 0.000000
13.012500 0.000000
13.026700 0.000000
13.040900 0.000000
13.055100 0.000000
13.069300 0.000000
13.083500 0.000000
13.097700 0.000000
13.111900 0.000000
13.126100 0.000000
13.140300 0.000000
13.154500 0.000000
13.168700 0.000000
13.182900 0.000000
13.197200 0.000000
13.211400 0.000000
13.225600 0.000000
e
