set title 'mp-25433 - Density of States'
set xlabel 'Energy (eV)'
set ylabel 'DOS (states/eV)'
set grid
set xrange [-10:10]
set yrange [0:20.875]
set xzeroaxis lt -1
set terminal png size 800,600
set output 'mp-25433_dos_gnuplot.png'
plot '-' using 1:2 with lines title 'DOS'
-36.338800 0.000000
-36.291800 0.000000
-36.244900 0.000000
-36.198000 0.000000
-36.151100 0.000000
-36.104100 0.000000
-36.057200 0.000000
-36.010300 0.000000
-35.963400 0.000000
-35.916400 0.000000
-35.869500 0.000000
-35.822600 0.000000
-35.775700 0.000000
-35.728700 0.000000
-35.681800 0.000000
-35.634900 0.000000
-35.588000 0.000000
-35.541000 0.000000
-35.494100 0.000000
-35.447200 0.000000
-35.400300 0.000000
-35.353300 0.000000
-35.306400 0.000000
-35.259500 0.000000
-35.212600 0.000000
-35.165600 0.000000
-35.118700 0.000000
-35.071800 0.000000
-35.024900 0.000000
-34.977900 0.000000
-34.931000 0.000000
-34.884100 0.000000
-34.837200 0.000000
-34.790200 0.000000
-34.743300 0.000000
-34.696400 0.000000
-34.649500 0.000000
-34.602500 0.000000
-34.555600 0.000000
-34.508700 0.000000
-34.461800 0.000000
-34.414800 0.000000
-34.367900 0.000000
-34.321000 0.000000
-34.274100 0.000000
-34.227100 0.000000
-34.180200 0.000000
-34.133300 0.000000
-34.086400 0.000000
-34.039400 0.000000
-33.992500 0.000000
-33.945600 0.000000
-33.898700 0.000000
-33.851700 0.000000
-33.804800 0.000000
-33.757900 0.000000
-33.711000 0.000000
-33.664000 0.000000
-33.617100 0.000000
-33.570200 0.000000
-33.523300 0.000000
-33.476300 0.000000
-33.429400 0.000000
-33.382500 0.000000
-33.335600 0.000000
-33.288600 0.000000
-33.241700 0.000000
-33.194800 0.000000
-33.147900 0.000000
-33.100900 0.000000
-33.054000 0.000000
-33.007100 0.000000
-32.960200 0.000000
-32.913200 0.000000
-32.866300 0.000000
-32.819400 0.000000
-32.772500 0.000000
-32.725500 0.000000
-32.678600 0.000000
-32.631700 0.000000
-32.584800 0.000000
-32.537800 0.000000
-32.490900 0.000000
-32.444000 0.000000
-32.397100 0.000000
-32.350100 0.000000
-32.303200 0.000000
-32.256300 0.000000
-32.209400 0.000000
-32.162400 0.000000
-32.115500 0.000000
-32.068600 0.834400
-32.021700 8.033900
-31.974700 10.783700
-31.927800 5.586300
-31.880900 3.012500
-31.834000 2.832400
-31.787000 12.695800
-31.740100 4.242400
-31.693200 20.134600
-31.646300 18.144000
-31.599300 11.997100
-31.552400 8.573800
-31.505500 0.000000
-31.458600 0.000000
-31.411600 0.000000
-31.364700 0.000000
-31.317800 0.000000
-31.270900 0.000000
-31.223900 0.000000
-31.177000 0.000000
-31.130100 0.000000
-31.083200 0.000000
-31.036200 0.000000
-30.989300 0.000000
-30.942400 0.000000
-30.895500 0.000000
-30.848500 0.000000
-30.801600 0.000000
-30.754700 0.000000
-30.707800 0.000000
-30.660800 0.000000
-30.613900 0.000000
-30.567000 0.000000
-30.520100 0.000000
-30.473100 0.000000
-30.426200 0.000000
-30.379300 0.000000
-30.332400 0.000000
-30.285400 0.000000
-30.238500 0.000000
-30.191600 0.000000
-30.144700 0.000000
-30.097700 0.000000
-30.050800 0.000000
-30.003900 0.000000
-29.957000 0.000000
-29.910000 0.000000
-29.863100 0.000000
-29.816200 0.000000
-29.769300 0.000000
-29.722300 0.000000
-29.675400 0.000000
-29.628500 0.000000
-29.581600 0.000000
-29.534600 0.000000
-29.487700 0.000000
-29.440800 0.000000
-29.393900 0.000000
-29.346900 0.000000
-29.300000 0.000000
-29.253100 0.000000
-29.206200 0.000000
-29.159200 0.000000
-29.112300 0.000000
-29.065400 0.000000
-29.018500 0.000000
-28.971500 0.000000
-28.924600 0.000000
-28.877700 0.000000
-28.830800 0.000000
-28.783800 0.000000
-28.736900 0.000000
-28.690000 0.000000
-28.643100 0.000000
-28.596100 0.000000
-28.549200 0.000000
-28.502300 0.000000
-28.455400 0.000000
-28.408400 0.000000
-28.361500 0.000000
-28.314600 0.000000
-28.267700 0.000000
-28.220700 0.000000
-28.173800 0.000000
-28.126900 0.000000
-28.080000 0.000000
-28.033000 0.000000
-27.986100 0.000000
-27.939200 0.000000
-27.892300 0.000000
-27.845300 0.000000
-27.798400 0.000000
-27.751500 0.000000
-27.704600 0.000000
-27.657600 0.000000
-27.610700 0.000000
-27.563800 0.000000
-27.516900 0.000000
-27.469900 0.000000
-27.423000 0.000000
-27.376100 0.000000
-27.329200 0.000000
-27.282200 0.000000
-27.235300 0.000000
-27.188400 0.000000
-27.141500 0.000000
-27.094500 0.000000
-27.047600 0.000000
-27.000700 0.000000
-26.953800 0.000000
-26.906800 0.000000
-26.859900 0.000000
-26.813000 0.000000
-26.766100 0.000000
-26.719100 0.000000
-26.672200 0.000000
-26.625300 0.000000
-26.578400 0.000000
-26.531400 0.000000
-26.484500 0.000000
-26.437600 0.000000
-26.390700 0.000000
-26.343700 0.000000
-26.296800 0.000000
-26.249900 0.000000
-26.203000 0.000000
-26.156000 0.000000
-26.109100 0.000000
-26.062200 0.000000
-26.015300 0.000000
-25.968300 0.000000
-25.921400 0.000000
-25.874500 0.000000
-25.827600 0.000000
-25.780600 0.000000
-25.733700 0.000000
-25.686800 0.000000
-25.639900 0.000000
-25.592900 0.000000
-25.546000 0.000000
-25.499100 0.000000
-25.452200 0.000000
-25.405200 0.000000
-25.358300 0.000000
-25.311400 0.000000
-25.264500 0.000000
-25.217500 0.000000
-25.170600 0.000000
-25.123700 0.000000
-25.076800 0.000000
-25.029800 0.000000
-24.982900 0.000000
-24.936000 0.000000
-24.889100 0.000000
-24.842100 0.000000
-24.795200 0.000000
-24.748300 0.000000
-24.701400 0.000000
-24.654400 0.000000
-24.607500 0.000000
-24.560600 0.000000
-24.513700 0.000000
-24.466700 0.000000
-24.419800 0.000000
-24.372900 0.000000
-24.326000 0.000000
-24.279000 0.000000
-24.232100 0.000000
-24.185200 0.000000
-24.138300 0.000000
-24.091300 0.000000
-24.044400 0.000000
-23.997500 0.000000
-23.950600 0.000000
-23.903600 0.000000
-23.856700 0.000000
-23.809800 0.000000
-23.762900 0.000000
-23.715900 0.000000
-23.669000 0.000000
-23.622100 0.000000
-23.575200 0.000000
-23.528200 0.000000
-23.481300 0.000000
-23.434400 0.000000
-23.387500 0.000000
-23.340500 0.000000
-23.293600 0.000000
-23.246700 0.000000
-23.199800 0.000000
-23.152800 0.000000
-23.105900 0.000000
-23.059000 0.000000
-23.012100 0.000000
-22.965100 0.000000
-22.918200 0.000000
-22.871300 0.000000
-22.824400 0.000000
-22.777400 0.000000
-22.730500 0.000000
-22.683600 0.000000
-22.636700 0.000000
-22.589700 0.000000
-22.542800 0.000000
-22.495900 0.000000
-22.449000 0.000000
-22.402000 0.000000
-22.355100 0.000000
-22.308200 0.000000
-22.261300 0.000000
-22.214300 0.000000
-22.167400 0.000000
-22.120500 0.000000
-22.073600 0.000000
-22.026600 0.000000
-21.979700 0.000000
-21.932800 0.000000
-21.885900 0.000000
-21.838900 0.000000
-21.792000 0.000000
-21.745100 0.000000
-21.698200 0.000000
-21.651200 0.000000
-21.604300 0.000000
-21.557400 0.000000
-21.510500 0.000000
-21.463500 0.000000
-21.416600 0.000000
-21.369700 0.000000
-21.322800 0.000000
-21.275800 0.000000
-21.228900 0.000000
-21.182000 0.000000
-21.135100 0.000000
-21.088100 0.000000
-21.041200 0.000000
-20.994300 0.000000
-20.947400 0.000000
-20.900400 0.000000
-20.853500 0.000000
-20.806600 0.000000
-20.759700 0.000000
-20.712700 0.000000
-20.665800 0.000000
-20.618900 0.000000
-20.572000 0.000000
-20.525000 0.000000
-20.478100 0.000000
-20.431200 0.000000
-20.384300 0.000000
-20.337300 0.000000
-20.290400 0.000000
-20.243500 0.000000
-20.196600 0.000000
-20.149600 0.000000
-20.102700 0.000000
-20.055800 0.000000
-20.008900 0.000000
-19.961900 0.000000
-19.915000 0.000000
-19.868100 0.000000
-19.821200 0.000000
-19.774200 0.000000
-19.727300 0.000000
-19.680400 0.000000
-19.633500 0.000000
-19.586500 0.000000
-19.539600 0.000000
-19.492700 0.000000
-19.445800 0.000000
-19.398800 0.000000
-19.351900 0.000000
-19.305000 0.000000
-19.258100 0.000000
-19.211100 0.000000
-19.164200 0.000000
-19.117300 0.000000
-19.070400 0.000000
-19.023400 0.000000
-18.976500 0.000000
-18.929600 0.000000
-18.882700 0.000000
-18.835700 0.000000
-18.788800 0.000000
-18.741900 0.000000
-18.695000 0.000000
-18.648000 0.000000
-18.601100 0.000000
-18.554200 0.000000
-18.507300 0.000000
-18.460300 0.000000
-18.413400 0.000000
-18.366500 0.000000
-18.319600 0.000000
-18.272600 0.000000
-18.225700 0.000000
-18.178800 0.000000
-18.131900 0.000000
-18.084900 0.000000
-18.038000 0.000000
-17.991100 0.000000
-17.944200 0.000000
-17.897200 0.000000
-17.850300 0.000000
-17.803400 0.000000
-17.756500 0.000000
-17.709500 0.000000
-17.662600 0.000000
-17.615700 0.000000
-17.568800 0.000000
-17.521800 0.000000
-17.474900 0.000000
-17.428000 0.000000
-17.381100 0.000000
-17.334100 0.000000
-17.287200 0.000000
-17.240300 0.000000
-17.193400 0.000000
-17.146400 0.000000
-17.099500 0.000000
-17.052600 0.000000
-17.005700 0.000000
-16.958700 0.000000
-16.911800 0.000000
-16.864900 0.000000
-16.818000 0.000000
-16.771000 0.000000
-16.724100 0.000000
-16.677200 0.000000
-16.630300 0.000000
-16.583300 0.000000
-16.536400 0.065000
-16.489500 0.241000
-16.442600 0.463200
-16.395600 0.685400
-16.348700 0.708000
-16.301800 0.584800
-16.254900 0.620400
-16.207900 0.656000
-16.161000 0.691500
-16.114100 0.727100
-16.067200 0.762700
-16.020200 0.800200
-15.973300 0.853600
-15.926400 0.923100
-15.879500 1.003200
-15.832500 1.117100
-15.785600 1.245100
-15.738700 1.373200
-15.691800 1.501400
-15.644800 1.632400
-15.597900 6.335000
-15.551000 6.354900
-15.504100 2.856500
-15.457100 2.605400
-15.410200 2.354200
-15.363300 2.103100
-15.316400 2.317500
-15.269400 0.000000
-15.222500 1.858900
-15.175600 5.257600
-15.128700 8.237800
-15.081700 8.583600
-15.034800 6.424600
-14.987900 4.954900
-14.941000 2.917100
-14.894000 1.451800
-14.847100 1.167200
-14.800200 0.732800
-14.753300 0.234100
-14.706300 0.000000
-14.659400 0.000000
-14.612500 0.000000
-14.565600 0.000000
-14.518600 0.000000
-14.471700 0.000000
-14.424800 0.000000
-14.377900 0.000000
-14.330900 0.000000
-14.284000 0.000000
-14.237100 0.000000
-14.190200 0.000000
-14.143200 0.000000
-14.096300 0.000000
-14.049400 0.000000
-14.002500 0.000000
-13.955500 0.000000
-13.908600 0.000000
-13.861700 0.000000
-13.814800 0.000000
-13.767800 0.000000
-13.720900 0.000000
-13.674000 0.000000
-13.627100 0.000000
-13.580100 0.000000
-13.533200 0.000000
-13.486300 0.000000
-13.439400 0.000000
-13.392400 0.000000
-13.345500 0.000000
-13.298600 0.000000
-13.251700 0.000000
-13.204700 0.000000
-13.157800 0.000000
-13.110900 0.000000
-13.064000 0.000000
-13.017000 0.000000
-12.970100 0.000000
-12.923200 0.000000
-12.876300 0.000000
-12.829300 0.000000
-12.782400 0.000000
-12.735500 0.000000
-12.688600 0.000000
-12.641600 0.000000
-12.594700 0.000000
-12.547800 0.000000
-12.500900 0.000000
-12.453900 0.000000
-12.407000 0.000000
-12.360100 0.000000
-12.313200 0.000000
-12.266200 0.000000
-12.219300 0.000000
-12.172400 0.000000
-12.125500 0.000000
-12.078500 0.000000
-12.031600 0.000000
-11.984700 0.000000
-11.937800 0.000000
-11.890800 0.000000
-11.843900 0.000000
-11.797000 0.000000
-11.750100 0.000000
-11.703100 0.000000
-11.656200 0.000000
-11.609300 0.000000
-11.562400 0.000000
-11.515400 0.000000
-11.468500 0.000000
-11.421600 0.000000
-11.374700 0.000000
-11.327700 0.000000
-11.280800 0.000000
-11.233900 0.000000
-11.187000 0.000000
-11.140000 0.000000
-11.093100 0.000000
-11.046200 0.000000
-10.999300 0.000000
-10.952300 0.000000
-10.905400 0.000000
-10.858500 0.000000
-10.811600 0.000000
-10.764600 0.000000
-10.717700 0.000000
-10.670800 0.000000
-10.623900 0.000000
-10.576900 0.000000
-10.530000 0.000000
-10.483100 0.000000
-10.436200 0.000000
-10.389200 0.000000
-10.342300 0.000000
-10.295400 0.000000
-10.248500 0.000000
-10.201500 0.000000
-10.154600 0.000000
-10.107700 0.000000
-10.060800 0.000000
-10.013800 0.000000
-9.966900 0.000000
-9.920000 0.000000
-9.873100 0.000000
-9.826100 0.000000
-9.779200 0.000000
-9.732300 0.000000
-9.685400 0.000000
-9.638400 0.000000
-9.591500 0.000000
-9.544600 0.000000
-9.497700 0.000000
-9.450700 0.000000
-9.403800 0.000000
-9.356900 0.000000
-9.310000 0.000000
-9.263000 0.000000
-9.216100 0.000000
-9.169200 0.000000
-9.122300 0.000000
-9.075300 0.000000
-9.028400 0.000000
-8.981500 0.000000
-8.934600 0.000000
-8.887600 0.000000
-8.840700 0.000000
-8.793800 0.000000
-8.746900 0.000000
-8.699900 0.000000
-8.653000 0.000000
-8.606100 0.000000
-8.559200 0.000000
-8.512200 0.000000
-8.465300 0.000000
-8.418400 0.000000
-8.371500 0.000000
-8.324500 0.000000
-8.277600 0.000000
-8.230700 0.000000
-8.183800 0.000000
-8.136800 0.000000
-8.089900 0.000000
-8.043000 0.000000
-7.996100 0.000000
-7.949100 0.000000
-7.902200 0.000000
-7.855300 0.000000
-7.808400 0.000000
-7.761400 0.000000
-7.714500 0.000000
-7.667600 0.000000
-7.620700 0.000000
-7.573700 0.000000
-7.526800 0.000000
-7.479900 0.000000
-7.433000 0.000000
-7.386000 0.000000
-7.339100 0.000000
-7.292200 0.000000
-7.245300 0.000000
-7.198300 0.000000
-7.151400 0.000000
-7.104500 0.000000
-7.057600 0.000000
-7.010600 0.000000
-6.963700 0.000000
-6.916800 0.000000
-6.869900 0.000000
-6.822900 0.000000
-6.776000 0.000000
-6.729100 0.000000
-6.682200 0.000000
-6.635200 0.000000
-6.588300 0.000000
-6.541400 0.000000
-6.494500 0.000000
-6.447500 0.000000
-6.400600 0.000000
-6.353700 0.000000
-6.306800 0.000000
-6.259800 0.000000
-6.212900 0.000000
-6.166000 0.000000
-6.119100 0.000000
-6.072100 0.000000
-6.025200 0.000000
-5.978300 0.000000
-5.931400 0.000000
-5.884400 0.000000
-5.837500 0.000000
-5.790600 0.000000
-5.743700 0.000000
-5.696700 0.000000
-5.649800 0.000000
-5.602900 0.000000
-5.556000 0.000000
-5.509000 0.000000
-5.462100 0.000000
-5.415200 0.000000
-5.368300 0.000000
-5.321300 0.000000
-5.274400 0.000000
-5.227500 0.000000
-5.180600 0.000000
-5.133600 0.000000
-5.086700 0.000000
-5.039800 0.000000
-4.992900 0.000000
-4.945900 0.000000
-4.899000 0.000000
-4.852100 0.000000
-4.805200 0.000000
-4.758200 0.000000
-4.711300 0.000000
-4.664400 0.000000
-4.617500 0.000000
-4.570500 0.000000
-4.523600 0.000000
-4.476700 0.000000
-4.429800 0.000000
-4.382800 0.000000
-4.335900 0.000000
-4.289000 0.000000
-4.242100 0.000000
-4.195100 0.000000
-4.148200 0.000000
-4.101300 0.000000
-4.054400 0.000000
-4.007400 0.000000
-3.960500 0.000000
-3.913600 0.000000
-3.866700 0.000000
-3.819700 0.000000
-3.772800 0.000000
-3.725900 0.000000
-3.679000 0.000000
-3.632000 0.004300
-3.585100 0.080800
-3.538200 0.213300
-3.491300 0.397200
-3.444300 0.653800
-3.397400 0.931600
-3.350500 1.209600
-3.303600 1.335200
-3.256600 1.454000
-3.209700 1.557400
-3.162800 1.592500
-3.115900 1.700100
-3.068900 1.846100
-3.022000 1.996600
-2.975100 2.798600
-2.928200 4.847400
-2.881200 5.779100
-2.834300 5.576600
-2.787400 4.788600
-2.740500 4.048400
-2.693500 0.735300
-2.646600 1.031000
-2.599700 1.678600
-2.552800 2.732100
-2.505800 4.514400
-2.458900 3.568000
-2.412000 4.194800
-2.365100 7.701600
-2.318100 5.821100
-2.271200 4.686100
-2.224300 3.672000
-2.177400 3.248600
-2.130400 2.988100
-2.083500 2.753100
-2.036600 2.615300
-1.989700 2.579200
-1.942700 2.752100
-1.895800 2.282700
-1.848900 1.951800
-1.802000 1.989400
-1.755000 2.097400
-1.708100 2.110000
-1.661200 2.080900
-1.614300 8.638300
-1.567300 3.475100
-1.520400 2.795800
-1.473500 1.968200
-1.426600 1.117800
-1.379600 0.610500
-1.332700 0.116700
-1.285800 0.000000
-1.238900 1.173600
-1.191900 1.206100
-1.145000 1.517900
-1.098100 1.739100
-1.051200 2.053400
-1.004200 2.562000
-0.957300 3.712300
-0.910400 4.572200
-0.863500 5.118000
-0.816500 4.986200
-0.769600 4.059100
-0.722700 3.093600
-0.675800 2.448800
-0.628800 4.801800
-0.581900 5.948000
-0.535000 6.315900
-0.488100 3.797000
-0.441100 3.060300
-0.394200 3.110300
-0.347300 2.722200
-0.300400 1.880300
-0.253400 1.529600
-0.206500 1.379700
-0.159600 1.207300
-0.112700 1.313000
-0.065700 1.654500
-0.018800 1.586700
0.028100 1.615300
0.075000 1.571100
0.122000 1.621600
0.168900 2.270600
0.215800 2.468800
0.262700 2.513200
0.309700 2.583800
0.356600 2.987900
0.403500 2.719300
0.450400 2.630200
0.497400 2.463100
0.544300 2.343500
0.591200 2.296800
0.638100 2.390900
0.685100 2.458300
0.732000 4.109800
0.778900 2.921400
0.825800 1.909400
0.872800 1.651300
0.919700 1.530400
0.966600 1.244200
1.013500 0.384000
1.060500 0.000000
1.107400 0.000000
1.154300 0.000000
1.201200 0.000000
1.248200 0.000000
1.295100 0.000000
1.342000 0.000000
1.388900 0.000000
1.435900 0.000000
1.482800 0.000000
1.529700 0.000000
1.576600 0.000000
1.623600 0.000000
1.670500 0.000000
1.717400 0.000000
1.764300 0.000000
1.811300 0.000000
1.858200 0.000000
1.905100 0.000000
1.952000 0.000000
1.999000 0.000000
2.045900 0.000000
2.092800 0.000000
2.139700 0.000000
2.186700 0.000000
2.233600 0.000000
2.280500 0.000000
2.327400 0.000000
2.374400 0.000000
2.421300 0.000000
2.468200 0.000000
2.515100 0.000000
2.562100 0.000000
2.609000 0.000000
2.655900 0.000000
2.702800 0.000000
2.749800 0.000000
2.796700 0.000000
2.843600 0.000000
2.890500 0.000000
2.937500 0.000000
2.984400 0.000000
3.031300 0.000000
3.078200 0.000000
3.125200 0.000000
3.172100 0.000000
3.219000 0.000000
3.265900 0.000000
3.312900 0.000000
3.359800 0.000000
3.406700 0.000000
3.453600 0.000000
3.500600 0.000000
3.547500 0.266600
3.594400 0.583600
3.641300 0.900600
3.688300 1.178400
3.735200 1.942700
3.782100 4.500600
3.829000 5.248300
3.876000 6.475700
3.922900 6.783400
3.969800 5.968600
4.016700 5.424100
4.063700 5.070900
4.110600 3.322400
4.157500 2.058000
4.204400 0.955600
4.251400 1.045400
4.298300 1.135200
4.345200 1.225100
4.392100 1.610300
4.439100 2.048900
4.486000 3.248700
4.532900 18.976900
4.579800 4.430600
4.626800 10.148600
4.673700 16.040000
4.720600 7.615900
4.767500 6.906800
4.814500 1.759900
4.861400 1.613100
4.908300 1.498600
4.955200 1.590200
5.002200 1.666200
5.049100 1.513300
5.096000 1.360300
5.142900 2.083500
5.189900 0.401400
5.236800 0.000000
5.283700 0.000000
5.330600 0.000000
5.377600 0.000000
5.424500 0.000000
5.471400 0.000000
5.518300 0.000000
5.565300 0.000000
5.612200 0.000000
5.659100 0.000000
5.706000 0.000000
5.753000 0.000000
5.799900 0.000000
5.846800 0.000000
5.893700 0.000000
5.940700 0.000000
5.987600 0.000000
6.034500 0.000000
6.081400 0.000000
6.128400 0.000000
6.175300 0.000000
6.222200 0.000000
6.269100 0.000000
6.316100 0.000000
6.363000 0.000000
6.409900 0.000000
6.456800 0.000000
6.503800 0.000000
6.550700 0.022100
6.597600 0.342500
6.644500 0.867900
6.691500 1.578800
6.738400 2.495000
6.785300 2.825000
6.832200 3.316200
6.879200 4.374500
6.926100 5.801600
6.973000 9.377100
7.019900 5.174500
7.066900 4.770100
7.113800 3.494800
7.160700 4.595200
7.207600 4.840000
7.254600 4.951800
7.301500 5.072900
7.348400 5.293600
7.395300 5.550900
7.442300 4.155600
7.489200 2.112100
7.536100 1.345500
7.583000 1.172700
7.630000 0.072300
7.676900 0.000000
7.723800 0.000000
7.770700 0.000000
7.817700 0.000000
7.864600 0.000000
7.911500 0.000000
7.958400 0.000000
8.005400 0.000000
8.052300 0.000000
8.099200 0.000000
8.146100 0.000000
8.193100 0.000000
8.240000 0.000000
8.286900 0.000000
8.333800 0.000000
8.380800 0.000000
8.427700 0.000000
8.474600 0.000000
8.521500 0.000000
8.568500 0.000000
8.615400 0.000000
8.662300 0.000000
8.709200 0.002800
8.756200 0.007500
8.803100 0.012900
8.850000 0.019200
8.896900 0.026200
8.943900 0.034000
8.990800 0.042600
9.037700 0.051900
9.084600 0.061600
9.131600 0.071400
9.178500 0.081400
9.225400 0.090300
9.272300 0.093300
9.319300 0.095600
9.366200 0.097300
9.413100 0.099800
9.460000 0.105200
9.507000 0.110700
9.553900 0.116300
9.600800 0.122000
9.647700 0.127700
9.694700 0.133500
9.741600 0.139200
9.788500 0.144800
9.835400 0.150400
9.882400 0.156200
9.929300 0.162500
9.976200 0.169000
10.023100 0.175600
10.070100 0.182300
10.117000 0.189100
10.163900 0.196000
10.210800 0.203000
10.257800 0.210100
10.304700 0.217400
10.351600 0.227100
10.398500 0.238300
10.445500 0.250400
10.492400 0.263300
10.539300 0.274900
10.586300 0.285100
10.633200 0.294500
10.680100 0.303100
10.727000 0.311100
10.774000 0.318300
10.820900 0.324800
10.867800 0.330700
10.914700 0.335800
10.961700 0.340300
11.008600 0.347700
11.055500 0.356100
11.102400 0.364500
11.149400 0.372900
11.196300 0.381400
11.243200 0.389900
11.290100 0.398500
11.337100 0.407200
11.384000 0.415900
11.430900 0.431200
11.477800 0.444900
11.524800 0.457200
11.571700 0.469900
11.618600 0.483000
11.665500 0.497100
11.712500 0.513600
11.759400 0.530800
11.806300 0.547600
11.853200 0.562700
11.900200 0.577600
11.947100 0.592600
11.994000 0.607900
12.040900 0.623600
12.087900 0.638100
12.134800 0.650700
12.181700 0.661400
12.228600 0.670700
12.275600 0.683000
12.322500 0.701000
12.369400 0.721200
12.416300 0.741700
12.463300 0.762400
12.510200 0.783800
12.557100 0.805700
12.604000 0.828400
12.651000 0.853900
12.697900 0.879800
12.744800 0.904600
12.791700 0.928700
12.838700 1.059000
12.885600 1.173400
12.932500 1.041700
12.979400 1.055700
13.026400 1.047600
13.073300 1.038500
13.120200 1.072100
13.167100 1.205500
13.214100 1.114800
13.261000 0.814000
13.307900 0.732200
13.354800 0.723800
13.401800 0.715600
13.448700 0.707600
13.495600 0.699900
13.542500 0.692400
13.589500 0.685200
13.636400 0.678200
13.683300 0.671400
13.730200 0.664800
13.777200 0.658900
13.824100 0.672800
13.871000 0.717400
13.917900 0.784600
13.964900 0.861300
14.011800 0.943600
14.058700 1.031200
14.105600 1.086300
14.152600 1.163500
14.199500 1.163800
14.246400 1.091500
14.293300 0.943400
14.340300 0.855000
14.387200 0.885500
14.434100 1.541200
14.481000 1.015200
14.528000 1.007600
14.574900 1.012600
14.621800 1.030900
14.668700 1.055400
14.715700 1.060700
14.762600 1.041900
14.809500 1.046400
14.856400 1.057100
14.903400 1.063600
14.950300 1.068700
14.997200 1.073400
15.044100 1.098800
15.091100 1.150300
15.138000 1.184400
15.184900 1.133700
15.231800 1.047900
15.278800 0.947800
15.325700 0.794600
15.372600 0.799700
15.419500 0.729800
15.466500 0.690300
15.513400 0.655700
15.560300 0.615100
15.607200 0.581200
15.654200 0.550400
15.701100 0.525600
15.748000 0.513300
15.794900 0.518600
15.841900 0.563500
15.888800 0.662600
15.935700 0.853600
15.982600 1.192500
16.029600 2.016000
16.076500 2.385100
16.123400 2.695700
16.170300 3.029900
16.217300 2.872000
16.264200 2.582600
16.311100 2.264500
16.358000 1.788200
16.405000 1.525300
16.451900 1.555400
16.498800 1.683800
16.545700 2.314700
16.592700 2.174500
16.639600 1.919300
16.686500 1.887500
16.733400 1.684200
16.780400 1.558300
16.827300 1.485400
16.874200 1.340600
16.921100 1.220900
16.968100 1.097100
17.015000 1.072300
17.061900 1.093900
17.108800 1.117200
17.155800 1.226900
17.202700 1.571600
17.249600 1.376200
17.296500 1.341100
17.343500 1.116900
17.390400 1.017100
17.437300 0.944700
17.484200 0.893000
17.531200 0.853100
17.578100 0.824700
17.625000 0.804900
17.671900 0.788200
17.718900 0.772700
17.765800 0.818000
17.812700 1.014200
17.859600 1.249800
17.906600 1.112600
17.953500 0.981800
18.000400 1.000900
18.047300 1.018800
18.094300 1.037300
18.141200 1.062800
18.188100 1.106200
18.235000 1.285700
18.282000 1.245100
18.328900 1.316900
18.375800 1.353400
18.422700 1.411300
18.469700 1.508800
18.516600 1.645700
18.563500 1.818500
18.610400 1.815400
18.657400 1.774800
18.704300 1.786700
18.751200 1.726600
18.798100 1.686400
18.845100 1.634300
18.892000 1.587400
18.938900 1.548500
18.985800 1.518300
19.032800 1.510200
19.079700 1.432800
19.126600 1.309500
19.173500 1.184400
19.220500 1.086500
19.267400 1.035900
19.314300 0.817000
19.361200 0.728900
19.408200 0.650100
19.455100 0.592900
19.502000 0.546600
19.548900 0.511800
19.595900 0.489300
19.642800 0.475900
19.689700 0.464500
19.736600 0.454200
19.783600 0.444600
19.830500 0.435200
19.877400 0.425900
19.924300 0.416900
19.971300 0.429200
20.018200 0.980600
20.065100 1.445700
20.112000 1.631900
20.159000 1.436900
20.205900 1.351200
20.252800 1.306000
20.299700 1.256500
20.346700 1.196300
20.393600 1.128900
20.440500 1.031600
20.487400 0.987300
20.534400 0.951400
20.581300 0.933700
20.628200 0.907100
20.675100 0.890000
20.722100 0.873100
20.769000 0.856900
20.815900 0.842300
20.862800 0.828500
20.909800 0.814100
20.956700 0.804900
21.003600 0.794400
21.050500 0.783200
21.097500 0.772200
21.144400 0.761100
21.191300 0.750100
21.238200 0.739200
21.285200 0.728300
21.332100 0.717700
21.379000 0.713200
21.425900 0.703900
21.472900 0.698900
21.519800 0.721800
21.566700 0.746300
21.613600 0.772600
21.660600 0.800800
21.707500 0.829900
21.754400 0.841200
21.801300 0.860000
21.848300 0.925000
21.895200 0.996000
21.942100 1.059600
21.989000 1.116100
22.036000 1.163000
22.082900 1.196600
22.129800 1.238800
22.176700 1.287700
22.223700 1.335300
22.270600 1.402200
22.317500 1.471900
22.364400 1.608200
22.411400 1.645900
22.458300 1.857200
22.505200 2.140100
22.552100 2.457700
22.599100 2.846700
22.646000 3.134800
22.692900 3.290000
22.739800 3.258300
22.786800 4.415100
22.833700 5.997000
22.880600 6.242900
22.927500 3.957600
22.974500 3.129800
23.021400 2.468500
23.068300 2.095300
23.115200 2.017600
23.162200 2.149600
23.209100 2.429100
23.256000 2.999000
23.302900 3.854200
23.349900 3.802300
23.396800 3.547100
23.443700 3.349400
23.490600 3.103100
23.537600 2.760000
23.584500 2.463600
23.631400 2.069900
23.678300 1.856100
23.725300 1.539600
23.772200 1.389500
23.819100 1.267500
23.866000 1.183900
23.913000 1.167000
23.959900 1.223500
24.006800 1.298200
24.053700 1.367700
24.100700 1.399300
24.147600 1.397500
24.194500 1.385500
24.241400 1.363900
24.288400 1.343900
24.335300 1.346000
24.382200 1.356200
24.429100 1.362900
24.476100 1.388200
24.523000 1.425500
24.569900 1.520400
24.616800 1.592100
24.663800 1.603300
24.710700 1.613400
24.757600 1.621400
24.804500 1.618900
24.851500 1.609300
24.898400 1.733700
24.945300 1.600400
24.992200 1.590300
25.039200 1.510200
25.086100 1.422000
25.133000 1.339400
25.179900 1.279500
25.226900 1.217500
25.273800 1.166700
25.320700 1.126800
25.367600 1.092400
25.414600 1.082700
25.461500 1.081000
25.508400 1.074400
25.555300 1.060100
25.602300 1.042400
25.649200 1.056200
25.696100 1.080200
25.743000 1.100400
25.790000 1.150100
25.836900 1.196700
25.883800 1.115100
25.930700 1.090100
25.977700 1.048800
26.024600 0.987300
26.071500 0.942700
26.118400 0.950200
26.165400 0.942000
26.212300 0.936400
26.259200 0.939000
26.306100 0.936800
26.353100 0.884100
26.400000 0.835900
26.446900 0.810900
26.493800 0.834400
26.540800 0.869800
26.587700 0.887300
26.634600 0.893900
26.681500 0.902200
26.728500 0.916600
26.775400 0.936900
26.822300 0.968300
26.869200 1.022500
26.916200 1.096100
26.963100 1.165100
27.010000 1.227800
27.056900 1.284400
27.103900 1.335300
27.150800 1.392900
27.197700 1.459700
27.244600 1.474000
27.291600 1.398500
27.338500 1.305400
27.385400 1.238200
27.432300 1.293300
27.479300 1.280700
27.526200 1.200200
27.573100 1.303100
27.620000 1.367000
27.667000 1.326600
27.713900 1.165400
27.760800 1.110200
27.807700 1.035900
27.854700 0.962000
27.901600 0.899900
27.948500 0.851200
27.995400 0.821100
28.042400 0.809700
28.089300 0.811700
28.136200 0.823300
28.183100 0.854800
28.230100 0.934800
28.277000 1.026200
28.323900 1.208800
28.370800 1.251400
28.417800 1.302600
28.464700 1.727600
28.511600 1.919400
28.558500 1.923600
28.605500 1.904000
28.652400 1.922300
28.699300 1.946000
28.746200 1.749800
28.793200 1.579700
28.840100 1.410200
28.887000 1.240100
28.933900 1.101900
28.980900 1.036800
29.027800 1.064000
29.074700 1.120000
29.121600 1.199600
29.168600 1.280000
29.215500 1.339800
29.262400 1.383500
29.309300 1.419700
29.356300 1.457600
29.403200 1.499000
29.450100 1.557400
29.497000 1.859200
29.544000 1.625200
29.590900 1.598100
29.637800 1.531000
29.684700 1.473800
29.731700 1.425500
29.778600 1.405900
29.825500 1.407200
29.872400 1.592500
29.919400 1.569500
29.966300 1.625400
30.013200 1.636600
30.060100 1.605300
30.107100 1.704400
30.154000 1.631100
30.200900 1.556500
30.247800 1.479400
30.294800 1.399900
30.341700 1.344600
30.388600 1.310400
30.435500 1.282800
30.482500 1.270400
30.529400 1.268200
30.576300 1.270700
30.623200 1.251400
30.670200 1.165400
30.717100 1.185900
30.764000 1.175400
30.810900 1.147700
30.857900 1.125700
30.904800 1.110900
30.951700 1.116400
30.998600 1.144800
31.045600 1.169300
31.092500 1.189900
31.139400 1.209000
31.186300 1.222100
31.233300 1.230200
31.280200 1.241800
31.327100 1.398200
31.374000 1.489200
31.421000 1.363800
31.467900 1.248600
31.514800 1.205400
31.561700 1.177300
31.608700 1.176500
31.655600 1.191600
31.702500 1.208200
31.749400 1.173700
31.796400 1.163800
31.843300 1.198000
31.890200 1.243300
31.937100 1.292500
31.984100 1.334700
32.031000 1.368400
32.077900 1.416800
32.124800 1.568200
32.171800 1.858400
32.218700 2.113900
32.265600 2.351600
32.312500 2.459100
32.359500 2.445900
32.406400 2.294800
32.453300 2.076800
32.500200 1.827200
32.547200 1.610800
32.594100 1.473200
32.641000 1.322300
32.687900 1.237900
32.734900 1.173900
32.781800 1.125700
32.828700 1.091700
32.875600 1.030300
32.922600 1.038300
32.969500 1.204900
33.016400 1.505900
33.063300 1.881800
33.110300 1.985300
33.157200 2.172400
33.204100 2.210200
33.251000 2.243600
33.298000 2.385100
33.344900 2.656800
33.391800 2.731000
33.438700 2.756900
33.485700 2.140700
33.532600 1.865300
33.579500 1.701300
33.626400 1.610200
33.673400 1.504800
33.720300 1.355900
33.767200 1.299600
33.814100 2.038500
33.861100 1.909500
33.908000 1.903400
33.954900 1.958500
34.001800 2.104200
34.048800 2.439300
34.095700 2.507900
34.142600 2.472300
34.189500 2.465400
34.236500 2.494500
34.283400 2.534000
34.330300 2.807300
34.377200 2.087800
34.424200 1.746200
34.471100 1.398100
34.518000 1.167800
34.564900 1.051100
34.611900 1.065100
34.658800 0.876200
34.705700 0.856400
34.752600 0.911900
34.799600 0.961000
34.846500 1.102500
34.893400 1.349700
34.940300 1.598100
34.987300 1.768800
35.034200 2.060400
35.081100 2.268900
35.128000 2.497100
35.175000 2.462300
35.221900 2.067100
35.268800 1.867200
35.315700 1.804500
35.362700 1.766400
35.409600 1.790700
35.456500 1.821800
35.503400 1.694900
35.550400 1.581500
35.597300 1.573500
35.644200 1.625900
35.691100 1.741600
35.738100 1.932300
35.785000 1.996100
35.831900 2.010900
35.878800 2.031900
35.925800 1.982800
35.972700 1.927000
36.019600 1.903500
36.066500 2.119300
36.113500 2.100300
36.160400 2.143700
36.207300 2.213400
36.254200 2.287500
36.301200 2.305700
36.348100 2.321600
36.395000 2.377800
36.441900 2.431500
36.488900 2.047800
36.535800 1.878500
36.582700 1.826200
36.629600 1.761700
36.676600 1.685700
36.723500 1.599500
36.770400 1.520000
36.817300 1.325500
36.864300 1.358200
36.911200 1.364300
36.958100 1.251600
37.005000 1.205400
37.052000 1.196900
37.098900 1.233400
37.145800 1.170100
37.192700 1.207100
37.239700 1.293700
37.286600 1.348900
37.333500 1.448200
37.380400 1.430100
37.427400 1.372200
37.474300 1.372500
37.521200 1.379300
37.568100 1.391000
37.615100 1.416900
37.662000 1.474200
37.708900 1.538500
37.755800 1.601600
37.802800 1.701400
37.849700 1.844300
37.896600 2.007000
37.943500 2.173200
37.990500 2.280000
38.037400 2.180900
38.084300 2.054700
38.131200 1.942000
38.178200 1.856400
38.225100 1.768500
38.272000 1.729300
38.318900 1.730300
38.365900 1.786900
38.412800 1.920500
38.459700 1.862800
38.506600 1.828100
38.553600 1.793000
38.600500 1.740200
38.647400 1.627400
38.694300 1.532300
38.741300 1.483100
38.788200 1.457500
38.835100 1.468300
38.882000 1.508100
38.929000 1.561300
38.975900 1.607500
39.022800 1.647400
39.069700 1.687800
39.116700 1.756500
39.163600 1.836200
39.210500 1.916900
39.257400 1.991300
39.304400 2.055300
39.351300 2.116200
39.398200 2.163800
39.445100 2.206900
39.492100 2.199600
39.539000 2.182700
39.585900 2.162400
39.632800 2.139600
39.679800 2.124700
39.726700 2.154300
39.773600 2.172500
39.820500 2.143200
39.867500 2.135900
39.914400 2.139700
39.961300 2.017600
40.008200 1.855900
40.055200 1.722300
40.102100 1.647500
40.149000 1.649700
40.195900 1.705400
40.242900 1.916400
40.289800 2.157300
40.336700 2.397500
40.383600 2.340200
40.430600 2.269200
40.477500 2.196200
40.524400 2.223500
40.571300 2.282900
40.618300 2.326200
40.665200 2.369400
40.712100 2.431400
40.759000 2.427800
40.806000 2.430600
40.852900 2.377600
40.899800 2.230800
40.946700 2.335000
40.993700 1.987500
41.040600 1.599800
41.087500 1.534200
41.134400 1.546200
41.181400 1.582600
41.228300 1.603700
41.275200 1.632600
41.322100 1.624900
41.369100 1.594100
41.416000 1.587500
41.462900 1.578000
41.509800 1.565600
41.556800 1.550900
41.603700 1.570700
41.650600 1.554900
41.697500 1.502000
41.744500 1.459900
41.791400 1.418600
41.838300 1.370600
41.885200 1.340500
41.932200 1.362400
41.979100 1.392300
42.026000 1.424900
42.072900 1.455400
42.119900 1.488700
42.166800 1.527800
42.213700 1.625300
42.260600 1.606500
42.307600 1.548900
42.354500 1.546900
42.401400 1.424600
42.448300 1.345900
42.495300 1.303100
42.542200 1.346700
42.589100 1.477000
42.636000 1.545900
42.683000 1.603200
42.729900 1.661000
42.776800 1.696400
42.823700 1.701700
42.870700 1.688300
42.917600 1.655300
42.964500 1.617800
43.011400 1.568000
43.058400 1.504600
43.105300 1.422400
43.152200 1.296400
43.199100 1.162300
43.246100 1.105900
43.293000 1.057600
43.339900 1.017300
43.386800 0.989100
43.433800 0.967200
43.480700 0.941000
43.527600 0.927400
43.574500 0.978900
43.621500 1.068100
43.668400 1.174200
43.715300 1.294100
43.762200 1.530000
43.809200 1.538600
43.856100 1.592400
43.903000 1.621000
43.949900 1.640200
43.996900 1.654000
44.043800 1.662600
44.090700 1.786300
44.137600 1.912300
44.184600 1.917700
44.231500 1.908500
44.278400 1.671300
44.325300 1.605100
44.372300 1.633900
44.419200 1.673000
44.466100 1.735000
44.513000 1.822200
44.560000 1.916000
44.606900 2.254200
44.653800 2.502100
44.700700 3.316700
44.747700 3.325200
44.794600 2.318300
44.841500 2.126600
44.888400 2.070300
44.935400 2.022200
44.982300 1.970300
45.029200 1.921200
45.076100 1.955100
45.123100 1.953700
45.170000 2.042800
45.216900 2.159300
45.263800 2.232000
45.310800 2.287800
45.357700 2.393200
45.404600 2.492600
45.451500 2.648600
45.498500 2.980100
45.545400 3.702400
45.592300 4.360200
45.639200 3.664700
45.686200 3.397500
45.733100 2.913300
45.780000 2.574600
45.826900 2.603600
45.873900 1.952600
45.920800 1.956800
45.967700 2.103500
46.014600 2.707700
46.061600 2.748100
46.108500 2.256800
46.155400 2.459400
46.202300 2.325100
46.249300 2.310000
46.296200 2.279400
46.343100 2.229300
46.390000 2.169600
46.437000 2.101600
46.483900 2.038600
46.530800 2.001700
46.577700 2.035900
46.624700 2.086500
46.671600 2.070300
46.718500 2.012400
46.765400 1.889600
46.812400 1.766100
46.859300 1.792200
46.906200 1.842500
46.953100 1.901400
47.000100 1.946800
47.047000 1.969200
47.093900 2.017300
47.140800 2.063500
47.187800 2.121800
47.234700 2.164300
47.281600 2.180400
47.328500 2.232100
47.375500 2.139700
47.422400 2.097500
47.469300 2.214000
47.516200 2.214300
47.563200 2.264800
47.610100 2.495500
47.657000 2.806200
47.703900 3.288600
47.750900 3.423000
47.797800 2.859000
47.844700 2.741600
47.891600 2.649200
47.938600 2.663300
47.985500 2.846800
48.032400 2.807100
48.079300 2.657700
48.126300 2.577700
48.173200 2.412800
48.220100 2.424100
48.267000 2.437200
48.314000 2.430400
48.360900 2.409900
48.407800 2.301100
48.454700 2.149100
48.501700 1.976700
48.548600 1.883600
48.595500 1.804100
48.642400 1.747500
48.689400 1.658900
48.736300 1.613900
48.783200 1.641800
48.830100 1.642600
48.877100 1.589300
48.924000 1.451800
48.970900 1.377500
49.017800 1.535300
49.064800 1.789400
49.111700 2.069000
49.158600 2.344800
49.205500 2.361000
49.252500 2.351300
49.299400 2.327400
49.346300 2.282800
49.393200 2.212600
49.440200 2.235200
49.487100 2.244200
49.534000 2.177800
49.580900 2.123900
49.627900 2.079400
49.674800 2.250600
49.721700 3.054000
49.768600 2.059300
49.815600 2.105200
49.862500 2.030200
49.909400 2.018900
49.956300 1.917900
50.003300 1.827400
50.050200 1.744400
50.097100 1.747900
50.144000 1.970200
50.191000 2.012500
50.237900 2.014400
50.284800 2.022400
50.331700 2.018900
50.378700 2.002500
50.425600 1.945300
50.472500 1.847800
50.519400 1.738000
50.566400 1.611300
50.613300 1.498000
50.660200 1.378400
50.707100 1.275100
50.754100 1.206300
50.801000 1.157500
50.847900 1.125500
50.894800 1.127600
50.941800 1.159300
50.988700 1.190200
51.035600 1.002900
51.082500 0.952100
51.129500 0.909200
51.176400 0.852700
51.223300 0.777400
51.270200 0.714400
51.317200 0.668200
51.364100 0.625200
51.411000 0.580100
51.457900 0.535800
51.504900 0.495400
51.551800 0.458800
51.598700 0.424100
51.645600 0.379000
51.692600 0.333500
51.739500 0.287500
51.786400 0.241000
51.833300 0.195100
51.880300 0.180600
51.927200 0.167600
51.974100 0.155800
52.021000 0.145500
52.068000 0.136400
52.114900 0.128700
52.161800 0.122200
52.208700 0.116200
52.255700 0.110300
52.302600 0.104500
52.349500 0.098800
52.396400 0.093300
52.443400 0.087800
52.490300 0.082400
52.537200 0.077200
52.584100 0.072000
52.631100 0.066900
52.678000 0.061800
52.724900 0.056600
52.771800 0.051500
52.818800 0.046300
52.865700 0.041100
52.912600 0.035900
52.959500 0.030700
53.006500 0.025500
53.053400 0.020200
53.100300 0.015000
53.147200 0.009700
53.194200 0.004300
53.241100 0.000100
53.288000 0.000000
53.334900 0.000000
53.381900 0.000000
53.428800 0.000000
53.475700 0.000000
53.522600 0.000000
53.569600 0.000000
53.616500 0.000000
53.663400 0.000000
53.710300 0.000000
53.757300 0.000000
53.804200 0.000000
53.851100 0.000000
53.898000 0.000000
53.945000 0.000000
53.991900 0.000000
54.038800 0.000000
54.085700 0.000000
54.132700 0.000000
54.179600 0.000000
54.226500 0.000000
54.273400 0.000000
54.320400 0.000000
54.367300 0.000000
54.414200 0.000000
54.461100 0.000000
54.508100 0.000000
54.555000 0.000000
54.601900 0.000000
54.648800 0.000000
54.695800 0.000000
54.742700 0.000000
54.789600 0.000000
54.836500 0.000000
54.883500 0.000000
54.930400 0.000000
54.977300 0.000000
55.024200 0.000000
55.071200 0.000000
55.118100 0.000000
55.165000 0.000000
55.211900 0.000000
55.258900 0.000000
55.305800 0.000000
55.352700 0.000000
55.399600 0.000000
55.446600 0.000000
55.493500 0.000000
55.540400 0.000000
55.587300 0.000000
55.634300 0.000000
55.681200 0.000000
55.728100 0.000000
55.775000 0.000000
55.822000 0.000000
55.868900 0.000000
55.915800 0.000000
55.962700 0.000000
56.009700 0.000000
56.056600 0.000000
56.103500 0.000000
56.150400 0.000000
56.197400 0.000000
56.244300 0.000000
56.291200 0.000000
56.338100 0.000000
56.385100 0.000000
56.432000 0.000000
56.478900 0.000000
56.525800 0.000000
56.572800 0.000000
56.619700 0.000000
56.666600 0.000000
56.713500 0.000000
56.760500 0.000000
56.807400 0.000000
56.854300 0.000000
56.901200 0.000000
56.948200 0.000000
56.995100 0.000000
57.042000 0.000000
57.088900 0.000000
57.135900 0.000000
57.182800 0.000000
57.229700 0.000000
57.276600 0.000000
57.323600 0.000000
57.370500 0.000000
57.417400 0.000000
57.464300 0.000000
57.511300 0.000000
e
