set title 'mp-1217441 - Density of States'
set xlabel 'Energy (eV)'
set ylabel 'DOS (states/eV)'
set grid
set xrange [-10:10]
set yrange [0:15.672]
set xzeroaxis lt -1
set terminal png size 800,600
set output 'mp-1217441_dos_gnuplot.png'
plot '-' using 1:2 with lines title 'DOS'
-33.734200 0.000000
-33.700400 0.000000
-33.666500 0.000000
-33.632600 0.000000
-33.598800 0.000000
-33.564900 0.000000
-33.531000 0.000000
-33.497100 0.000000
-33.463300 0.000000
-33.429400 0.000000
-33.395500 0.000000
-33.361600 0.000000
-33.327800 0.000000
-33.293900 0.000000
-33.260000 0.000000
-33.226200 0.000000
-33.192300 0.000000
-33.158400 0.000000
-33.124500 0.000000
-33.090700 0.000000
-33.056800 0.000000
-33.022900 0.000000
-32.989000 0.000000
-32.955200 0.000000
-32.921300 0.000000
-32.887400 0.000000
-32.853500 0.000000
-32.819700 0.000000
-32.785800 0.000000
-32.751900 0.000000
-32.718100 0.000000
-32.684200 0.000000
-32.650300 0.000000
-32.616400 0.000000
-32.582600 0.000000
-32.548700 0.000000
-32.514800 0.000000
-32.480900 0.000000
-32.447100 0.000000
-32.413200 0.000000
-32.379300 0.000000
-32.345500 0.000000
-32.311600 0.000000
-32.277700 0.000000
-32.243800 0.000000
-32.210000 0.000000
-32.176100 0.000000
-32.142200 0.000000
-32.108300 0.000000
-32.074500 0.000000
-32.040600 0.000000
-32.006700 0.000000
-31.972800 0.000000
-31.939000 0.000000
-31.905100 0.000000
-31.871200 0.000000
-31.837400 0.000000
-31.803500 0.000000
-31.769600 0.000000
-31.735700 0.000000
-31.701900 0.000000
-31.668000 0.000000
-31.634100 0.000000
-31.600200 0.000000
-31.566400 0.000000
-31.532500 0.000000
-31.498600 0.000000
-31.464800 0.000000
-31.430900 0.000000
-31.397000 0.000000
-31.363100 0.000000
-31.329300 0.000000
-31.295400 0.000000
-31.261500 0.000000
-31.227600 0.000000
-31.193800 0.000000
-31.159900 0.000000
-31.126000 0.000000
-31.092200 0.000000
-31.058300 0.000000
-31.024400 0.000000
-30.990500 0.000000
-30.956700 0.000000
-30.922800 0.000000
-30.888900 0.000000
-30.855000 0.000000
-30.821200 0.000000
-30.787300 0.000000
-30.753400 0.000000
-30.719500 0.000000
-30.685700 0.000000
-30.651800 12.110600
-30.617900 6.788800
-30.584100 9.779700
-30.550200 28.236500
-30.516300 38.055800
-30.482400 29.236800
-30.448600 19.251400
-30.414700 20.719800
-30.380800 13.444500
-30.346900 29.609500
-30.313100 9.539600
-30.279200 17.516100
-30.245300 37.668900
-30.211500 40.778700
-30.177600 54.155800
-30.143700 22.042100
-30.109800 39.679000
-30.076000 23.684500
-30.042100 27.494300
-30.008200 26.257300
-29.974300 33.895200
-29.940500 33.347200
-29.906600 26.665700
-29.872700 39.001800
-29.838900 37.063300
-29.805000 31.953000
-29.771100 13.381000
-29.737200 8.475100
-29.703400 6.260100
-29.669500 0.000000
-29.635600 0.000000
-29.601700 0.000000
-29.567900 0.000000
-29.534000 0.000000
-29.500100 0.000000
-29.466200 0.000000
-29.432400 0.000000
-29.398500 0.000000
-29.364600 0.000000
-29.330800 0.000000
-29.296900 0.000000
-29.263000 0.000000
-29.229100 0.000000
-29.195300 0.000000
-29.161400 0.000000
-29.127500 0.000000
-29.093600 0.000000
-29.059800 0.000000
-29.025900 0.000000
-28.992000 0.000000
-28.958200 0.000000
-28.924300 0.000000
-28.890400 0.000000
-28.856500 0.000000
-28.822700 0.000000
-28.788800 0.000000
-28.754900 0.000000
-28.721000 0.000000
-28.687200 0.000000
-28.653300 0.000000
-28.619400 0.000000
-28.585500 0.000000
-28.551700 0.000000
-28.517800 0.000000
-28.483900 0.000000
-28.450100 0.000000
-28.416200 0.000000
-28.382300 0.000000
-28.348400 0.000000
-28.314600 0.000000
-28.280700 0.000000
-28.246800 0.000000
-28.212900 0.000000
-28.179100 0.000000
-28.145200 0.000000
-28.111300 0.000000
-28.077500 0.000000
-28.043600 0.000000
-28.009700 0.000000
-27.975800 0.000000
-27.942000 0.000000
-27.908100 0.000000
-27.874200 0.000000
-27.840300 0.000000
-27.806500 0.000000
-27.772600 0.000000
-27.738700 0.000000
-27.704900 0.000000
-27.671000 0.000000
-27.637100 0.000000
-27.603200 0.000000
-27.569400 0.000000
-27.535500 0.000000
-27.501600 0.000000
-27.467700 0.000000
-27.433900 0.000000
-27.400000 0.000000
-27.366100 0.000000
-27.332200 0.000000
-27.298400 0.000000
-27.264500 0.000000
-27.230600 0.000000
-27.196800 0.000000
-27.162900 0.000000
-27.129000 0.000000
-27.095100 0.000000
-27.061300 0.000000
-27.027400 0.000000
-26.993500 0.000000
-26.959600 0.000000
-26.925800 0.000000
-26.891900 0.000000
-26.858000 0.000000
-26.824200 0.000000
-26.790300 0.000000
-26.756400 0.000000
-26.722500 0.000000
-26.688700 0.000000
-26.654800 0.000000
-26.620900 0.000000
-26.587000 0.000000
-26.553200 0.000000
-26.519300 0.000000
-26.485400 0.000000
-26.451500 0.000000
-26.417700 0.000000
-26.383800 0.000000
-26.349900 0.000000
-26.316100 0.000000
-26.282200 0.000000
-26.248300 0.000000
-26.214400 0.000000
-26.180600 0.000000
-26.146700 0.000000
-26.112800 0.000000
-26.078900 0.000000
-26.045100 0.000000
-26.011200 0.000000
-25.977300 0.000000
-25.943500 0.000000
-25.909600 0.000000
-25.875700 0.000000
-25.841800 0.000000
-25.808000 0.000000
-25.774100 0.000000
-25.740200 0.000000
-25.706300 0.000000
-25.672500 0.000000
-25.638600 0.000000
-25.604700 0.000000
-25.570900 0.000000
-25.537000 0.000000
-25.503100 0.000000
-25.469200 0.000000
-25.435400 0.000000
-25.401500 0.000000
-25.367600 0.000000
-25.333700 0.000000
-25.299900 0.000000
-25.266000 0.000000
-25.232100 0.000000
-25.198200 0.000000
-25.164400 0.000000
-25.130500 0.000000
-25.096600 0.000000
-25.062800 0.000000
-25.028900 0.000000
-24.995000 0.000000
-24.961100 0.000000
-24.927300 0.000000
-24.893400 0.000000
-24.859500 0.000000
-24.825600 0.000000
-24.791800 0.000000
-24.757900 0.000000
-24.724000 0.000000
-24.690200 0.000000
-24.656300 0.000000
-24.622400 0.000000
-24.588500 0.000000
-24.554700 0.000000
-24.520800 0.000000
-24.486900 0.000000
-24.453000 0.000000
-24.419200 0.000000
-24.385300 0.000000
-24.351400 0.000000
-24.317600 0.000000
-24.283700 0.000000
-24.249800 0.000000
-24.215900 0.000000
-24.182100 0.000000
-24.148200 0.000000
-24.114300 0.000000
-24.080400 0.000000
-24.046600 0.000000
-24.012700 0.000000
-23.978800 0.000000
-23.944900 0.000000
-23.911100 0.000000
-23.877200 0.000000
-23.843300 0.000000
-23.809500 0.000000
-23.775600 0.000000
-23.741700 0.000000
-23.707800 0.000000
-23.674000 0.000000
-23.640100 0.000000
-23.606200 0.000000
-23.572300 0.000000
-23.538500 0.000000
-23.504600 0.000000
-23.470700 0.000000
-23.436900 0.000000
-23.403000 0.000000
-23.369100 0.000000
-23.335200 0.000000
-23.301400 0.000000
-23.267500 0.000000
-23.233600 0.000000
-23.199700 0.000000
-23.165900 0.000000
-23.132000 0.000000
-23.098100 0.000000
-23.064200 0.000000
-23.030400 0.000000
-22.996500 0.000000
-22.962600 0.000000
-22.928800 0.000000
-22.894900 0.000000
-22.861000 0.000000
-22.827100 0.000000
-22.793300 0.000000
-22.759400 0.000000
-22.725500 0.000000
-22.691600 0.000000
-22.657800 0.000000
-22.623900 0.000000
-22.590000 0.000000
-22.556200 0.000000
-22.522300 0.000000
-22.488400 0.000000
-22.454500 0.000000
-22.420700 0.000000
-22.386800 0.000000
-22.352900 0.000000
-22.319000 0.000000
-22.285200 0.000000
-22.251300 0.000000
-22.217400 0.000000
-22.183600 0.000000
-22.149700 0.000000
-22.115800 0.000000
-22.081900 0.000000
-22.048100 0.000000
-22.014200 0.000000
-21.980300 0.000000
-21.946400 0.000000
-21.912600 0.000000
-21.878700 0.000000
-21.844800 0.000000
-21.810900 0.000000
-21.777100 0.000000
-21.743200 0.000000
-21.709300 0.000000
-21.675500 0.000000
-21.641600 0.000000
-21.607700 0.000000
-21.573800 0.000000
-21.540000 0.000000
-21.506100 0.000000
-21.472200 0.000000
-21.438300 0.000000
-21.404500 0.000000
-21.370600 0.000000
-21.336700 0.000000
-21.302900 0.000000
-21.269000 0.000000
-21.235100 0.000000
-21.201200 0.000000
-21.167400 0.000000
-21.133500 0.000000
-21.099600 0.000000
-21.065700 0.000000
-21.031900 0.000000
-20.998000 0.000000
-20.964100 0.000000
-20.930200 0.000000
-20.896400 0.000000
-20.862500 0.000000
-20.828600 0.000000
-20.794800 0.000000
-20.760900 0.000000
-20.727000 0.000000
-20.693100 0.000000
-20.659300 0.000000
-20.625400 0.000000
-20.591500 0.000000
-20.557600 0.000000
-20.523800 0.000000
-20.489900 0.000000
-20.456000 0.000000
-20.422200 0.000000
-20.388300 0.000000
-20.354400 0.000000
-20.320500 0.000000
-20.286700 0.000000
-20.252800 0.000000
-20.218900 0.000000
-20.185000 0.000000
-20.151200 0.000000
-20.117300 0.000000
-20.083400 0.000000
-20.049600 0.000000
-20.015700 0.000000
-19.981800 0.000000
-19.947900 0.000000
-19.914100 0.000000
-19.880200 0.000000
-19.846300 0.000000
-19.812400 0.000000
-19.778600 0.000000
-19.744700 0.000000
-19.710800 0.000000
-19.676900 0.000000
-19.643100 0.000000
-19.609200 0.000000
-19.575300 0.000000
-19.541500 0.000000
-19.507600 0.000000
-19.473700 0.000000
-19.439800 0.000000
-19.406000 0.000000
-19.372100 0.000000
-19.338200 0.000000
-19.304300 0.000000
-19.270500 0.000000
-19.236600 0.000000
-19.202700 0.000000
-19.168900 0.000000
-19.135000 0.000000
-19.101100 0.000000
-19.067200 0.000000
-19.033400 0.000000
-18.999500 0.000000
-18.965600 0.000000
-18.931700 0.000000
-18.897900 0.000000
-18.864000 0.000000
-18.830100 0.000000
-18.796300 0.000000
-18.762400 0.000000
-18.728500 0.000000
-18.694600 0.000000
-18.660800 0.000000
-18.626900 0.000000
-18.593000 0.000000
-18.559100 0.000000
-18.525300 0.000000
-18.491400 0.000000
-18.457500 0.000000
-18.423600 0.000000
-18.389800 0.000000
-18.355900 0.000000
-18.322000 0.000000
-18.288200 0.000000
-18.254300 0.000000
-18.220400 0.000000
-18.186500 0.000000
-18.152700 0.000000
-18.118800 0.000000
-18.084900 0.000000
-18.051000 0.000000
-18.017200 0.000000
-17.983300 0.000000
-17.949400 0.000000
-17.915600 0.000000
-17.881700 0.000000
-17.847800 0.000000
-17.813900 0.000000
-17.780100 0.000000
-17.746200 0.000000
-17.712300 0.000000
-17.678400 0.000000
-17.644600 0.000000
-17.610700 0.000000
-17.576800 0.000000
-17.542900 0.000000
-17.509100 0.000000
-17.475200 0.000000
-17.441300 0.000000
-17.407500 0.000000
-17.373600 0.000000
-17.339700 0.000000
-17.305800 0.000000
-17.272000 0.000000
-17.238100 0.000000
-17.204200 0.000000
-17.170300 0.000000
-17.136500 0.000000
-17.102600 0.000000
-17.068700 0.000000
-17.034900 0.000000
-17.001000 0.000000
-16.967100 0.000000
-16.933200 0.000000
-16.899400 0.000000
-16.865500 0.000000
-16.831600 0.000000
-16.797700 0.000000
-16.763900 0.000000
-16.730000 0.000000
-16.696100 0.000000
-16.662300 0.000000
-16.628400 0.000000
-16.594500 0.000000
-16.560600 0.000000
-16.526800 0.000000
-16.492900 0.000000
-16.459000 0.000000
-16.425100 0.000000
-16.391300 0.000000
-16.357400 0.000000
-16.323500 0.000000
-16.289600 0.000000
-16.255800 0.000000
-16.221900 0.000000
-16.188000 0.000000
-16.154200 0.000000
-16.120300 0.000000
-16.086400 0.000000
-16.052500 0.000000
-16.018700 0.000000
-15.984800 0.000000
-15.950900 0.000000
-15.917000 0.000000
-15.883200 0.000000
-15.849300 0.000000
-15.815400 0.000000
-15.781600 0.000000
-15.747700 0.000000
-15.713800 0.000000
-15.679900 0.000000
-15.646100 0.000000
-15.612200 0.000000
-15.578300 0.000000
-15.544400 0.000000
-15.510600 0.000000
-15.476700 0.000000
-15.442800 0.000000
-15.409000 0.000000
-15.375100 0.000000
-15.341200 0.000000
-15.307300 0.000000
-15.273500 0.000000
-15.239600 0.000000
-15.205700 0.000000
-15.171800 0.000000
-15.138000 0.000000
-15.104100 0.000000
-15.070200 0.000000
-15.036300 0.000000
-15.002500 0.000000
-14.968600 0.000000
-14.934700 0.000000
-14.900900 0.000000
-14.867000 0.000000
-14.833100 0.000000
-14.799200 0.000000
-14.765400 0.000000
-14.731500 0.000000
-14.697600 0.000000
-14.663700 0.000000
-14.629900 0.000000
-14.596000 0.000000
-14.562100 0.000000
-14.528300 0.000000
-14.494400 0.000000
-14.460500 0.000000
-14.426600 0.000000
-14.392800 0.000000
-14.358900 0.000000
-14.325000 0.000000
-14.291100 0.000000
-14.257300 0.000000
-14.223400 0.000000
-14.189500 0.000000
-14.155600 0.000000
-14.121800 0.000000
-14.087900 0.000000
-14.054000 0.000000
-14.020200 0.000000
-13.986300 0.000000
-13.952400 0.000000
-13.918500 0.000000
-13.884700 0.000000
-13.850800 0.000000
-13.816900 0.000000
-13.783000 0.000000
-13.749200 0.000000
-13.715300 0.000000
-13.681400 0.000000
-13.647600 0.000000
-13.613700 0.000000
-13.579800 0.000000
-13.545900 0.000000
-13.512100 0.000000
-13.478200 0.000000
-13.444300 0.000000
-13.410400 0.000000
-13.376600 0.000000
-13.342700 0.000000
-13.308800 0.000000
-13.275000 0.000000
-13.241100 0.000000
-13.207200 0.000000
-13.173300 0.000000
-13.139500 0.000000
-13.105600 0.000000
-13.071700 0.000000
-13.037800 0.000000
-13.004000 0.000000
-12.970100 0.000000
-12.936200 0.000000
-12.902300 0.000000
-12.868500 0.000000
-12.834600 0.000000
-12.800700 0.000000
-12.766900 0.000000
-12.733000 0.000000
-12.699100 0.000000
-12.665200 0.000000
-12.631400 0.000000
-12.597500 0.000000
-12.563600 0.000000
-12.529700 0.000000
-12.495900 0.000000
-12.462000 0.000000
-12.428100 0.000000
-12.394300 0.000000
-12.360400 0.000000
-12.326500 0.000000
-12.292600 0.000000
-12.258800 0.000000
-12.224900 0.000000
-12.191000 0.000000
-12.157100 0.000000
-12.123300 0.000000
-12.089400 0.000000
-12.055500 0.000000
-12.021600 0.000000
-11.987800 0.000000
-11.953900 0.000000
-11.920000 0.000000
-11.886200 0.000000
-11.852300 0.000000
-11.818400 0.000000
-11.784500 0.000000
-11.750700 0.000000
-11.716800 0.000000
-11.682900 0.000000
-11.649000 0.000000
-11.615200 0.000000
-11.581300 0.000000
-11.547400 0.000000
-11.513600 0.000000
-11.479700 0.000000
-11.445800 0.000000
-11.411900 0.000000
-11.378100 0.000000
-11.344200 0.000000
-11.310300 0.000000
-11.276400 0.000000
-11.242600 0.000000
-11.208700 0.000000
-11.174800 0.000000
-11.141000 0.000000
-11.107100 0.000000
-11.073200 0.000000
-11.039300 0.000000
-11.005500 0.000000
-10.971600 0.000000
-10.937700 0.000000
-10.903800 0.000000
-10.870000 0.000000
-10.836100 0.000000
-10.802200 0.000000
-10.768300 0.000000
-10.734500 0.000000
-10.700600 0.000000
-10.666700 0.000000
-10.632900 0.000000
-10.599000 0.000000
-10.565100 0.000000
-10.531200 0.000000
-10.497400 0.000000
-10.463500 0.000000
-10.429600 0.000000
-10.395700 0.000000
-10.361900 0.000000
-10.328000 0.000000
-10.294100 0.000000
-10.260300 0.000000
-10.226400 0.000000
-10.192500 0.000000
-10.158600 0.000000
-10.124800 0.000000
-10.090900 0.000000
-10.057000 0.000000
-10.023100 0.000000
-9.989300 0.000000
-9.955400 0.000000
-9.921500 0.000000
-9.887700 0.000000
-9.853800 0.000000
-9.819900 0.000000
-9.786000 0.000000
-9.752200 0.000000
-9.718300 0.000000
-9.684400 0.000000
-9.650500 0.000000
-9.616700 0.000000
-9.582800 0.000000
-9.548900 0.000000
-9.515000 0.000000
-9.481200 0.000000
-9.447300 0.000000
-9.413400 0.000000
-9.379600 0.000000
-9.345700 0.000000
-9.311800 0.000000
-9.277900 0.000000
-9.244100 0.000000
-9.210200 0.000000
-9.176300 0.000000
-9.142400 0.000000
-9.108600 0.000000
-9.074700 0.000000
-9.040800 0.000000
-9.007000 0.000000
-8.973100 0.000000
-8.939200 0.000000
-8.905300 0.000000
-8.871500 0.000000
-8.837600 0.000000
-8.803700 0.000000
-8.769800 0.000000
-8.736000 0.000000
-8.702100 0.000000
-8.668200 0.000000
-8.634300 0.000000
-8.600500 0.000000
-8.566600 0.000000
-8.532700 0.000000
-8.498900 0.000000
-8.465000 0.000000
-8.431100 0.000000
-8.397200 0.000000
-8.363400 0.000000
-8.329500 0.000000
-8.295600 0.000000
-8.261700 0.000000
-8.227900 0.000000
-8.194000 0.000000
-8.160100 0.000000
-8.126300 0.000000
-8.092400 0.000000
-8.058500 0.000000
-8.024600 0.000000
-7.990800 0.000000
-7.956900 0.000000
-7.923000 0.000000
-7.889100 0.000000
-7.855300 0.000000
-7.821400 0.000000
-7.787500 0.000000
-7.753700 0.000000
-7.719800 0.000000
-7.685900 0.000000
-7.652000 0.041000
-7.618200 0.152500
-7.584300 0.320800
-7.550400 0.490200
-7.516500 0.504500
-7.482700 0.446200
-7.448800 0.412300
-7.414900 0.430900
-7.381000 0.449500
-7.347200 0.468100
-7.313300 0.486700
-7.279400 0.524100
-7.245600 0.659600
-7.211700 0.864100
-7.177800 1.047900
-7.143900 1.209300
-7.110100 1.258900
-7.076200 1.224500
-7.042300 1.285100
-7.008400 1.345100
-6.974600 1.390400
-6.940700 1.414500
-6.906800 1.429100
-6.873000 1.460800
-6.839100 1.506500
-6.805200 1.583900
-6.771300 1.671200
-6.737500 1.750500
-6.703600 1.836300
-6.669700 1.923700
-6.635800 2.022700
-6.602000 2.123600
-6.568100 2.224000
-6.534200 2.324700
-6.500300 2.425400
-6.466500 2.526100
-6.432600 3.214000
-6.398700 4.228400
-6.364900 5.134000
-6.331000 6.482100
-6.297100 6.037400
-6.263200 6.200200
-6.229400 6.717100
-6.195500 6.690800
-6.161600 6.460900
-6.127700 7.462100
-6.093900 7.995800
-6.060000 6.656200
-6.026100 5.604100
-5.992300 5.395000
-5.958400 5.264500
-5.924500 3.196000
-5.890600 1.304300
-5.856800 1.244600
-5.822900 1.203000
-5.789000 1.211900
-5.755100 1.220900
-5.721300 1.229800
-5.687400 1.238800
-5.653500 1.247700
-5.619700 1.260300
-5.585800 1.508100
-5.551900 1.599200
-5.518000 1.690300
-5.484200 1.781400
-5.450300 1.872500
-5.416400 1.986000
-5.382500 2.951700
-5.348700 4.706700
-5.314800 5.058400
-5.280900 2.264400
-5.247000 2.460400
-5.213200 0.000000
-5.179300 0.000000
-5.145400 0.000000
-5.111600 0.000000
-5.077700 0.000000
-5.043800 0.000000
-5.009900 0.000000
-4.976100 0.000000
-4.942200 0.000000
-4.908300 0.000000
-4.874400 0.000000
-4.840600 0.000000
-4.806700 0.000000
-4.772800 0.000000
-4.739000 0.000000
-4.705100 0.000000
-4.671200 0.000000
-4.637300 0.000000
-4.603500 0.000000
-4.569600 0.000000
-4.535700 0.000000
-4.501800 0.000000
-4.468000 0.000000
-4.434100 0.000000
-4.400200 0.000000
-4.366400 0.000000
-4.332500 0.000000
-4.298600 0.000000
-4.264700 0.000000
-4.230900 0.000000
-4.197000 0.000000
-4.163100 0.000000
-4.129200 0.000000
-4.095400 0.000000
-4.061500 0.000000
-4.027600 0.000000
-3.993700 0.000000
-3.959900 0.000000
-3.926000 0.000000
-3.892100 0.000000
-3.858300 0.000000
-3.824400 0.000000
-3.790500 0.000000
-3.756600 0.000000
-3.722800 0.000000
-3.688900 0.000000
-3.655000 0.000000
-3.621100 0.000000
-3.587300 0.000000
-3.553400 0.000000
-3.519500 0.000000
-3.485700 0.000000
-3.451800 0.000000
-3.417900 0.000000
-3.384000 0.000000
-3.350200 0.000000
-3.316300 0.000000
-3.282400 0.000000
-3.248500 0.000000
-3.214700 0.000000
-3.180800 0.000000
-3.146900 0.000000
-3.113000 0.000000
-3.079200 0.000000
-3.045300 0.000000
-3.011400 0.000000
-2.977600 0.000000
-2.943700 0.000000
-2.909800 0.000000
-2.875900 0.000000
-2.842100 0.000000
-2.808200 0.000000
-2.774300 0.000000
-2.740400 0.000000
-2.706600 0.000000
-2.672700 0.000000
-2.638800 0.000000
-2.605000 0.000000
-2.571100 0.000000
-2.537200 0.000000
-2.503300 0.000000
-2.469500 0.000000
-2.435600 0.000000
-2.401700 0.000000
-2.367800 0.000000
-2.334000 0.000000
-2.300100 0.000000
-2.266200 0.000000
-2.232400 0.000000
-2.198500 0.000000
-2.164600 0.000000
-2.130700 0.000000
-2.096900 0.000000
-2.063000 0.000000
-2.029100 0.000000
-1.995200 0.000000
-1.961400 0.000000
-1.927500 0.000000
-1.893600 0.000000
-1.859700 0.000000
-1.825900 0.000000
-1.792000 0.000000
-1.758100 0.000000
-1.724300 0.000000
-1.690400 0.000000
-1.656500 0.000000
-1.622600 0.000000
-1.588800 0.000000
-1.554900 0.000000
-1.521000 0.000000
-1.487100 0.000000
-1.453300 0.000000
-1.419400 0.000000
-1.385500 0.000000
-1.351700 0.000000
-1.317800 0.000000
-1.283900 0.000000
-1.250000 0.000000
-1.216200 0.000000
-1.182300 0.000000
-1.148400 0.000000
-1.114500 0.000000
-1.080700 0.000000
-1.046800 0.000000
-1.012900 0.000000
-0.979000 0.000000
-0.945200 0.000000
-0.911300 0.000000
-0.877400 0.000000
-0.843600 0.000000
-0.809700 0.000000
-0.775800 0.000000
-0.741900 0.000000
-0.708100 0.000000
-0.674200 0.000000
-0.640300 0.000000
-0.606400 0.000000
-0.572600 0.000000
-0.538700 0.000000
-0.504800 0.000000
-0.471000 0.000000
-0.437100 0.000000
-0.403200 0.000000
-0.369300 0.000000
-0.335500 0.000000
-0.301600 0.000000
-0.267700 0.000000
-0.233800 0.000000
-0.200000 0.000000
-0.166100 0.000000
-0.132200 0.000000
-0.098400 0.000000
-0.064500 0.000000
-0.030600 0.000000
0.003300 0.000000
0.037100 0.000000
0.071000 0.000000
0.104900 0.000000
0.138800 0.000000
0.172600 0.000000
0.206500 0.000000
0.240400 0.000000
0.274300 0.000000
0.308100 0.000000
0.342000 0.000000
0.375900 0.000000
0.409700 0.000000
0.443600 0.000000
0.477500 0.000000
0.511400 0.000000
0.545200 0.000000
0.579100 0.000000
0.613000 0.000000
0.646900 0.000000
0.680700 0.000000
0.714600 0.000000
0.748500 0.000000
0.782300 0.000000
0.816200 0.000000
0.850100 0.000000
0.884000 0.012800
0.917800 0.036000
0.951700 0.436400
0.985600 0.558800
1.019500 0.624100
1.053300 0.763000
1.087200 0.904500
1.121100 1.142300
1.154900 0.994800
1.188800 1.042300
1.222700 1.071200
1.256600 1.096600
1.290400 1.150200
1.324300 1.198100
1.358200 1.234600
1.392100 1.263800
1.425900 1.494200
1.459800 1.591100
1.493700 1.686700
1.527600 1.817300
1.561400 1.966900
1.595300 2.132100
1.629200 2.317800
1.663000 2.527100
1.696900 2.797600
1.730800 3.199700
1.764700 3.747600
1.798500 4.106400
1.832400 4.354800
1.866300 5.672200
1.900200 5.455100
1.934000 5.846100
1.967900 5.191600
2.001800 5.442400
2.035600 5.411400
2.069500 5.571900
2.103400 5.580700
2.137300 6.513600
2.171100 6.328500
2.205000 4.435600
2.238900 4.226900
2.272800 4.303000
2.306600 4.628200
2.340500 5.184700
2.374400 6.020700
2.408300 7.047600
2.442100 9.118100
2.476000 4.935400
2.509900 4.298000
2.543700 4.102800
2.577600 3.717800
2.611500 4.137100
2.645400 4.852300
2.679200 5.913500
2.713100 8.187100
2.747000 8.956900
2.780900 5.870300
2.814700 2.972200
2.848600 3.247600
2.882500 3.376300
2.916300 3.598500
2.950200 3.910200
2.984100 3.920300
3.018000 4.021200
3.051800 4.213700
3.085700 4.602500
3.119600 4.509800
3.153500 4.513400
3.187300 4.330800
3.221200 4.232100
3.255100 4.398000
3.288900 4.581600
3.322800 4.623900
3.356700 4.962100
3.390600 5.244100
3.424400 5.093200
3.458300 3.888100
3.492200 3.949000
3.526100 3.986300
3.559900 4.751500
3.593800 4.694300
3.627700 4.772600
3.661600 4.954900
3.695400 6.099300
3.729300 6.291800
3.763200 6.983600
3.797000 6.577300
3.830900 5.868600
3.864800 5.215200
3.898700 5.078900
3.932500 5.148800
3.966400 5.414000
4.000300 5.679100
4.034200 5.512100
4.068000 5.217500
4.101900 5.207100
4.135800 5.335100
4.169600 5.532300
4.203500 5.622000
4.237400 5.582800
4.271300 5.253500
4.305100 4.988200
4.339000 4.814000
4.372900 4.810200
4.406800 5.009800
4.440600 5.006600
4.474500 4.683300
4.508400 4.425000
4.542200 4.530000
4.576100 5.058400
4.610000 5.559800
4.643900 6.169500
4.677700 5.601400
4.711600 4.504600
4.745500 3.516800
4.779400 3.073100
4.813200 2.923900
4.847100 3.229300
4.881000 2.868800
4.914900 2.607500
4.948700 2.511300
4.982600 3.072800
5.016500 2.751700
5.050300 2.529500
5.084200 2.482700
5.118100 2.338500
5.152000 1.918800
5.185800 1.343600
5.219700 2.013300
5.253600 3.095700
5.287500 4.701800
5.321300 7.331700
5.355200 8.591300
5.389100 9.991200
5.422900 5.413300
5.456800 4.561900
5.490700 5.888800
5.524600 3.994900
5.558400 2.669100
5.592300 1.459200
5.626200 1.191300
5.660100 1.181400
5.693900 1.703900
5.727800 3.519500
5.761700 5.677900
5.795600 14.247200
5.829400 10.147500
5.863300 6.997000
5.897200 3.431600
5.931000 3.405400
5.964900 3.601600
5.998800 3.910300
6.032700 5.476400
6.066500 5.845400
6.100400 5.759900
6.134300 5.528400
6.168200 6.100000
6.202000 7.035700
6.235900 7.270100
6.269800 5.209000
6.303600 4.022500
6.337500 3.003700
6.371400 2.157100
6.405300 1.652000
6.439100 1.302000
6.473000 1.038700
6.506900 0.922600
6.540800 0.840800
6.574600 0.778700
6.608500 0.735200
6.642400 0.692500
6.676200 0.645300
6.710100 1.403800
6.744000 2.744000
6.777900 3.337400
6.811700 2.949200
6.845600 2.700700
6.879500 2.568900
6.913400 2.589900
6.947200 3.069900
6.981100 3.126400
7.015000 3.384900
7.048900 3.255300
7.082700 3.085800
7.116600 4.333000
7.150500 5.068800
7.184300 4.919000
7.218200 5.561600
7.252100 6.783500
7.286000 7.207500
7.319800 6.331400
7.353700 4.924800
7.387600 4.030700
7.421500 3.349100
7.455300 2.876300
7.489200 2.665400
7.523100 2.754600
7.556900 4.227900
7.590800 5.668900
7.624700 6.106600
7.658600 6.070800
7.692400 6.484600
7.726300 5.185200
7.760200 4.651600
7.794100 4.254600
7.827900 3.988600
7.861800 4.558900
7.895700 5.803500
7.929600 5.220100
7.963400 5.691100
7.997300 6.000600
8.031200 6.692700
8.065000 6.607900
8.098900 6.740600
8.132800 6.611300
8.166700 5.027100
8.200500 4.375500
8.234400 4.070700
8.268300 5.594900
8.302200 4.908300
8.336000 4.366100
8.369900 4.324000
8.403800 4.609800
8.437600 4.196600
8.471500 4.025900
8.505400 4.370400
8.539300 5.217100
8.573100 5.166400
8.607000 6.508300
8.640900 6.412800
8.674800 5.658000
8.708600 6.329400
8.742500 5.611700
8.776400 4.728600
8.810200 4.265400
8.844100 4.027000
8.878000 3.805600
8.911900 3.943900
8.945700 4.177900
8.979600 3.899300
9.013500 3.915700
9.047400 3.922800
9.081200 3.925300
9.115100 4.053500
9.149000 4.032600
9.182900 3.747600
9.216700 3.731800
9.250600 3.721200
9.284500 3.784200
9.318300 3.929500
9.352200 4.069200
9.386100 4.206500
9.420000 4.345700
9.453800 4.445900
9.487700 4.832300
9.521600 4.210800
9.555500 4.306800
9.589300 4.403300
9.623200 4.388200
9.657100 4.312700
9.690900 4.268300
9.724800 4.266500
9.758700 4.505100
9.792600 4.735400
9.826400 4.865600
9.860300 4.961400
9.894200 5.046500
9.928100 5.134500
9.961900 5.293200
9.995800 5.571600
10.029700 5.936100
10.063500 6.366900
10.097400 6.963300
10.131300 7.277700
10.165200 6.696300
10.199000 6.218000
10.232900 5.833100
10.266800 5.596700
10.300700 5.089100
10.334500 5.125600
10.368400 5.803900
10.402300 6.821000
10.436200 7.343600
10.470000 7.122600
10.503900 6.699100
10.537800 6.643700
10.571600 6.726500
10.605500 6.894800
10.639400 7.070600
10.673300 6.951500
10.707100 7.017700
10.741000 6.902700
10.774900 6.903400
10.808800 7.159500
10.842600 7.481500
10.876500 7.221300
10.910400 7.092400
10.944200 6.671500
10.978100 8.506500
11.012000 5.968100
11.045900 5.685500
11.079700 5.945800
11.113600 5.852800
11.147500 5.239900
11.181400 5.051700
11.215200 5.134900
11.249100 5.343700
11.283000 5.202500
11.316900 5.964100
11.350700 5.731300
11.384600 7.009200
11.418500 7.043000
11.452300 6.756000
11.486200 6.140100
11.520100 6.059200
11.554000 6.032500
11.587800 6.520100
11.621700 7.001000
11.655600 5.762100
11.689500 5.125200
11.723300 5.040800
11.757200 4.875000
11.791100 5.933100
11.824900 6.433200
11.858800 6.319200
11.892700 5.769300
11.926600 5.579400
11.960400 4.927700
11.994300 4.333100
12.028200 4.611800
12.062100 4.718000
12.095900 4.226400
12.129800 3.879600
12.163700 3.877200
12.197500 4.058100
12.231400 4.050200
12.265300 3.831900
12.299200 3.568900
12.333000 3.739800
12.366900 3.973700
12.400800 4.473200
12.434700 4.513300
12.468500 4.278500
12.502400 3.923800
12.536300 3.377400
12.570200 3.214600
12.604000 3.107800
12.637900 3.061900
12.671800 3.284200
12.705600 3.584800
12.739500 3.517300
12.773400 3.503700
12.807300 3.633000
12.841100 4.280900
12.875000 4.770900
12.908900 3.859800
12.942800 3.747000
12.976600 3.073700
13.010500 2.800300
13.044400 2.563800
13.078200 2.457500
13.112100 2.417000
13.146000 2.594300
13.179900 3.303000
13.213700 4.870400
13.247600 4.020300
13.281500 4.348300
13.315400 3.867900
13.349200 3.675200
13.383100 3.479500
13.417000 3.481800
13.450900 3.545700
13.484700 3.516900
13.518600 3.446100
13.552500 3.195500
13.586300 2.906600
13.620200 2.721400
13.654100 2.687400
13.688000 2.489600
13.721800 2.136700
13.755700 1.921800
13.789600 1.829100
13.823500 1.743700
13.857300 1.604000
13.891200 1.538900
13.925100 1.536200
13.958900 1.581300
13.992800 1.608700
14.026700 2.022100
14.060600 2.059700
14.094400 2.357900
14.128300 2.216200
14.162200 2.611800
14.196100 2.541200
14.229900 3.006200
14.263800 2.485600
14.297700 1.852300
14.331500 1.559400
14.365400 0.660500
14.399300 0.368500
14.433200 0.373300
14.467000 0.379200
14.500900 0.386000
14.534800 0.393600
14.568700 0.402300
14.602500 0.412400
14.636400 0.424500
14.670300 0.439200
14.704200 0.454400
14.738000 0.468500
14.771900 0.481600
14.805800 0.494700
14.839600 0.508000
14.873500 0.521600
14.907400 0.535400
14.941300 0.549100
14.975100 0.563000
15.009000 0.578300
15.042900 0.596600
15.076800 0.616600
15.110600 0.638000
15.144500 0.661200
15.178400 0.686100
15.212200 0.699400
15.246100 0.705800
15.280000 0.712300
15.313900 0.715200
15.347700 0.718200
15.381600 0.720900
15.415500 0.722800
15.449400 0.724100
15.483200 0.725800
15.517100 0.727400
15.551000 0.729900
15.584800 0.731100
15.618700 0.730800
15.652600 0.765200
15.686500 0.821700
15.720300 0.675800
15.754200 0.590700
15.788100 0.568700
15.822000 0.559200
15.855800 0.553800
15.889700 0.552400
15.923600 0.553400
15.957500 0.556700
15.991300 0.561000
16.025200 0.566200
16.059100 0.571800
16.092900 0.574500
16.126800 0.580400
16.160700 0.590000
16.194600 0.601600
16.228400 0.615100
16.262300 0.630400
16.296200 0.647300
16.330100 0.666200
16.363900 0.688000
16.397800 0.712700
16.431700 0.740300
16.465500 0.771200
16.499400 0.805400
16.533300 0.845800
16.567200 0.892400
16.601000 0.969900
16.634900 1.012800
16.668800 1.036400
16.702700 1.053800
16.736500 1.072300
16.770400 1.092900
16.804300 1.112400
16.838200 1.138600
16.872000 1.155300
16.905900 1.181500
16.939800 1.223000
16.973600 1.278800
17.007500 1.352300
17.041400 1.449100
17.075300 1.532300
17.109100 1.589800
17.143000 1.619400
17.176900 1.638200
17.210800 1.650100
17.244600 1.655600
17.278500 1.652800
17.312400 1.646100
17.346200 1.658000
17.380100 1.677900
17.414000 1.700400
17.447900 1.732000
17.481700 1.745600
17.515600 1.722900
17.549500 1.701000
17.583400 1.691400
17.617200 1.701200
17.651100 1.596100
17.685000 1.559300
17.718800 1.585100
17.752700 1.647900
17.786600 1.755200
17.820500 1.871100
17.854300 1.992500
17.888200 2.188500
17.922100 2.341500
17.956000 2.389700
17.989800 2.414400
18.023700 2.419300
18.057600 2.445800
18.091500 2.506300
18.125300 2.646200
18.159200 2.932300
18.193100 3.116900
18.226900 2.672700
18.260800 2.432500
18.294700 2.243400
18.328600 2.110700
18.362400 1.977800
18.396300 1.845000
18.430200 1.735500
18.464100 1.664800
18.497900 1.517900
18.531800 1.388000
18.565700 1.339700
18.599500 1.297200
18.633400 1.254100
18.667300 1.210400
18.701200 1.164400
18.735000 1.783200
18.768900 1.496500
18.802800 1.458700
18.836700 1.549200
18.870500 1.702700
18.904400 1.853000
18.938300 2.041800
18.972100 2.307800
19.006000 2.541900
19.039900 2.703900
19.073800 2.825900
19.107600 2.847300
19.141500 2.896200
19.175400 2.896900
19.209300 2.994400
19.243100 3.042000
19.277000 2.843300
19.310900 1.876900
19.344800 1.552200
19.378600 1.475200
19.412500 1.416000
19.446400 1.347900
19.480200 1.245400
19.514100 1.188100
19.548000 1.145800
19.581900 1.125600
19.615700 1.185500
19.649600 1.462800
19.683500 1.404400
19.717400 1.226600
19.751200 1.162000
19.785100 1.131000
19.819000 1.114800
19.852800 1.133000
19.886700 1.191600
19.920600 1.372900
19.954500 1.924500
19.988300 2.226600
20.022200 2.499000
20.056100 2.989000
20.090000 4.307600
20.123800 7.536300
20.157700 6.530200
20.191600 6.252600
20.225500 7.274600
20.259300 7.269100
20.293200 2.699900
20.327100 2.545600
20.360900 2.340600
20.394800 2.113500
20.428700 1.889100
20.462600 1.753200
20.496400 1.674800
20.530300 1.625300
20.564200 1.690100
20.598100 1.693200
20.631900 1.714800
20.665800 1.665900
20.699700 1.633600
20.733500 1.585200
20.767400 1.549500
20.801300 1.518000
20.835200 1.479000
20.869000 1.446400
20.902900 1.416700
20.936800 1.396700
20.970700 1.943200
21.004500 1.156100
21.038400 1.176100
21.072300 1.235000
21.106100 1.316700
21.140000 1.236500
21.173900 1.268100
21.207800 1.309800
21.241600 1.397600
21.275500 1.614800
21.309400 2.287600
21.343300 2.646900
21.377100 2.554100
21.411000 2.256600
21.444900 2.160800
21.478800 2.146400
21.512600 2.163200
21.546500 2.092700
21.580400 2.018900
21.614200 2.022500
21.648100 2.060000
21.682000 2.100500
21.715900 2.163300
21.749700 2.255000
21.783600 2.247600
21.817500 2.227200
21.851400 2.208400
21.885200 2.175000
21.919100 2.142000
21.953000 2.149800
21.986800 2.203000
22.020700 2.292800
22.054600 2.432200
22.088500 2.414600
22.122300 2.401500
22.156200 2.382400
22.190100 2.323500
22.224000 2.141900
22.257800 1.938000
22.291700 1.905900
22.325600 2.039200
22.359500 2.164800
22.393300 2.296300
22.427200 2.388500
22.461100 2.418600
22.494900 2.459200
22.528800 2.538500
22.562700 2.639500
22.596600 3.291700
22.630400 3.458500
22.664300 3.102900
22.698200 3.098500
22.732100 3.163500
22.765900 3.213400
22.799800 2.900700
22.833700 2.858200
22.867500 2.819000
22.901400 2.653300
22.935300 2.518500
22.969200 2.525500
23.003000 2.538300
23.036900 2.565300
23.070800 2.571000
23.104700 2.525300
23.138500 2.477000
23.172400 2.527700
23.206300 2.613500
23.240100 2.691200
23.274000 2.887500
23.307900 3.063600
23.341800 3.153700
23.375600 3.229200
23.409500 3.292600
23.443400 3.339500
23.477300 3.410700
23.511100 3.588000
23.545000 4.227000
23.578900 4.794000
23.612800 4.628700
23.646600 4.408100
23.680500 3.626000
23.714400 3.094000
23.748200 3.290300
23.782100 3.765100
23.816000 3.945700
23.849900 3.887400
23.883700 4.050400
23.917600 4.937300
23.951500 6.330200
23.985400 6.567000
24.019200 5.024600
24.053100 4.501700
24.087000 4.217000
24.120800 4.201400
24.154700 4.424500
24.188600 3.869900
24.222500 3.775400
24.256300 3.933100
24.290200 4.238100
24.324100 4.448500
24.358000 4.504600
24.391800 4.292900
24.425700 4.098100
24.459600 4.137000
24.493400 4.259600
24.527300 4.417400
24.561200 4.336100
24.595100 3.812600
24.628900 3.441900
24.662800 3.330400
24.696700 3.311100
24.730600 3.328200
24.764400 3.339600
24.798300 3.300300
24.832200 3.291300
24.866100 3.184100
24.899900 3.092400
24.933800 3.017400
24.967700 3.051500
25.001500 2.831800
25.035400 2.728600
25.069300 2.685900
25.103200 2.662800
25.137000 2.636900
25.170900 2.811400
25.204800 3.232100
25.238700 2.979900
25.272500 2.954900
25.306400 3.261300
25.340300 3.191200
25.374100 2.989500
25.408000 2.786900
25.441900 2.523200
25.475800 2.313600
25.509600 2.252000
25.543500 2.307300
25.577400 2.418600
25.611300 2.394400
25.645100 2.561100
25.679000 2.565600
25.712900 2.532500
25.746800 2.629000
25.780600 2.451000
25.814500 2.308700
25.848400 2.169700
25.882200 2.095900
25.916100 2.069600
25.950000 2.057200
25.983900 2.058500
26.017700 2.072100
26.051600 2.101100
26.085500 2.139200
26.119400 2.168300
26.153200 2.214600
26.187100 2.309800
26.221000 2.470900
26.254800 2.630800
26.288700 2.732600
26.322600 2.822300
26.356500 2.866900
26.390300 2.860800
26.424200 2.646500
26.458100 2.573100
26.492000 2.428800
26.525800 2.171100
26.559700 2.043900
26.593600 1.963700
26.627400 1.916200
26.661300 1.856800
26.695200 2.020900
26.729100 2.359500
26.762900 2.551900
26.796800 2.663300
26.830700 2.467700
26.864600 2.535500
26.898400 2.642900
26.932300 2.781100
26.966200 2.952400
27.000100 3.065900
27.033900 3.195700
27.067800 3.266600
27.101700 3.421700
27.135500 3.318600
27.169400 3.617300
27.203300 3.791500
27.237200 3.672100
27.271000 3.434000
27.304900 3.211000
27.338800 2.902900
27.372700 2.576200
27.406500 2.704200
27.440400 2.747600
27.474300 2.947800
27.508100 3.033900
27.542000 3.455200
27.575900 3.256700
27.609800 3.002200
27.643600 2.837700
27.677500 2.714800
27.711400 2.681800
27.745300 2.830800
27.779100 3.010700
27.813000 3.029300
27.846900 2.988800
27.880800 2.949000
27.914600 3.113300
27.948500 3.233900
27.982400 3.129600
28.016200 2.659400
28.050100 2.040300
28.084000 1.824700
28.117900 1.636500
28.151700 1.479900
28.185600 1.400900
28.219500 1.359900
28.253400 1.340800
28.287200 1.327700
28.321100 1.316200
28.355000 1.307100
28.388800 1.380700
28.422700 1.386500
28.456600 1.298700
28.490500 1.290000
28.524300 1.284900
28.558200 1.266400
28.592100 1.249700
28.626000 1.216700
28.659800 1.184300
28.693700 1.182800
28.727600 1.184100
28.761400 1.208600
28.795300 1.219100
28.829200 1.247900
28.863100 1.254300
28.896900 1.291800
28.930800 1.319500
28.964700 1.280400
28.998600 1.259900
29.032400 1.239000
29.066300 1.219900
29.100200 1.177300
29.134100 1.169400
29.167900 1.151100
29.201800 1.130900
29.235700 1.130900
29.269500 1.154100
29.303400 1.306700
29.337300 1.422000
29.371200 1.258300
29.405000 1.184900
29.438900 1.104700
29.472800 0.962900
29.506700 0.928400
29.540500 0.891300
29.574400 0.859500
29.608300 0.814600
29.642100 0.766800
29.676000 0.724500
29.709900 0.626900
29.743800 0.542900
29.777600 0.471500
29.811500 0.411400
29.845400 0.362600
29.879300 0.324800
29.913100 0.297200
29.947000 0.283000
29.980900 0.278800
30.014700 0.276000
30.048600 0.273600
30.082500 0.271600
30.116400 0.271300
30.150200 0.271600
30.184100 0.272500
30.218000 0.274300
30.251900 0.277100
30.285700 0.280700
30.319600 0.285400
30.353500 0.292800
30.387400 0.328900
30.421200 0.713400
30.455100 0.816500
30.489000 0.845700
30.522800 0.921000
30.556700 0.984100
30.590600 1.072000
30.624500 0.250200
30.658300 0.145800
30.692200 0.112500
30.726100 0.083500
30.760000 0.058800
30.793800 0.038400
30.827700 0.022200
30.861600 0.010100
30.895400 0.002100
30.929300 0.000000
30.963200 0.000000
30.997100 0.000000
31.030900 0.000000
31.064800 0.000000
31.098700 0.000000
31.132600 0.000000
31.166400 0.000000
31.200300 0.000000
31.234200 0.000000
31.268100 0.000000
31.301900 0.000000
31.335800 0.000000
31.369700 0.000000
31.403500 0.000000
31.437400 0.000000
31.471300 0.000000
31.505200 0.000000
31.539000 0.000000
31.572900 0.000000
31.606800 0.000000
31.640700 0.000000
31.674500 0.000000
31.708400 0.000000
31.742300 0.000000
31.776100 0.000000
31.810000 0.000000
31.843900 0.000000
31.877800 0.000000
31.911600 0.000000
31.945500 0.000000
31.979400 0.000000
32.013300 0.000000
32.047100 0.000000
32.081000 0.000000
32.114900 0.000000
32.148700 0.000000
32.182600 0.000000
32.216500 0.000000
32.250400 0.000000
32.284200 0.000000
32.318100 0.000000
32.352000 0.000000
32.385900 0.000000
32.419700 0.000000
32.453600 0.000000
32.487500 0.000000
32.521400 0.000000
32.555200 0.000000
32.589100 0.000000
32.623000 0.000000
32.656800 0.000000
32.690700 0.000000
32.724600 0.000000
32.758500 0.000000
32.792300 0.000000
32.826200 0.000000
32.860100 0.000000
32.894000 0.000000
32.927800 0.000000
32.961700 0.000000
32.995600 0.000000
33.029400 0.000000
33.063300 0.000000
33.097200 0.000000
33.131100 0.000000
33.164900 0.000000
33.198800 0.000000
33.232700 0.000000
33.266600 0.000000
33.300400 0.000000
33.334300 0.000000
33.368200 0.000000
33.402000 0.000000
33.435900 0.000000
33.469800 0.000000
33.503700 0.000000
33.537500 0.000000
33.571400 0.000000
33.605300 0.000000
33.639200 0.000000
33.673000 0.000000
33.706900 0.000000
33.740800 0.000000
33.774700 0.000000
33.808500 0.000000
33.842400 0.000000
33.876300 0.000000
33.910100 0.000000
33.944000 0.000000
33.977900 0.000000
34.011800 0.000000
e
