set title 'mp-864758 - Density of States'
set xlabel 'Energy (eV)'
set ylabel 'DOS (states/eV)'
set grid
set xrange [-10:10]
set yrange [0:5.067]
set xzeroaxis lt -1
set terminal png size 800,600
set output 'mp-864758_dos_gnuplot.png'
plot '-' using 1:2 with lines title 'DOS'
-25.000500 0.000000
-24.975100 0.000000
-24.949700 0.000000
-24.924300 0.000000
-24.898900 0.000000
-24.873500 0.000000
-24.848200 0.000000
-24.822800 0.000000
-24.797400 0.000000
-24.772000 0.000000
-24.746600 0.000000
-24.721200 0.000000
-24.695900 0.000000
-24.670500 0.000000
-24.645100 0.000000
-24.619700 0.000000
-24.594300 0.000000
-24.568900 0.000000
-24.543600 0.000000
-24.518200 0.000000
-24.492800 0.000000
-24.467400 0.000000
-24.442000 0.000000
-24.416600 0.000000
-24.391300 0.000000
-24.365900 0.000000
-24.340500 0.000000
-24.315100 0.000000
-24.289700 0.000000
-24.264300 0.000000
-24.239000 0.000000
-24.213600 0.000000
-24.188200 0.000000
-24.162800 0.000000
-24.137400 0.000000
-24.112000 0.000000
-24.086700 0.000000
-24.061300 0.000000
-24.035900 0.000000
-24.010500 0.000000
-23.985100 0.000000
-23.959700 0.000000
-23.934400 0.000000
-23.909000 0.000000
-23.883600 0.000000
-23.858200 0.000000
-23.832800 0.000000
-23.807400 0.000000
-23.782100 0.000000
-23.756700 0.000000
-23.731300 0.000000
-23.705900 0.000000
-23.680500 0.000000
-23.655100 0.000000
-23.629800 0.000000
-23.604400 0.000000
-23.579000 0.000000
-23.553600 0.000000
-23.528200 0.000000
-23.502800 0.000000
-23.477500 0.000000
-23.452100 0.000000
-23.426700 0.000000
-23.401300 0.000000
-23.375900 0.000000
-23.350500 0.000000
-23.325200 0.000000
-23.299800 0.000000
-23.274400 0.000000
-23.249000 0.000000
-23.223600 0.000000
-23.198200 0.000000
-23.172900 0.000000
-23.147500 0.000000
-23.122100 0.000000
-23.096700 0.000000
-23.071300 0.000000
-23.045900 0.000000
-23.020600 0.000000
-22.995200 0.000000
-22.969800 0.000000
-22.944400 0.000000
-22.919000 0.000000
-22.893600 0.000000
-22.868300 0.000000
-22.842900 0.000800
-22.817500 0.014600
-22.792100 0.174300
-22.766700 1.294300
-22.741300 6.114200
-22.716000 18.931900
-22.690600 39.649800
-22.665200 57.160900
-22.639800 56.430200
-22.614400 38.633700
-22.589000 25.787500
-22.563700 39.753600
-22.538300 81.120500
-22.512900 119.323900
-22.487500 115.473600
-22.462100 72.151200
-22.436700 28.699400
-22.411400 7.177600
-22.386000 1.117400
-22.360600 0.107500
-22.335200 0.006300
-22.309800 0.000200
-22.284400 0.000000
-22.259100 0.000000
-22.233700 0.000000
-22.208300 0.000000
-22.182900 0.000000
-22.157500 0.000000
-22.132100 0.000000
-22.106800 0.000000
-22.081400 0.000000
-22.056000 0.000000
-22.030600 0.000000
-22.005200 0.000000
-21.979800 0.000000
-21.954500 0.000000
-21.929100 0.000000
-21.903700 0.000000
-21.878300 0.000000
-21.852900 0.000000
-21.827500 0.000000
-21.802100 0.000000
-21.776800 0.000000
-21.751400 0.000000
-21.726000 0.000000
-21.700600 0.000000
-21.675200 0.000000
-21.649800 0.000000
-21.624500 0.000000
-21.599100 0.000000
-21.573700 0.000000
-21.548300 0.000000
-21.522900 0.000000
-21.497500 0.000000
-21.472200 0.000000
-21.446800 0.000000
-21.421400 0.000000
-21.396000 0.000000
-21.370600 0.000000
-21.345200 0.000000
-21.319900 0.000000
-21.294500 0.000000
-21.269100 0.000000
-21.243700 0.000000
-21.218300 0.000000
-21.192900 0.000000
-21.167600 0.000000
-21.142200 0.000000
-21.116800 0.000000
-21.091400 0.000000
-21.066000 0.000000
-21.040600 0.000000
-21.015300 0.000000
-20.989900 0.000000
-20.964500 0.000000
-20.939100 0.000000
-20.913700 0.000000
-20.888300 0.000000
-20.863000 0.000000
-20.837600 0.000000
-20.812200 0.000000
-20.786800 0.000000
-20.761400 0.000000
-20.736000 0.000000
-20.710700 0.000000
-20.685300 0.000000
-20.659900 0.000000
-20.634500 0.000000
-20.609100 0.000000
-20.583700 0.000000
-20.558400 0.000000
-20.533000 0.000000
-20.507600 0.000000
-20.482200 0.000000
-20.456800 0.000000
-20.431400 0.000000
-20.406100 0.000000
-20.380700 0.000000
-20.355300 0.000000
-20.329900 0.000000
-20.304500 0.000000
-20.279100 0.000000
-20.253800 0.000000
-20.228400 0.000000
-20.203000 0.000000
-20.177600 0.000000
-20.152200 0.000000
-20.126800 0.000000
-20.101500 0.000000
-20.076100 0.000000
-20.050700 0.000000
-20.025300 0.000000
-19.999900 0.000000
-19.974500 0.000000
-19.949200 0.000000
-19.923800 0.000000
-19.898400 0.000000
-19.873000 0.000000
-19.847600 0.000000
-19.822200 0.000000
-19.796900 0.000000
-19.771500 0.000000
-19.746100 0.000000
-19.720700 0.000000
-19.695300 0.000000
-19.669900 0.000000
-19.644600 0.000000
-19.619200 0.000000
-19.593800 0.000000
-19.568400 0.000000
-19.543000 0.000000
-19.517600 0.000000
-19.492300 0.000000
-19.466900 0.000000
-19.441500 0.000000
-19.416100 0.000000
-19.390700 0.000000
-19.365300 0.000000
-19.340000 0.000000
-19.314600 0.000000
-19.289200 0.000000
-19.263800 0.000000
-19.238400 0.000000
-19.213000 0.000000
-19.187700 0.000000
-19.162300 0.000000
-19.136900 0.000000
-19.111500 0.000000
-19.086100 0.000000
-19.060700 0.000000
-19.035400 0.000000
-19.010000 0.000000
-18.984600 0.000000
-18.959200 0.000000
-18.933800 0.000000
-18.908400 0.000000
-18.883100 0.000000
-18.857700 0.000000
-18.832300 0.000000
-18.806900 0.000000
-18.781500 0.000000
-18.756100 0.000000
-18.730800 0.000000
-18.705400 0.000000
-18.680000 0.000000
-18.654600 0.000000
-18.629200 0.000000
-18.603800 0.000000
-18.578500 0.000000
-18.553100 0.000000
-18.527700 0.000000
-18.502300 0.000000
-18.476900 0.000000
-18.451500 0.000000
-18.426200 0.000000
-18.400800 0.000000
-18.375400 0.000000
-18.350000 0.000000
-18.324600 0.000000
-18.299200 0.000000
-18.273900 0.000000
-18.248500 0.000000
-18.223100 0.000000
-18.197700 0.000000
-18.172300 0.000000
-18.146900 0.000000
-18.121500 0.000000
-18.096200 0.000000
-18.070800 0.000000
-18.045400 0.000000
-18.020000 0.000000
-17.994600 0.000000
-17.969200 0.000000
-17.943900 0.000000
-17.918500 0.000000
-17.893100 0.000000
-17.867700 0.000000
-17.842300 0.000000
-17.816900 0.000000
-17.791600 0.000000
-17.766200 0.000000
-17.740800 0.000000
-17.715400 0.000000
-17.690000 0.000000
-17.664600 0.000000
-17.639300 0.000000
-17.613900 0.000000
-17.588500 0.000000
-17.563100 0.000000
-17.537700 0.000000
-17.512300 0.000000
-17.487000 0.000000
-17.461600 0.000000
-17.436200 0.000000
-17.410800 0.000000
-17.385400 0.000000
-17.360000 0.000000
-17.334700 0.000000
-17.309300 0.000000
-17.283900 0.000000
-17.258500 0.000000
-17.233100 0.000000
-17.207700 0.000000
-17.182400 0.000000
-17.157000 0.000000
-17.131600 0.000000
-17.106200 0.000000
-17.080800 0.000000
-17.055400 0.000000
-17.030100 0.000000
-17.004700 0.000000
-16.979300 0.000000
-16.953900 0.000000
-16.928500 0.000000
-16.903100 0.000000
-16.877800 0.000000
-16.852400 0.000000
-16.827000 0.000000
-16.801600 0.000000
-16.776200 0.000000
-16.750800 0.000000
-16.725500 0.000000
-16.700100 0.000000
-16.674700 0.000000
-16.649300 0.000000
-16.623900 0.000000
-16.598500 0.000000
-16.573200 0.000000
-16.547800 0.000000
-16.522400 0.000000
-16.497000 0.000000
-16.471600 0.000000
-16.446200 0.000000
-16.420900 0.000000
-16.395500 0.000000
-16.370100 0.000000
-16.344700 0.000000
-16.319300 0.000000
-16.293900 0.000000
-16.268600 0.000000
-16.243200 0.000000
-16.217800 0.000000
-16.192400 0.000000
-16.167000 0.000000
-16.141600 0.000000
-16.116300 0.000000
-16.090900 0.000000
-16.065500 0.000000
-16.040100 0.000000
-16.014700 0.000000
-15.989300 0.000000
-15.964000 0.000000
-15.938600 0.000000
-15.913200 0.000000
-15.887800 0.000000
-15.862400 0.000000
-15.837000 0.000000
-15.811700 0.000000
-15.786300 0.000000
-15.760900 0.000000
-15.735500 0.000000
-15.710100 0.000000
-15.684700 0.000000
-15.659400 0.000000
-15.634000 0.000000
-15.608600 0.000000
-15.583200 0.000000
-15.557800 0.000000
-15.532400 0.000000
-15.507100 0.000000
-15.481700 0.000000
-15.456300 0.000000
-15.430900 0.000000
-15.405500 0.000000
-15.380100 0.000000
-15.354800 0.000000
-15.329400 0.000000
-15.304000 0.000000
-15.278600 0.000000
-15.253200 0.000000
-15.227800 0.000000
-15.202500 0.000000
-15.177100 0.000000
-15.151700 0.000000
-15.126300 0.000000
-15.100900 0.000000
-15.075500 0.000000
-15.050200 0.000000
-15.024800 0.000000
-14.999400 0.000000
-14.974000 0.000000
-14.948600 0.000000
-14.923200 0.000000
-14.897900 0.000000
-14.872500 0.000000
-14.847100 0.000000
-14.821700 0.000000
-14.796300 0.000000
-14.770900 0.000000
-14.745600 0.000000
-14.720200 0.000000
-14.694800 0.000000
-14.669400 0.000000
-14.644000 0.000000
-14.618600 0.000000
-14.593200 0.000000
-14.567900 0.000000
-14.542500 0.000000
-14.517100 0.000000
-14.491700 0.000000
-14.466300 0.000000
-14.440900 0.000000
-14.415600 0.000000
-14.390200 0.000000
-14.364800 0.000000
-14.339400 0.000000
-14.314000 0.000000
-14.288600 0.000000
-14.263300 0.000000
-14.237900 0.000000
-14.212500 0.000000
-14.187100 0.000000
-14.161700 0.000000
-14.136300 0.000000
-14.111000 0.000000
-14.085600 0.000000
-14.060200 0.000000
-14.034800 0.000000
-14.009400 0.000000
-13.984000 0.000000
-13.958700 0.000000
-13.933300 0.000000
-13.907900 0.000000
-13.882500 0.000000
-13.857100 0.000000
-13.831700 0.000000
-13.806400 0.000000
-13.781000 0.000000
-13.755600 0.000000
-13.730200 0.000000
-13.704800 0.000000
-13.679400 0.000000
-13.654100 0.000000
-13.628700 0.000000
-13.603300 0.000000
-13.577900 0.000000
-13.552500 0.000000
-13.527100 0.000000
-13.501800 0.000000
-13.476400 0.000000
-13.451000 0.000000
-13.425600 0.000000
-13.400200 0.000000
-13.374800 0.000000
-13.349500 0.000000
-13.324100 0.000000
-13.298700 0.000000
-13.273300 0.000000
-13.247900 0.000000
-13.222500 0.000000
-13.197200 0.000000
-13.171800 0.000000
-13.146400 0.000000
-13.121000 0.000000
-13.095600 0.000000
-13.070200 0.000000
-13.044900 0.000000
-13.019500 0.000000
-12.994100 0.000000
-12.968700 0.000000
-12.943300 0.000000
-12.917900 0.000000
-12.892600 0.000000
-12.867200 0.000000
-12.841800 0.000000
-12.816400 0.000000
-12.791000 0.000000
-12.765600 0.000000
-12.740300 0.000000
-12.714900 0.000000
-12.689500 0.000000
-12.664100 0.000000
-12.638700 0.000000
-12.613300 0.000000
-12.588000 0.000000
-12.562600 0.000000
-12.537200 0.001000
-12.511800 0.019800
-12.486400 0.240100
-12.461000 1.796700
-12.435700 8.381600
-12.410300 24.955200
-12.384900 49.781900
-12.359500 72.178300
-12.334100 82.301900
-12.308700 74.091700
-12.283400 49.244600
-12.258000 22.580600
-12.232600 6.856100
-12.207200 1.346100
-12.181800 0.168000
-12.156400 0.013200
-12.131100 0.000600
-12.105700 0.000000
-12.080300 0.000000
-12.054900 0.000000
-12.029500 0.000000
-12.004100 0.000000
-11.978800 0.000000
-11.953400 0.000000
-11.928000 0.000000
-11.902600 0.000000
-11.877200 0.000000
-11.851800 0.000000
-11.826500 0.000000
-11.801100 0.000000
-11.775700 0.000000
-11.750300 0.000000
-11.724900 0.000000
-11.699500 0.000000
-11.674200 0.000000
-11.648800 0.000000
-11.623400 0.000000
-11.598000 0.000000
-11.572600 0.000000
-11.547200 0.000000
-11.521900 0.000000
-11.496500 0.000000
-11.471100 0.000000
-11.445700 0.000000
-11.420300 0.000000
-11.394900 0.000000
-11.369600 0.000000
-11.344200 0.000000
-11.318800 0.000000
-11.293400 0.000000
-11.268000 0.000000
-11.242600 0.000000
-11.217300 0.000000
-11.191900 0.000000
-11.166500 0.000000
-11.141100 0.000000
-11.115700 0.000000
-11.090300 0.000000
-11.065000 0.000000
-11.039600 0.000000
-11.014200 0.000000
-10.988800 0.000000
-10.963400 0.000000
-10.938000 0.000000
-10.912600 0.000000
-10.887300 0.000000
-10.861900 0.000000
-10.836500 0.000000
-10.811100 0.000000
-10.785700 0.000000
-10.760300 0.000000
-10.735000 0.000000
-10.709600 0.000000
-10.684200 0.000000
-10.658800 0.000000
-10.633400 0.000000
-10.608000 0.000000
-10.582700 0.000000
-10.557300 0.000000
-10.531900 0.000000
-10.506500 0.000000
-10.481100 0.000000
-10.455700 0.000000
-10.430400 0.000000
-10.405000 0.000000
-10.379600 0.000000
-10.354200 0.000000
-10.328800 0.000000
-10.303400 0.000000
-10.278100 0.000000
-10.252700 0.000000
-10.227300 0.000000
-10.201900 0.000000
-10.176500 0.000000
-10.151100 0.000000
-10.125800 0.000000
-10.100400 0.000000
-10.075000 0.000000
-10.049600 0.000000
-10.024200 0.000000
-9.998800 0.000000
-9.973500 0.000000
-9.948100 0.000000
-9.922700 0.000000
-9.897300 0.000000
-9.871900 0.000000
-9.846500 0.000000
-9.821200 0.000000
-9.795800 0.000000
-9.770400 0.000000
-9.745000 0.000000
-9.719600 0.000000
-9.694200 0.000000
-9.668900 0.000000
-9.643500 0.000000
-9.618100 0.000000
-9.592700 0.000000
-9.567300 0.000000
-9.541900 0.000000
-9.516600 0.000000
-9.491200 0.000000
-9.465800 0.000000
-9.440400 0.000000
-9.415000 0.000000
-9.389600 0.000000
-9.364300 0.000000
-9.338900 0.000000
-9.313500 0.000000
-9.288100 0.000000
-9.262700 0.000000
-9.237300 0.000000
-9.212000 0.000000
-9.186600 0.000000
-9.161200 0.000000
-9.135800 0.000000
-9.110400 0.000000
-9.085000 0.000000
-9.059700 0.000000
-9.034300 0.000000
-9.008900 0.000000
-8.983500 0.000000
-8.958100 0.000000
-8.932700 0.000000
-8.907400 0.000000
-8.882000 0.000000
-8.856600 0.000000
-8.831200 0.000000
-8.805800 0.000000
-8.780400 0.000000
-8.755100 0.000000
-8.729700 0.000000
-8.704300 0.000000
-8.678900 0.000000
-8.653500 0.000000
-8.628100 0.000000
-8.602800 0.000000
-8.577400 0.000000
-8.552000 0.000000
-8.526600 0.000000
-8.501200 0.000000
-8.475800 0.000000
-8.450500 0.000000
-8.425100 0.000000
-8.399700 0.000000
-8.374300 0.000000
-8.348900 0.000000
-8.323500 0.000000
-8.298200 0.000000
-8.272800 0.000000
-8.247400 0.000000
-8.222000 0.000000
-8.196600 0.000000
-8.171200 0.000000
-8.145900 0.000000
-8.120500 0.000000
-8.095100 0.000000
-8.069700 0.000000
-8.044300 0.000000
-8.018900 0.000000
-7.993600 0.000000
-7.968200 0.000000
-7.942800 0.000000
-7.917400 0.000000
-7.892000 0.000000
-7.866600 0.000000
-7.841300 0.000000
-7.815900 0.000000
-7.790500 0.000000
-7.765100 0.000000
-7.739700 0.000000
-7.714300 0.000000
-7.689000 0.000000
-7.663600 0.000000
-7.638200 0.000000
-7.612800 0.000000
-7.587400 0.000000
-7.562000 0.000000
-7.536700 0.000000
-7.511300 0.000000
-7.485900 0.000000
-7.460500 0.000000
-7.435100 0.000000
-7.409700 0.000000
-7.384400 0.000000
-7.359000 0.000000
-7.333600 0.000000
-7.308200 0.000000
-7.282800 0.000000
-7.257400 0.000000
-7.232000 0.000000
-7.206700 0.000000
-7.181300 0.000000
-7.155900 0.000000
-7.130500 0.000000
-7.105100 0.000000
-7.079700 0.000000
-7.054400 0.000000
-7.029000 0.000000
-7.003600 0.000000
-6.978200 0.000000
-6.952800 0.000000
-6.927400 0.000000
-6.902100 0.000000
-6.876700 0.000000
-6.851300 0.000000
-6.825900 0.000000
-6.800500 0.000000
-6.775100 0.000000
-6.749800 0.000000
-6.724400 0.000000
-6.699000 0.000000
-6.673600 0.000000
-6.648200 0.000000
-6.622800 0.000000
-6.597500 0.000000
-6.572100 0.000000
-6.546700 0.000000
-6.521300 0.000000
-6.495900 0.000000
-6.470500 0.000000
-6.445200 0.000000
-6.419800 0.000000
-6.394400 0.000000
-6.369000 0.000000
-6.343600 0.000000
-6.318200 0.000000
-6.292900 0.000000
-6.267500 0.000000
-6.242100 0.000000
-6.216700 0.000000
-6.191300 0.000000
-6.165900 0.000000
-6.140600 0.000000
-6.115200 0.000000
-6.089800 0.000000
-6.064400 0.000000
-6.039000 0.000000
-6.013600 0.000000
-5.988300 0.000000
-5.962900 0.000000
-5.937500 0.000000
-5.912100 0.000000
-5.886700 0.000000
-5.861300 0.000000
-5.836000 0.000000
-5.810600 0.000000
-5.785200 0.000000
-5.759800 0.000000
-5.734400 0.000000
-5.709000 0.000000
-5.683700 0.000000
-5.658300 0.000000
-5.632900 0.000000
-5.607500 0.000000
-5.582100 0.000000
-5.556700 0.000000
-5.531400 0.000000
-5.506000 0.000000
-5.480600 0.000000
-5.455200 0.000000
-5.429800 0.000000
-5.404400 0.000000
-5.379100 0.000000
-5.353700 0.000000
-5.328300 0.000000
-5.302900 0.000000
-5.277500 0.000000
-5.252100 0.000000
-5.226800 0.000000
-5.201400 0.000000
-5.176000 0.000000
-5.150600 0.000000
-5.125200 0.000000
-5.099800 0.000000
-5.074500 0.000000
-5.049100 0.000000
-5.023700 0.000000
-4.998300 0.000000
-4.972900 0.000000
-4.947500 0.000000
-4.922200 0.000000
-4.896800 0.000000
-4.871400 0.000000
-4.846000 0.000000
-4.820600 0.000000
-4.795200 0.000000
-4.769900 0.000000
-4.744500 0.000000
-4.719100 0.000000
-4.693700 0.000000
-4.668300 0.000000
-4.642900 0.000000
-4.617600 0.000000
-4.592200 0.000000
-4.566800 0.000000
-4.541400 0.000000
-4.516000 0.000000
-4.490600 0.000000
-4.465300 0.000000
-4.439900 0.000000
-4.414500 0.000000
-4.389100 0.000000
-4.363700 0.000000
-4.338300 0.000000
-4.313000 0.000000
-4.287600 0.000000
-4.262200 0.000000
-4.236800 0.000000
-4.211400 0.000000
-4.186000 0.000000
-4.160700 0.000000
-4.135300 0.000000
-4.109900 0.000000
-4.084500 0.000000
-4.059100 0.000000
-4.033700 0.000000
-4.008400 0.000000
-3.983000 0.000000
-3.957600 0.000000
-3.932200 0.000000
-3.906800 0.000000
-3.881400 0.000200
-3.856100 0.001700
-3.830700 0.008800
-3.805300 0.029900
-3.779900 0.072500
-3.754500 0.141800
-3.729100 0.246200
-3.703700 0.370000
-3.678400 0.434700
-3.653000 0.394000
-3.627600 0.365900
-3.602200 0.481000
-3.576800 0.658500
-3.551400 0.757600
-3.526100 0.796900
-3.500700 0.804300
-3.475300 0.730800
-3.449900 0.654300
-3.424500 0.737300
-3.399100 0.951900
-3.373800 1.094500
-3.348400 1.106900
-3.323000 1.119000
-3.297600 1.195000
-3.272200 1.345200
-3.246800 1.523500
-3.221500 1.561900
-3.196100 1.470300
-3.170700 1.449400
-3.145300 1.566200
-3.119900 1.758900
-3.094500 1.954000
-3.069200 2.070000
-3.043800 2.040100
-3.018400 1.948200
-2.993000 2.007600
-2.967600 2.270200
-2.942200 2.634900
-2.916900 2.991000
-2.891500 3.209100
-2.866100 3.234500
-2.840700 3.003400
-2.815300 2.504400
-2.789900 2.148000
-2.764600 2.280000
-2.739200 2.463300
-2.713800 2.162000
-2.688400 1.565100
-2.663000 1.149200
-2.637600 1.156800
-2.612300 1.508500
-2.586900 1.781300
-2.561500 1.596500
-2.536100 1.131900
-2.510700 0.848000
-2.485300 0.935200
-2.460000 1.192100
-2.434600 1.224800
-2.409200 0.918200
-2.383800 0.546200
-2.358400 0.294400
-2.333000 0.136600
-2.307700 0.045700
-2.282300 0.009900
-2.256900 0.001300
-2.231500 0.000100
-2.206100 0.000000
-2.180700 0.000000
-2.155400 0.000000
-2.130000 0.000000
-2.104600 0.000000
-2.079200 0.000000
-2.053800 0.000000
-2.028400 0.000000
-2.003100 0.000000
-1.977700 0.000000
-1.952300 0.000000
-1.926900 0.000000
-1.901500 0.000000
-1.876100 0.000000
-1.850800 0.000000
-1.825400 0.000000
-1.800000 0.000000
-1.774600 0.000000
-1.749200 0.000000
-1.723800 0.000000
-1.698500 0.000000
-1.673100 0.000000
-1.647700 0.000000
-1.622300 0.000000
-1.596900 0.000000
-1.571500 0.000000
-1.546200 0.000000
-1.520800 0.000000
-1.495400 0.000000
-1.470000 0.000000
-1.444600 0.000000
-1.419200 0.000000
-1.393900 0.000000
-1.368500 0.000000
-1.343100 0.000000
-1.317700 0.000000
-1.292300 0.000000
-1.266900 0.000000
-1.241600 0.000000
-1.216200 0.000000
-1.190800 0.000000
-1.165400 0.000000
-1.140000 0.000000
-1.114600 0.000000
-1.089300 0.000000
-1.063900 0.000000
-1.038500 0.000000
-1.013100 0.000000
-0.987700 0.000000
-0.962300 0.000000
-0.937000 0.000000
-0.911600 0.000000
-0.886200 0.000000
-0.860800 0.000000
-0.835400 0.000000
-0.810000 0.000000
-0.784700 0.000000
-0.759300 0.000000
-0.733900 0.000000
-0.708500 0.000000
-0.683100 0.000000
-0.657700 0.000000
-0.632400 0.000000
-0.607000 0.000000
-0.581600 0.000000
-0.556200 0.000400
-0.530800 0.003500
-0.505400 0.017500
-0.480100 0.054200
-0.454700 0.105600
-0.429300 0.130600
-0.403900 0.110300
-0.378500 0.094400
-0.353100 0.132900
-0.327800 0.197400
-0.302400 0.237400
-0.277000 0.276700
-0.251600 0.368600
-0.226200 0.518500
-0.200800 0.654300
-0.175500 0.667500
-0.150100 0.592100
-0.124700 0.624500
-0.099300 0.845500
-0.073900 1.120500
-0.048500 1.327200
-0.023100 1.465200
0.002200 1.648100
0.027600 1.966900
0.053000 2.195400
0.078400 2.062600
0.103800 1.766200
0.129200 1.675300
0.154500 1.782600
0.179900 1.824100
0.205300 1.722500
0.230700 1.644400
0.256100 1.730400
0.281500 1.971600
0.306800 2.207800
0.332200 2.201200
0.357600 1.903100
0.383000 1.584900
0.408400 1.558400
0.433800 1.800300
0.459100 1.988400
0.484500 1.891500
0.509900 1.618700
0.535300 1.496600
0.560700 1.697100
0.586100 2.114900
0.611400 2.578700
0.636800 2.912900
0.662200 2.856700
0.687600 2.301500
0.713000 1.586500
0.738400 1.137100
0.763700 1.048700
0.789100 1.247800
0.814500 1.586000
0.839900 1.834500
0.865300 1.854000
0.890700 1.640700
0.916000 1.310200
0.941400 1.112100
0.966800 1.187800
0.992200 1.352300
1.017600 1.373900
1.043000 1.295800
1.068300 1.375700
1.093700 1.677000
1.119100 1.844600
1.144500 1.602700
1.169900 1.242500
1.195300 1.221200
1.220600 1.499500
1.246000 1.614000
1.271400 1.384600
1.296800 1.194300
1.322200 1.356000
1.347600 1.692000
1.372900 1.900400
1.398300 1.976000
1.423700 2.090700
1.449100 2.232700
1.474500 2.306900
1.499900 2.326700
1.525200 2.304100
1.550600 2.173200
1.576000 1.911700
1.601400 1.719400
1.626800 1.756500
1.652200 1.844200
1.677500 1.781500
1.702900 1.649600
1.728300 1.696600
1.753700 2.044700
1.779100 2.540300
1.804500 2.933400
1.829800 2.968300
1.855200 2.595500
1.880600 2.205800
1.906000 2.154100
1.931400 2.374000
1.956800 2.561400
1.982100 2.475800
2.007500 2.188800
2.032900 1.946300
2.058300 1.758400
2.083700 1.581500
2.109100 1.636700
2.134400 1.957300
2.159800 2.166500
2.185200 2.050200
2.210600 1.755800
2.236000 1.490900
2.261400 1.460400
2.286700 1.813600
2.312100 2.353000
2.337500 2.668700
2.362900 2.673300
2.388300 2.517800
2.413700 2.237000
2.439000 1.866900
2.464400 1.511100
2.489800 1.156300
2.515200 0.749200
2.540600 0.411100
2.566000 0.327600
2.591300 0.513100
2.616700 0.797400
2.642100 0.987600
2.667500 1.025700
2.692900 0.963400
2.718300 0.894600
2.743600 0.928300
2.769000 1.055800
2.794400 1.159400
2.819800 1.221000
2.845200 1.306500
2.870600 1.438300
2.895900 1.633100
2.921300 1.884900
2.946700 2.063600
2.972100 2.025600
2.997500 1.851200
3.022900 1.810600
3.048200 2.018700
3.073600 2.201400
3.099000 2.067900
3.124400 1.696500
3.149800 1.358000
3.175200 1.272900
3.200500 1.539800
3.225900 2.101300
3.251300 2.609000
3.276700 2.678200
3.302100 2.490800
3.327500 2.458900
3.352800 2.550700
3.378200 2.537900
3.403600 2.392800
3.429000 2.218600
3.454400 2.120200
3.479800 2.132700
3.505100 2.127500
3.530500 1.953300
3.555900 1.669200
3.581300 1.414200
3.606700 1.280300
3.632100 1.404200
3.657500 1.787800
3.682800 2.199400
3.708200 2.467600
3.733600 2.617700
3.759000 2.708300
3.784400 2.664400
3.809800 2.293700
3.835100 1.615900
3.860500 0.986300
3.885900 0.694200
3.911300 0.738900
3.936700 0.966600
3.962100 1.193900
3.987400 1.346400
4.012800 1.532500
4.038200 1.839200
4.063600 2.145900
4.089000 2.279400
4.114400 2.222000
4.139700 2.010900
4.165100 1.662000
4.190500 1.341400
4.215900 1.225700
4.241300 1.218500
4.266700 1.160300
4.292000 1.139400
4.317400 1.396900
4.342800 1.938100
4.368200 2.409500
4.393600 2.457500
4.419000 2.123400
4.444300 1.741100
4.469700 1.536800
4.495100 1.521000
4.520500 1.504300
4.545900 1.316900
4.571300 1.121700
4.596600 1.206100
4.622000 1.637200
4.647400 2.251000
4.672800 2.837500
4.698200 3.208300
4.723600 3.177600
4.748900 2.782200
4.774300 2.337500
4.799700 2.032100
4.825100 1.801400
4.850500 1.572300
4.875900 1.388000
4.901200 1.381700
4.926600 1.575800
4.952000 1.831900
4.977400 2.093200
5.002800 2.426300
5.028200 2.756400
5.053500 2.794400
5.078900 2.360400
5.104300 1.692500
5.129700 1.240900
5.155100 1.160000
5.180500 1.227700
5.205800 1.302600
5.231200 1.571500
5.256600 2.077300
5.282000 2.394800
5.307400 2.296100
5.332800 2.128300
5.358100 2.081500
5.383500 1.986900
5.408900 1.944500
5.434300 2.148400
5.459700 2.390600
5.485100 2.500600
5.510400 2.616500
5.535800 2.636000
5.561200 2.329300
5.586600 1.923700
5.612000 1.764800
5.637400 1.847400
5.662700 2.019400
5.688100 2.260600
5.713500 2.574100
5.738900 2.775400
5.764300 2.695000
5.789700 2.412800
5.815000 2.101100
5.840400 1.870900
5.865800 1.759700
5.891200 1.720800
5.916600 1.685200
5.942000 1.633400
5.967300 1.661700
5.992700 1.921500
6.018100 2.289200
6.043500 2.455700
6.068900 2.456500
6.094300 2.490100
6.119600 2.494800
6.145000 2.437800
6.170400 2.381100
6.195800 2.199500
6.221200 1.920200
6.246600 1.991000
6.271900 2.710300
6.297300 3.759800
6.322700 4.545800
6.348100 4.606000
6.373500 3.917600
6.398900 3.032700
6.424200 2.473300
6.449600 2.320100
6.475000 2.418900
6.500400 2.572700
6.525800 2.749500
6.551200 3.104700
6.576500 3.507600
6.601900 3.562700
6.627300 3.241800
6.652700 2.960600
6.678100 2.985400
6.703500 3.071400
6.728800 2.843900
6.754200 2.266500
6.779600 1.649200
6.805000 1.466200
6.830400 1.957500
6.855800 2.742900
6.881100 3.217900
6.906500 3.182400
6.931900 2.795400
6.957300 2.299100
6.982700 1.941500
7.008100 1.838900
7.033400 1.887300
7.058800 1.964400
7.084200 1.982600
7.109600 1.892300
7.135000 1.831700
7.160400 1.886300
7.185700 1.967200
7.211100 2.122000
7.236500 2.398100
7.261900 2.576600
7.287300 2.437200
7.312700 1.993900
7.338100 1.550900
7.363400 1.537900
7.388800 2.025700
7.414200 2.683400
7.439600 3.152800
7.465000 3.231300
7.490400 3.009300
7.515700 2.817000
7.541100 2.853000
7.566500 2.974100
7.591900 2.886900
7.617300 2.532100
7.642700 2.243600
7.668000 2.387700
7.693400 2.969300
7.718800 3.568700
7.744200 3.669800
7.769600 3.292300
7.795000 2.844000
7.820300 2.536300
7.845700 2.383200
7.871100 2.346500
7.896500 2.402000
7.921900 2.480200
7.947300 2.549400
7.972600 2.787900
7.998000 3.210100
8.023400 3.470400
8.048800 3.393200
8.074200 3.088600
8.099600 2.665200
8.124900 2.273800
8.150300 2.070300
8.175700 2.017900
8.201100 1.916700
8.226500 1.699500
8.251900 1.644300
8.277200 2.077600
8.302600 2.780400
8.328000 3.061300
8.353400 2.674800
8.378800 2.134200
8.404200 1.977600
8.429500 2.155600
8.454900 2.281100
8.480300 2.262000
8.505700 2.237800
8.531100 2.211000
8.556500 2.189100
8.581800 2.292000
8.607200 2.620200
8.632600 3.171400
8.658000 3.764400
8.683400 4.112900
8.708800 4.009100
8.734100 3.561400
8.759500 3.190800
8.784900 3.016300
8.810300 2.776800
8.835700 2.602900
8.861100 2.877700
8.886400 3.507400
8.911800 4.076900
8.937200 4.297800
8.962600 4.204500
8.988000 4.063200
9.013400 3.921100
9.038700 3.556000
9.064100 2.972800
9.089500 2.466400
9.114900 2.189900
9.140300 2.032400
9.165700 1.891900
9.191000 1.878400
9.216400 2.209900
9.241800 2.931900
9.267200 3.848300
9.292600 4.470300
9.318000 4.194500
9.343300 3.174600
9.368700 2.251900
9.394100 1.864700
9.419500 1.922900
9.444900 2.174300
9.470300 2.324200
9.495600 2.296500
9.521000 2.188000
9.546400 2.139900
9.571800 2.276100
9.597200 2.441400
9.622600 2.423600
9.647900 2.332300
9.673300 2.466800
9.698700 2.862800
9.724100 3.140200
9.749500 3.037900
9.774900 2.735900
9.800200 2.608000
9.825600 2.923500
9.851000 3.611700
9.876400 4.147800
9.901800 4.007500
9.927200 3.414200
9.952500 3.068100
9.977900 3.227600
10.003300 3.569300
10.028700 3.824100
10.054100 3.935700
10.079500 3.684200
10.104800 2.997300
10.130200 2.372100
10.155600 2.396500
10.181000 3.111500
10.206400 3.959000
10.231800 4.272900
10.257100 3.890700
10.282500 3.176800
10.307900 2.526100
10.333300 2.086200
10.358700 1.937300
10.384100 2.230900
10.409400 2.859500
10.434800 3.385500
10.460200 3.596500
10.485600 3.625400
10.511000 3.551700
10.536400 3.404600
10.561700 3.259700
10.587100 3.056800
10.612500 2.802300
10.637900 2.783100
10.663300 3.104400
10.688700 3.435400
10.714000 3.570000
10.739400 3.873300
10.764800 4.559600
10.790200 4.936500
10.815600 4.359900
10.841000 3.288600
10.866400 2.585500
10.891700 2.558200
10.917100 2.893600
10.942500 3.081200
10.967900 3.041200
10.993300 3.192400
11.018700 3.710900
11.044000 4.024200
11.069400 3.516700
11.094800 2.528000
11.120200 1.873500
11.145600 1.818700
11.171000 2.125800
11.196300 2.501800
11.221700 2.657400
11.247100 2.571700
11.272500 2.607300
11.297900 2.953800
11.323300 3.403000
11.348600 3.508700
11.374000 3.027300
11.399400 2.440100
11.424800 2.356700
11.450200 2.780100
11.475600 3.344900
11.500900 3.667000
11.526300 3.730900
11.551700 3.824800
11.577100 3.886000
11.602500 3.680800
11.627900 3.320800
11.653200 2.949700
11.678600 2.564200
11.704000 2.347800
11.729400 2.472400
11.754800 2.775300
11.780200 3.053800
11.805500 3.270800
11.830900 3.471600
11.856300 3.667500
11.881700 3.725400
11.907100 3.473300
11.932500 3.145000
11.957800 3.317500
11.983200 3.932500
12.008600 4.098300
12.034000 3.372000
12.059400 2.391600
12.084800 1.799000
12.110100 1.565200
12.135500 1.566600
12.160900 1.791400
12.186300 2.059500
12.211700 2.129400
12.237100 2.046600
12.262400 2.137500
12.287800 2.537000
12.313200 3.045000
12.338600 3.498200
12.364000 3.844900
12.389400 3.926300
12.414700 3.694400
12.440100 3.475300
12.465500 3.422300
12.490900 3.221100
12.516300 2.755800
12.541700 2.421200
12.567000 2.558000
12.592400 3.209900
12.617800 4.118000
12.643200 4.652600
12.668600 4.466700
12.694000 3.806000
12.719300 3.019000
12.744700 2.372400
12.770100 2.100900
12.795500 2.331300
12.820900 2.942700
12.846300 3.520700
12.871600 3.675100
12.897000 3.462900
12.922400 3.120300
12.947800 2.783500
12.973200 2.689200
12.998600 3.015300
13.023900 3.685100
13.049300 4.318600
13.074700 4.399300
13.100100 3.977900
13.125500 3.598800
13.150900 3.494900
13.176200 3.458500
13.201600 3.331300
13.227000 3.197500
13.252400 3.018200
13.277800 2.833200
13.303200 2.866800
13.328500 3.055200
13.353900 3.322700
13.379300 3.737500
13.404700 4.064500
13.430100 4.025200
13.455500 3.741500
13.480800 3.490800
13.506200 3.235000
13.531600 2.832800
13.557000 2.494300
13.582400 2.536000
13.607800 2.981300
13.633100 3.403200
13.658500 3.296700
13.683900 2.769300
13.709300 2.426600
13.734700 2.686100
13.760100 3.500900
13.785400 4.432500
13.810800 5.023500
13.836200 5.140200
13.861600 4.874400
13.887000 4.539300
13.912400 4.489800
13.937700 4.614000
13.963100 4.593500
13.988500 4.456500
14.013900 4.373100
14.039300 4.209000
14.064700 3.890100
14.090000 3.771000
14.115400 4.059100
14.140800 4.533200
14.166200 4.759200
14.191600 4.311500
14.217000 3.363100
14.242300 2.655000
14.267700 2.557500
14.293100 2.860300
14.318500 3.235700
14.343900 3.500400
14.369300 3.567400
14.394600 3.300500
14.420000 2.670900
14.445400 1.913500
14.470800 1.386700
14.496200 1.331900
14.521600 1.799200
14.547000 2.589900
14.572300 3.313400
14.597700 3.711300
14.623100 3.654200
14.648500 3.199500
14.673900 2.880000
14.699300 3.136100
14.724600 3.714800
14.750000 4.119400
14.775400 4.144900
14.800800 3.984500
14.826200 3.973400
14.851600 4.118400
14.876900 4.252100
14.902300 4.397300
14.927700 4.480600
14.953100 4.240800
14.978500 3.630700
15.003900 2.851500
15.029200 2.135400
15.054600 1.705200
15.080000 1.700700
15.105400 2.071500
15.130800 2.694100
15.156200 3.363300
15.181500 3.729900
15.206900 3.689000
15.232300 3.506600
15.257700 3.354300
15.283100 3.233200
15.308500 3.344100
15.333800 3.852300
15.359200 4.340200
15.384600 4.411500
15.410000 4.338200
15.435400 4.361100
15.460800 4.356600
15.486100 4.336600
15.511500 4.432400
15.536900 4.613100
15.562300 4.689400
15.587700 4.548800
15.613100 4.310000
15.638400 4.010700
15.663800 3.533700
15.689200 3.004700
15.714600 2.661400
15.740000 2.490200
15.765400 2.484500
15.790700 2.771000
15.816100 3.242800
15.841500 3.642000
15.866900 3.777600
15.892300 3.586200
15.917700 3.303000
15.943000 3.219100
15.968400 3.325200
15.993800 3.380300
16.019200 3.274400
16.044600 3.181100
16.070000 3.295600
16.095300 3.632700
16.120700 4.121300
16.146100 4.579300
16.171500 4.730100
16.196900 4.759600
16.222300 5.134100
16.247600 5.583700
16.273000 5.374900
16.298400 4.392800
16.323800 3.268600
16.349200 2.682200
16.374600 2.799600
16.399900 3.231400
16.425300 3.495300
16.450700 3.500700
16.476100 3.464500
16.501500 3.597900
16.526900 4.049300
16.552200 4.602300
16.577600 4.664500
16.603000 4.212400
16.628400 3.923400
16.653800 4.059000
16.679200 4.086100
16.704500 3.619900
16.729900 3.095700
16.755300 3.198300
16.780700 3.891300
16.806100 4.255200
16.831500 3.641700
16.856800 2.556900
16.882200 1.869900
16.907600 1.866200
16.933000 2.373900
16.958400 3.083200
16.983800 3.771100
17.009100 4.463600
17.034500 5.074800
17.059900 5.245800
17.085300 4.786800
17.110700 3.982300
17.136100 3.356100
17.161400 3.264200
17.186800 3.685100
17.212200 4.272700
17.237600 4.610400
17.263000 4.479600
17.288400 4.027400
17.313700 3.669100
17.339100 3.660500
17.364500 3.762200
17.389900 3.664900
17.415300 3.526200
17.440700 3.588900
17.466000 3.710200
17.491400 3.785000
17.516800 3.998000
17.542200 4.357100
17.567600 4.615000
17.593000 4.588500
17.618300 4.228300
17.643700 3.698600
17.669100 3.378800
17.694500 3.355100
17.719900 3.368600
17.745300 3.308100
17.770600 3.175000
17.796000 3.012900
17.821400 3.091200
17.846800 3.455400
17.872200 3.677900
17.897600 3.658400
17.922900 3.654700
17.948300 3.550400
17.973700 3.231600
17.999100 3.027100
18.024500 3.295500
18.049900 4.062200
18.075200 4.943900
18.100600 5.327900
18.126000 5.006900
18.151400 4.483900
18.176800 4.271200
18.202200 4.339200
18.227600 4.380000
18.252900 4.198700
18.278300 3.902500
18.303700 3.753900
18.329100 3.774900
18.354500 3.692000
18.379900 3.385600
18.405200 3.190600
18.430600 3.461700
18.456000 3.924000
18.481400 4.062200
18.506800 3.940900
18.532200 3.990100
18.557500 4.303800
18.582900 4.544500
18.608300 4.484600
18.633700 4.322600
18.659100 4.212700
18.684500 3.937100
18.709800 3.373000
18.735200 2.844900
18.760600 2.816700
18.786000 3.525600
18.811400 4.741100
18.836800 5.716200
18.862100 5.795400
18.887500 5.010100
18.912900 3.857400
18.938300 3.033800
18.963700 3.136400
18.989100 3.856900
19.014400 4.146800
19.039800 3.684800
19.065200 3.320100
19.090600 3.675400
19.116000 4.332200
19.141400 4.688100
19.166700 4.744400
19.192100 4.807600
19.217500 4.901400
19.242900 4.913900
19.268300 4.848700
19.293700 4.655300
19.319000 4.387900
19.344400 4.424500
19.369800 4.888600
19.395200 5.255600
19.420600 5.011100
19.446000 4.238600
19.471300 3.427500
19.496700 2.916700
19.522100 2.769500
19.547500 3.017500
19.572900 3.539700
19.598300 4.038800
19.623600 4.327000
19.649000 4.420600
19.674400 4.477700
19.699800 4.600300
19.725200 4.613200
19.750600 4.366300
19.775900 4.162400
19.801300 4.223600
19.826700 4.228400
19.852100 4.051000
19.877500 4.119600
19.902900 4.647600
19.928200 5.249900
19.953600 5.353500
19.979000 4.852100
20.004400 4.134900
20.029800 3.492300
20.055200 3.062000
20.080500 2.932200
20.105900 3.059000
20.131300 3.514200
20.156700 4.252000
20.182100 4.669900
20.207500 4.343400
20.232800 3.692700
20.258200 3.369300
20.283600 3.521400
20.309000 3.875900
20.334400 4.189700
20.359800 4.431100
20.385100 4.762400
20.410500 5.328800
20.435900 5.846700
20.461300 5.895000
20.486700 5.635900
20.512100 5.438700
20.537400 5.189700
20.562800 4.657800
20.588200 3.891000
20.613600 3.145700
20.639000 2.804200
20.664400 3.074600
20.689700 3.750300
20.715100 4.403700
20.740500 4.797400
20.765900 5.048000
20.791300 5.266500
20.816700 5.216400
20.842000 4.618600
20.867400 3.784200
20.892800 3.498000
20.918200 3.982000
20.943600 4.580000
20.969000 4.677200
20.994300 4.298800
21.019700 3.801200
21.045100 3.471200
21.070500 3.506600
21.095900 3.897500
21.121300 4.182600
21.146600 3.941500
21.172000 3.440500
21.197400 3.045500
21.222800 2.628700
21.248200 2.251800
21.273600 2.363300
21.298900 2.866100
21.324300 3.055300
21.349700 2.669100
21.375100 2.053100
21.400500 1.535000
21.425900 1.294000
21.451200 1.425300
21.476600 1.812300
21.502000 2.207000
21.527400 2.428200
21.552800 2.441400
21.578200 2.422400
21.603500 2.518600
21.628900 2.627400
21.654300 2.671500
21.679700 2.686700
21.705100 2.646600
21.730500 2.481500
21.755800 2.140300
21.781200 1.786400
21.806600 1.733900
21.832000 1.970500
21.857400 2.177200
21.882800 2.256500
21.908200 2.424300
21.933500 2.728200
21.958900 2.877000
21.984300 2.632200
22.009700 2.129100
22.035100 1.708800
22.060500 1.475400
22.085800 1.272900
22.111200 1.092600
22.136600 1.143600
22.162000 1.456500
22.187400 1.754600
22.212800 1.837200
22.238100 1.786300
22.263500 1.696700
22.288900 1.525000
22.314300 1.205400
22.339700 0.786200
22.365100 0.487300
22.390400 0.491400
22.415800 0.715900
22.441200 0.899800
22.466600 0.889000
22.492000 0.806700
22.517400 0.797200
22.542700 0.768100
22.568100 0.657200
22.593500 0.597500
22.618900 0.627800
22.644300 0.667400
22.669700 0.697500
22.695000 0.742800
22.720400 0.864900
22.745800 1.010700
22.771200 0.967700
22.796600 0.732800
22.822000 0.527400
22.847300 0.463900
22.872700 0.485500
22.898100 0.489100
22.923500 0.440700
22.948900 0.391400
22.974300 0.389900
22.999600 0.452400
23.025000 0.566900
23.050400 0.628300
23.075800 0.565400
23.101200 0.485000
23.126600 0.476100
23.151900 0.484200
23.177300 0.433400
23.202700 0.342300
23.228100 0.282600
23.253500 0.269200
23.278900 0.286100
23.304200 0.303000
23.329600 0.264500
23.355000 0.187600
23.380400 0.137700
23.405800 0.125500
23.431200 0.144500
23.456500 0.179900
23.481900 0.173500
23.507300 0.108800
23.532700 0.042200
23.558100 0.010000
23.583500 0.001400
23.608800 0.000100
23.634200 0.000000
23.659600 0.000000
23.685000 0.000000
23.710400 0.000000
23.735800 0.000000
23.761100 0.000000
23.786500 0.000000
23.811900 0.000000
23.837300 0.000000
23.862700 0.000000
23.888100 0.000000
23.913400 0.000000
23.938800 0.000000
23.964200 0.000000
23.989600 0.000000
24.015000 0.000000
24.040400 0.000000
24.065700 0.000000
24.091100 0.000000
24.116500 0.000000
24.141900 0.000000
24.167300 0.000000
24.192700 0.000000
24.218000 0.000000
24.243400 0.000000
24.268800 0.000000
24.294200 0.000000
24.319600 0.000000
24.345000 0.000000
24.370300 0.000000
24.395700 0.000000
24.421100 0.000000
24.446500 0.000000
24.471900 0.000000
24.497300 0.000000
24.522600 0.000000
24.548000 0.000000
24.573400 0.000000
24.598800 0.000000
24.624200 0.000000
24.649600 0.000000
24.674900 0.000000
24.700300 0.000000
24.725700 0.000000
24.751100 0.000000
24.776500 0.000000
24.801900 0.000000
24.827200 0.000000
24.852600 0.000000
24.878000 0.000000
24.903400 0.000000
24.928800 0.000000
24.954200 0.000000
24.979500 0.000000
25.004900 0.000000
25.030300 0.000000
25.055700 0.000000
25.081100 0.000000
25.106500 0.000000
25.131800 0.000000
25.157200 0.000000
25.182600 0.000000
25.208000 0.000000
25.233400 0.000000
25.258800 0.000000
25.284100 0.000000
25.309500 0.000000
25.334900 0.000000
25.360300 0.000000
25.385700 0.000000
25.411100 0.000000
25.436500 0.000000
25.461800 0.000000
25.487200 0.000000
25.512600 0.000000
25.538000 0.000000
25.563400 0.000000
25.588800 0.000000
25.614100 0.000000
25.639500 0.000000
25.664900 0.000000
25.690300 0.000000
25.715700 0.000000
25.741100 0.000000
25.766400 0.000000
e
