set title 'mp-1077267 - Density of States'
set xlabel 'Energy (eV)'
set ylabel 'DOS (states/eV)'
set grid
set xrange [-10:10]
set yrange [0:8.132]
set xzeroaxis lt -1
set terminal png size 800,600
set output 'mp-1077267_dos_gnuplot.png'
plot '-' using 1:2 with lines title 'DOS'
-20.059000 0.000000
-20.036700 0.000000
-20.014400 0.000000
-19.992100 0.000000
-19.969800 0.000000
-19.947500 0.000000
-19.925300 0.000000
-19.903000 0.000000
-19.880700 0.000000
-19.858400 0.000000
-19.836100 0.000000
-19.813800 0.000000
-19.791500 0.000000
-19.769200 0.000000
-19.746900 0.000000
-19.724600 0.000000
-19.702300 0.000000
-19.680000 0.000000
-19.657700 0.000000
-19.635500 0.000000
-19.613200 0.000000
-19.590900 0.000000
-19.568600 0.000000
-19.546300 0.000000
-19.524000 0.000000
-19.501700 0.000000
-19.479400 0.000000
-19.457100 0.000000
-19.434800 0.000000
-19.412500 0.000000
-19.390200 0.000000
-19.368000 0.000000
-19.345700 0.000000
-19.323400 0.000000
-19.301100 0.000000
-19.278800 0.000000
-19.256500 0.000000
-19.234200 0.000000
-19.211900 0.000000
-19.189600 0.000000
-19.167300 0.000000
-19.145000 0.000000
-19.122700 0.000000
-19.100500 0.000000
-19.078200 0.000000
-19.055900 0.000000
-19.033600 0.000000
-19.011300 0.000000
-18.989000 0.000000
-18.966700 0.000000
-18.944400 0.000000
-18.922100 0.000000
-18.899800 0.000000
-18.877500 0.000000
-18.855200 0.000000
-18.832900 0.000000
-18.810700 0.000000
-18.788400 0.000000
-18.766100 0.000000
-18.743800 0.000000
-18.721500 0.000000
-18.699200 0.000000
-18.676900 0.000000
-18.654600 0.000000
-18.632300 0.000000
-18.610000 0.000000
-18.587700 0.000000
-18.565400 0.000000
-18.543200 0.000000
-18.520900 0.000000
-18.498600 0.000000
-18.476300 0.000000
-18.454000 0.000000
-18.431700 0.000000
-18.409400 0.000000
-18.387100 0.000000
-18.364800 0.000000
-18.342500 0.000000
-18.320200 0.000000
-18.297900 0.000000
-18.275700 0.000000
-18.253400 0.000000
-18.231100 0.000000
-18.208800 0.000000
-18.186500 0.000000
-18.164200 0.000400
-18.141900 0.004900
-18.119600 0.046800
-18.097300 0.322700
-18.075000 1.611500
-18.052700 5.891300
-18.030400 15.972500
-18.008100 32.753400
-17.985900 52.320500
-17.963600 67.769100
-17.941300 74.498100
-17.919000 72.648800
-17.896700 65.444200
-17.874400 55.627400
-17.852100 43.207200
-17.829800 28.336100
-17.807500 14.510500
-17.785200 5.507600
-17.762900 1.504400
-17.740600 0.290900
-17.718400 0.039500
-17.696100 0.003700
-17.673800 0.000200
-17.651500 0.000000
-17.629200 0.000000
-17.606900 0.000000
-17.584600 0.000000
-17.562300 0.000000
-17.540000 0.000000
-17.517700 0.000000
-17.495400 0.000000
-17.473100 0.000000
-17.450800 0.000000
-17.428600 0.000000
-17.406300 0.000000
-17.384000 0.000000
-17.361700 0.000000
-17.339400 0.000000
-17.317100 0.000000
-17.294800 0.000000
-17.272500 0.000000
-17.250200 0.000000
-17.227900 0.000000
-17.205600 0.000000
-17.183300 0.000000
-17.161100 0.000000
-17.138800 0.000000
-17.116500 0.000000
-17.094200 0.000000
-17.071900 0.000000
-17.049600 0.000000
-17.027300 0.000000
-17.005000 0.000000
-16.982700 0.000000
-16.960400 0.000000
-16.938100 0.000000
-16.915800 0.000000
-16.893600 0.000000
-16.871300 0.000000
-16.849000 0.000000
-16.826700 0.000000
-16.804400 0.000000
-16.782100 0.000000
-16.759800 0.000000
-16.737500 0.000000
-16.715200 0.000000
-16.692900 0.000000
-16.670600 0.000000
-16.648300 0.000000
-16.626000 0.000000
-16.603800 0.000000
-16.581500 0.000000
-16.559200 0.000000
-16.536900 0.000000
-16.514600 0.000000
-16.492300 0.000000
-16.470000 0.000000
-16.447700 0.000000
-16.425400 0.000000
-16.403100 0.000000
-16.380800 0.000000
-16.358500 0.000000
-16.336300 0.000000
-16.314000 0.000000
-16.291700 0.000000
-16.269400 0.000000
-16.247100 0.000000
-16.224800 0.000000
-16.202500 0.000000
-16.180200 0.000000
-16.157900 0.000000
-16.135600 0.000000
-16.113300 0.000000
-16.091000 0.000000
-16.068800 0.000000
-16.046500 0.000000
-16.024200 0.000000
-16.001900 0.000000
-15.979600 0.000000
-15.957300 0.000000
-15.935000 0.000000
-15.912700 0.000000
-15.890400 0.000000
-15.868100 0.000000
-15.845800 0.000000
-15.823500 0.000000
-15.801200 0.000000
-15.779000 0.000000
-15.756700 0.000000
-15.734400 0.000000
-15.712100 0.000000
-15.689800 0.000000
-15.667500 0.000000
-15.645200 0.000000
-15.622900 0.000000
-15.600600 0.000000
-15.578300 0.000000
-15.556000 0.000000
-15.533700 0.000000
-15.511500 0.000000
-15.489200 0.000000
-15.466900 0.000000
-15.444600 0.000000
-15.422300 0.000000
-15.400000 0.000000
-15.377700 0.000000
-15.355400 0.000000
-15.333100 0.000000
-15.310800 0.000000
-15.288500 0.000000
-15.266200 0.000000
-15.243900 0.000000
-15.221700 0.000000
-15.199400 0.000000
-15.177100 0.000000
-15.154800 0.000000
-15.132500 0.000000
-15.110200 0.000000
-15.087900 0.000000
-15.065600 0.000000
-15.043300 0.000000
-15.021000 0.000000
-14.998700 0.000000
-14.976400 0.000000
-14.954200 0.000000
-14.931900 0.000000
-14.909600 0.000000
-14.887300 0.000000
-14.865000 0.000000
-14.842700 0.000000
-14.820400 0.000000
-14.798100 0.000000
-14.775800 0.000000
-14.753500 0.000000
-14.731200 0.000000
-14.708900 0.000000
-14.686700 0.000000
-14.664400 0.000000
-14.642100 0.000000
-14.619800 0.000000
-14.597500 0.000000
-14.575200 0.000000
-14.552900 0.000000
-14.530600 0.000000
-14.508300 0.000000
-14.486000 0.000000
-14.463700 0.000000
-14.441400 0.000000
-14.419100 0.000000
-14.396900 0.000000
-14.374600 0.000000
-14.352300 0.000000
-14.330000 0.000000
-14.307700 0.000000
-14.285400 0.000000
-14.263100 0.000000
-14.240800 0.000000
-14.218500 0.000000
-14.196200 0.000000
-14.173900 0.000000
-14.151600 0.000000
-14.129400 0.000000
-14.107100 0.000000
-14.084800 0.000000
-14.062500 0.000000
-14.040200 0.000000
-14.017900 0.000000
-13.995600 0.000000
-13.973300 0.000000
-13.951000 0.000000
-13.928700 0.000000
-13.906400 0.000000
-13.884100 0.000000
-13.861800 0.000000
-13.839600 0.000000
-13.817300 0.000000
-13.795000 0.000000
-13.772700 0.000000
-13.750400 0.000000
-13.728100 0.000000
-13.705800 0.000000
-13.683500 0.000000
-13.661200 0.000000
-13.638900 0.000000
-13.616600 0.000000
-13.594300 0.000000
-13.572100 0.000000
-13.549800 0.000000
-13.527500 0.000000
-13.505200 0.000000
-13.482900 0.000000
-13.460600 0.000000
-13.438300 0.000000
-13.416000 0.000000
-13.393700 0.000000
-13.371400 0.000000
-13.349100 0.000000
-13.326800 0.000000
-13.304600 0.000000
-13.282300 0.000000
-13.260000 0.000000
-13.237700 0.000000
-13.215400 0.000000
-13.193100 0.000000
-13.170800 0.000000
-13.148500 0.000000
-13.126200 0.000000
-13.103900 0.000000
-13.081600 0.000000
-13.059300 0.000000
-13.037000 0.000000
-13.014800 0.000000
-12.992500 0.000000
-12.970200 0.000000
-12.947900 0.000000
-12.925600 0.000000
-12.903300 0.000000
-12.881000 0.000000
-12.858700 0.000000
-12.836400 0.000000
-12.814100 0.000000
-12.791800 0.000000
-12.769500 0.000000
-12.747300 0.000000
-12.725000 0.000000
-12.702700 0.000000
-12.680400 0.000000
-12.658100 0.000000
-12.635800 0.000000
-12.613500 0.000000
-12.591200 0.000000
-12.568900 0.000000
-12.546600 0.000000
-12.524300 0.000000
-12.502000 0.000000
-12.479800 0.000000
-12.457500 0.000000
-12.435200 0.000000
-12.412900 0.000000
-12.390600 0.000000
-12.368300 0.000000
-12.346000 0.000000
-12.323700 0.000000
-12.301400 0.000000
-12.279100 0.000000
-12.256800 0.000000
-12.234500 0.000000
-12.212200 0.000000
-12.190000 0.000000
-12.167700 0.000000
-12.145400 0.000000
-12.123100 0.000000
-12.100800 0.000000
-12.078500 0.000000
-12.056200 0.000000
-12.033900 0.000000
-12.011600 0.000000
-11.989300 0.000000
-11.967000 0.000000
-11.944700 0.000000
-11.922500 0.000000
-11.900200 0.000000
-11.877900 0.000000
-11.855600 0.000000
-11.833300 0.000000
-11.811000 0.000000
-11.788700 0.000000
-11.766400 0.000000
-11.744100 0.000000
-11.721800 0.000000
-11.699500 0.000000
-11.677200 0.000000
-11.654900 0.000000
-11.632700 0.000000
-11.610400 0.000000
-11.588100 0.000000
-11.565800 0.000000
-11.543500 0.000000
-11.521200 0.000000
-11.498900 0.000000
-11.476600 0.000000
-11.454300 0.000000
-11.432000 0.000000
-11.409700 0.000000
-11.387400 0.000000
-11.365200 0.000000
-11.342900 0.000000
-11.320600 0.000000
-11.298300 0.000000
-11.276000 0.000000
-11.253700 0.000000
-11.231400 0.000000
-11.209100 0.000000
-11.186800 0.000000
-11.164500 0.000000
-11.142200 0.000000
-11.119900 0.000000
-11.097700 0.000000
-11.075400 0.000000
-11.053100 0.000000
-11.030800 0.000000
-11.008500 0.000000
-10.986200 0.000000
-10.963900 0.000000
-10.941600 0.000000
-10.919300 0.000000
-10.897000 0.000000
-10.874700 0.000000
-10.852400 0.000000
-10.830100 0.000000
-10.807900 0.000000
-10.785600 0.000000
-10.763300 0.000000
-10.741000 0.000000
-10.718700 0.000000
-10.696400 0.000000
-10.674100 0.000000
-10.651800 0.000000
-10.629500 0.000000
-10.607200 0.000000
-10.584900 0.000000
-10.562600 0.000000
-10.540400 0.000000
-10.518100 0.000000
-10.495800 0.000000
-10.473500 0.000000
-10.451200 0.000000
-10.428900 0.000000
-10.406600 0.000000
-10.384300 0.000000
-10.362000 0.000000
-10.339700 0.000000
-10.317400 0.000000
-10.295100 0.000000
-10.272800 0.000000
-10.250600 0.000000
-10.228300 0.000000
-10.206000 0.000000
-10.183700 0.000000
-10.161400 0.000000
-10.139100 0.000000
-10.116800 0.000000
-10.094500 0.000000
-10.072200 0.000000
-10.049900 0.000000
-10.027600 0.000000
-10.005300 0.000000
-9.983100 0.000000
-9.960800 0.000000
-9.938500 0.000000
-9.916200 0.000000
-9.893900 0.000000
-9.871600 0.000000
-9.849300 0.000000
-9.827000 0.000000
-9.804700 0.000000
-9.782400 0.000000
-9.760100 0.000000
-9.737800 0.000000
-9.715600 0.000000
-9.693300 0.000000
-9.671000 0.000000
-9.648700 0.000000
-9.626400 0.000000
-9.604100 0.000000
-9.581800 0.000000
-9.559500 0.000000
-9.537200 0.000000
-9.514900 0.000000
-9.492600 0.000000
-9.470300 0.000000
-9.448000 0.000000
-9.425800 0.000000
-9.403500 0.000000
-9.381200 0.000000
-9.358900 0.000000
-9.336600 0.000000
-9.314300 0.000000
-9.292000 0.000000
-9.269700 0.000000
-9.247400 0.000000
-9.225100 0.000000
-9.202800 0.000000
-9.180500 0.000000
-9.158300 0.000000
-9.136000 0.000000
-9.113700 0.000000
-9.091400 0.000000
-9.069100 0.000000
-9.046800 0.000000
-9.024500 0.000000
-9.002200 0.000000
-8.979900 0.000000
-8.957600 0.000000
-8.935300 0.000000
-8.913000 0.000000
-8.890800 0.000000
-8.868500 0.000000
-8.846200 0.000000
-8.823900 0.000000
-8.801600 0.000000
-8.779300 0.000000
-8.757000 0.000000
-8.734700 0.000000
-8.712400 0.000000
-8.690100 0.000000
-8.667800 0.000000
-8.645500 0.000000
-8.623200 0.000000
-8.601000 0.000000
-8.578700 0.000000
-8.556400 0.000000
-8.534100 0.000000
-8.511800 0.000000
-8.489500 0.000000
-8.467200 0.000000
-8.444900 0.000000
-8.422600 0.000000
-8.400300 0.000000
-8.378000 0.000000
-8.355700 0.000000
-8.333500 0.000000
-8.311200 0.000000
-8.288900 0.000000
-8.266600 0.000000
-8.244300 0.000000
-8.222000 0.000000
-8.199700 0.000000
-8.177400 0.000000
-8.155100 0.000000
-8.132800 0.000000
-8.110500 0.000000
-8.088200 0.000000
-8.065900 0.000000
-8.043700 0.000000
-8.021400 0.000000
-7.999100 0.000000
-7.976800 0.000000
-7.954500 0.000000
-7.932200 0.000000
-7.909900 0.000000
-7.887600 0.000000
-7.865300 0.000000
-7.843000 0.000000
-7.820700 0.000000
-7.798400 0.000000
-7.776200 0.000000
-7.753900 0.000000
-7.731600 0.000000
-7.709300 0.000000
-7.687000 0.000000
-7.664700 0.000000
-7.642400 0.000000
-7.620100 0.000000
-7.597800 0.000000
-7.575500 0.000000
-7.553200 0.000000
-7.530900 0.000000
-7.508700 0.000000
-7.486400 0.000000
-7.464100 0.000000
-7.441800 0.000000
-7.419500 0.000000
-7.397200 0.000000
-7.374900 0.000000
-7.352600 0.000000
-7.330300 0.000000
-7.308000 0.000000
-7.285700 0.000000
-7.263400 0.000000
-7.241100 0.000000
-7.218900 0.000000
-7.196600 0.000000
-7.174300 0.000000
-7.152000 0.000000
-7.129700 0.000000
-7.107400 0.000000
-7.085100 0.000000
-7.062800 0.000000
-7.040500 0.000000
-7.018200 0.000000
-6.995900 0.000000
-6.973600 0.000000
-6.951400 0.000000
-6.929100 0.000000
-6.906800 0.000000
-6.884500 0.000000
-6.862200 0.000000
-6.839900 0.000000
-6.817600 0.000000
-6.795300 0.000000
-6.773000 0.000000
-6.750700 0.000000
-6.728400 0.000000
-6.706100 0.000000
-6.683800 0.000000
-6.661600 0.000000
-6.639300 0.000000
-6.617000 0.000000
-6.594700 0.000000
-6.572400 0.000000
-6.550100 0.000000
-6.527800 0.000000
-6.505500 0.000000
-6.483200 0.000000
-6.460900 0.000000
-6.438600 0.000000
-6.416300 0.000000
-6.394100 0.000000
-6.371800 0.000000
-6.349500 0.000000
-6.327200 0.000000
-6.304900 0.000000
-6.282600 0.000000
-6.260300 0.000000
-6.238000 0.000000
-6.215700 0.000000
-6.193400 0.000000
-6.171100 0.000000
-6.148800 0.000000
-6.126600 0.000000
-6.104300 0.000000
-6.082000 0.000000
-6.059700 0.000000
-6.037400 0.000000
-6.015100 0.000000
-5.992800 0.000000
-5.970500 0.000000
-5.948200 0.000000
-5.925900 0.000000
-5.903600 0.000000
-5.881300 0.000000
-5.859000 0.000000
-5.836800 0.000000
-5.814500 0.000000
-5.792200 0.000000
-5.769900 0.000000
-5.747600 0.000000
-5.725300 0.000000
-5.703000 0.000000
-5.680700 0.000000
-5.658400 0.000000
-5.636100 0.000000
-5.613800 0.000000
-5.591500 0.000000
-5.569300 0.000000
-5.547000 0.000000
-5.524700 0.000000
-5.502400 0.000000
-5.480100 0.000000
-5.457800 0.000000
-5.435500 0.000000
-5.413200 0.000100
-5.390900 0.000900
-5.368600 0.004200
-5.346300 0.013600
-5.324000 0.030800
-5.301800 0.051800
-5.279500 0.073700
-5.257200 0.106600
-5.234900 0.163700
-5.212600 0.235500
-5.190300 0.289000
-5.168000 0.311200
-5.145700 0.340300
-5.123400 0.408900
-5.101100 0.472100
-5.078800 0.461300
-5.056500 0.373900
-5.034200 0.265700
-5.012000 0.213100
-4.989700 0.280700
-4.967400 0.447300
-4.945100 0.586200
-4.922800 0.601800
-4.900500 0.555400
-4.878200 0.565500
-4.855900 0.644700
-4.833600 0.729300
-4.811300 0.805500
-4.789000 0.903000
-4.766700 0.961900
-4.744500 0.853800
-4.722200 0.582900
-4.699900 0.323300
-4.677600 0.245200
-4.655300 0.390300
-4.633000 0.653200
-4.610700 0.848800
-4.588400 0.891900
-4.566100 0.856000
-4.543800 0.821300
-4.521500 0.821900
-4.499200 0.931000
-4.476900 1.196400
-4.454700 1.467800
-4.432400 1.482700
-4.410100 1.186400
-4.387800 0.824200
-4.365500 0.682100
-4.343200 0.801100
-4.320900 0.977300
-4.298600 1.049800
-4.276300 1.078500
-4.254000 1.167300
-4.231700 1.289700
-4.209400 1.373500
-4.187200 1.394500
-4.164900 1.355400
-4.142600 1.289300
-4.120300 1.280900
-4.098000 1.412500
-4.075700 1.644000
-4.053400 1.784000
-4.031100 1.699800
-4.008800 1.505900
-3.986500 1.446100
-3.964200 1.658200
-3.941900 2.062900
-3.919700 2.464700
-3.897400 2.744900
-3.875100 2.879100
-3.852800 2.862300
-3.830500 2.687000
-3.808200 2.302500
-3.785900 1.717600
-3.763600 1.163700
-3.741300 0.940600
-3.719000 1.154300
-3.696700 1.709900
-3.674400 2.372300
-3.652100 2.781600
-3.629900 2.690900
-3.607600 2.242000
-3.585300 1.772900
-3.563000 1.426900
-3.540700 1.160800
-3.518400 1.003300
-3.496100 1.033000
-3.473800 1.182800
-3.451500 1.343400
-3.429200 1.555600
-3.406900 1.844700
-3.384600 2.051800
-3.362400 2.039400
-3.340100 1.813200
-3.317800 1.434100
-3.295500 1.062100
-3.273200 0.911300
-3.250900 1.013800
-3.228600 1.170300
-3.206300 1.186200
-3.184000 1.100400
-3.161700 1.134200
-3.139400 1.427800
-3.117100 1.904900
-3.094800 2.351400
-3.072600 2.549600
-3.050300 2.398500
-3.028000 1.976300
-3.005700 1.527700
-2.983400 1.347800
-2.961100 1.552200
-2.938800 1.947400
-2.916500 2.172300
-2.894200 2.006600
-2.871900 1.567700
-2.849600 1.168500
-2.827300 1.014700
-2.805100 1.099800
-2.782800 1.321700
-2.760500 1.598200
-2.738200 1.810600
-2.715900 1.767200
-2.693600 1.408000
-2.671300 0.939100
-2.649000 0.663700
-2.626700 0.769900
-2.604400 1.200900
-2.582100 1.655400
-2.559800 1.871600
-2.537600 1.899100
-2.515300 1.977800
-2.493000 2.313000
-2.470700 2.902400
-2.448400 3.341500
-2.426100 3.116600
-2.403800 2.261100
-2.381500 1.322400
-2.359200 0.733400
-2.336900 0.541900
-2.314600 0.582200
-2.292300 0.674500
-2.270000 0.694300
-2.247800 0.576700
-2.225500 0.359500
-2.203200 0.160200
-2.180900 0.049800
-2.158600 0.010700
-2.136300 0.002300
-2.114000 0.005400
-2.091700 0.026800
-2.069400 0.098000
-2.047100 0.261400
-2.024800 0.521600
-2.002500 0.813900
-1.980300 1.057100
-1.958000 1.207500
-1.935700 1.212900
-1.913400 1.017700
-1.891100 0.695100
-1.868800 0.468700
-1.846500 0.549400
-1.824200 0.963000
-1.801900 1.477100
-1.779600 1.750700
-1.757300 1.667600
-1.735000 1.416600
-1.712800 1.219500
-1.690500 1.147200
-1.668200 1.173500
-1.645900 1.243200
-1.623600 1.308800
-1.601300 1.387100
-1.579000 1.529200
-1.556700 1.709000
-1.534400 1.863700
-1.512100 1.997800
-1.489800 2.080400
-1.467500 2.001500
-1.445200 1.776000
-1.423000 1.576900
-1.400700 1.493700
-1.378400 1.439500
-1.356100 1.322100
-1.333800 1.184200
-1.311500 1.205400
-1.289200 1.584400
-1.266900 2.257600
-1.244600 2.762500
-1.222300 2.643000
-1.200000 1.958200
-1.177700 1.210900
-1.155500 0.868700
-1.133200 1.004900
-1.110900 1.293000
-1.088600 1.369400
-1.066300 1.197300
-1.044000 0.971800
-1.021700 0.806400
-0.999400 0.693000
-0.977100 0.642500
-0.954800 0.690800
-0.932500 0.791800
-0.910200 0.834700
-0.887900 0.806800
-0.865700 0.804400
-0.843400 0.849200
-0.821100 0.873400
-0.798800 0.875000
-0.776500 0.889600
-0.754200 0.865200
-0.731900 0.735100
-0.709600 0.540500
-0.687300 0.394900
-0.665000 0.394300
-0.642700 0.545200
-0.620400 0.722100
-0.598200 0.762000
-0.575900 0.627300
-0.553600 0.430600
-0.531300 0.314100
-0.509000 0.337000
-0.486700 0.466500
-0.464400 0.655600
-0.442100 0.909600
-0.419800 1.270100
-0.397500 1.702500
-0.375200 1.982800
-0.352900 1.844000
-0.330700 1.322400
-0.308400 0.754900
-0.286100 0.380600
-0.263800 0.187700
-0.241500 0.107000
-0.219200 0.127400
-0.196900 0.250600
-0.174600 0.429700
-0.152300 0.571400
-0.130000 0.601700
-0.107700 0.532500
-0.085400 0.467400
-0.063100 0.509000
-0.040900 0.639500
-0.018600 0.747900
0.003700 0.757900
0.026000 0.687500
0.048300 0.639100
0.070600 0.758100
0.092900 1.100400
0.115200 1.485400
0.137500 1.594400
0.159800 1.302800
0.182100 0.815200
0.204400 0.435100
0.226600 0.316500
0.248900 0.424300
0.271200 0.600100
0.293500 0.662100
0.315800 0.564500
0.338100 0.485300
0.360400 0.693100
0.382700 1.311800
0.405000 2.211400
0.427300 3.102600
0.449600 3.704800
0.471900 3.853700
0.494200 3.569400
0.516400 3.033200
0.538700 2.462100
0.561000 2.003500
0.583300 1.725100
0.605600 1.650200
0.627900 1.751000
0.650200 1.966400
0.672500 2.216100
0.694800 2.356600
0.717100 2.282500
0.739400 2.070900
0.761700 1.846300
0.783900 1.623700
0.806200 1.399000
0.828500 1.192100
0.850800 0.986100
0.873100 0.808700
0.895400 0.756900
0.917700 0.828900
0.940000 0.895200
0.962300 0.852000
0.984600 0.698900
1.006900 0.505900
1.029200 0.344000
1.051400 0.245200
1.073700 0.211800
1.096000 0.215200
1.118300 0.215200
1.140600 0.209500
1.162900 0.208600
1.185200 0.188100
1.207500 0.131500
1.229800 0.074800
1.252100 0.078100
1.274400 0.201900
1.296700 0.476000
1.319000 0.809400
1.341200 1.010100
1.363500 0.999700
1.385800 0.894200
1.408100 0.813200
1.430400 0.763800
1.452700 0.731100
1.475000 0.782000
1.497300 0.999800
1.519600 1.302300
1.541900 1.496900
1.564200 1.557500
1.586500 1.624700
1.608700 1.748900
1.631000 1.797200
1.653300 1.628800
1.675600 1.353200
1.697900 1.286500
1.720200 1.559200
1.742500 1.938500
1.764800 2.169100
1.787100 2.314400
1.809400 2.591100
1.831700 3.023600
1.854000 3.424000
1.876200 3.619500
1.898500 3.584200
1.920800 3.455400
1.943100 3.464700
1.965400 3.734100
1.987700 4.112100
2.010000 4.274300
2.032300 4.088900
2.054600 3.766600
2.076900 3.503300
2.099200 3.246300
2.121500 2.946300
2.143800 2.739600
2.166000 2.746200
2.188300 2.881500
2.210600 2.977100
2.232900 2.929100
2.255200 2.684100
2.277500 2.307500
2.299800 2.043200
2.322100 2.092000
2.344400 2.384000
2.366700 2.662700
2.389000 2.774100
2.411300 2.782800
2.433500 2.768000
2.455800 2.693800
2.478100 2.524500
2.500400 2.327900
2.522700 2.238500
2.545000 2.277700
2.567300 2.299900
2.589600 2.276700
2.611900 2.380600
2.634200 2.646400
2.656500 2.826800
2.678800 2.661500
2.701100 2.213100
2.723300 1.880900
2.745600 2.017100
2.767900 2.608600
2.790200 3.371500
2.812500 4.045700
2.834800 4.575900
2.857100 5.074400
2.879400 5.604500
2.901700 5.928400
2.924000 5.681000
2.946300 4.950600
2.968600 4.253700
2.990800 3.927200
3.013100 3.954400
3.035400 4.131900
3.057700 4.184500
3.080000 3.950500
3.102300 3.491300
3.124600 2.992900
3.146900 2.621700
3.169200 2.431200
3.191500 2.345300
3.213800 2.293200
3.236100 2.299700
3.258300 2.370100
3.280600 2.439900
3.302900 2.474900
3.325200 2.472900
3.347500 2.397300
3.369800 2.283100
3.392100 2.286200
3.414400 2.427600
3.436700 2.506100
3.459000 2.423700
3.481300 2.339300
3.503600 2.403800
3.525900 2.569800
3.548100 2.669900
3.570400 2.559900
3.592700 2.281800
3.615000 2.083900
3.637300 2.155000
3.659600 2.383300
3.681900 2.431000
3.704200 2.094800
3.726500 1.578000
3.748800 1.269400
3.771100 1.277700
3.793400 1.332500
3.815600 1.199200
3.837900 1.019400
3.860200 1.063800
3.882500 1.351600
3.904800 1.708100
3.927100 2.009700
3.949400 2.229700
3.971700 2.367200
3.994000 2.437400
4.016300 2.469600
4.038600 2.442500
4.060900 2.281200
4.083100 1.965300
4.105400 1.622400
4.127700 1.547200
4.150000 2.015000
4.172300 2.946300
4.194600 3.892300
4.216900 4.386400
4.239200 4.200200
4.261500 3.422300
4.283800 2.497200
4.306100 2.016500
4.328400 2.260700
4.350700 2.971000
4.372900 3.648800
4.395200 4.007500
4.417500 4.083000
4.439800 4.091400
4.462100 4.241500
4.484400 4.484300
4.506700 4.467400
4.529000 3.965600
4.551300 3.268800
4.573600 2.847200
4.595900 2.787400
4.618200 2.891000
4.640400 3.127600
4.662700 3.637700
4.685000 4.281700
4.707300 4.537300
4.729600 4.120600
4.751900 3.392500
4.774200 2.879100
4.796500 2.746900
4.818800 2.895600
4.841100 3.184700
4.863400 3.456100
4.885700 3.544700
4.908000 3.348700
4.930200 2.928600
4.952500 2.523900
4.974800 2.400000
4.997100 2.666700
5.019400 3.165200
5.041700 3.549900
5.064000 3.636700
5.086300 3.559700
5.108600 3.466500
5.130900 3.300100
5.153200 2.981200
5.175500 2.563500
5.197700 2.136000
5.220000 1.743100
5.242300 1.422300
5.264600 1.223700
5.286900 1.193700
5.309200 1.376700
5.331500 1.748800
5.353800 2.094800
5.376100 2.146200
5.398400 1.906300
5.420700 1.646200
5.443000 1.556400
5.465200 1.526200
5.487500 1.348200
5.509800 1.062800
5.532100 0.924600
5.554400 1.084200
5.576700 1.451700
5.599000 1.827500
5.621300 2.106600
5.643600 2.360600
5.665900 2.670000
5.688200 2.882600
5.710500 2.746900
5.732800 2.346100
5.755000 2.025800
5.777300 1.876300
5.799600 1.740700
5.821900 1.591300
5.844200 1.519800
5.866500 1.541000
5.888800 1.589700
5.911100 1.608200
5.933400 1.632500
5.955700 1.781200
5.978000 2.050200
6.000300 2.252000
6.022500 2.302900
6.044800 2.325600
6.067100 2.360800
6.089400 2.269100
6.111700 2.010500
6.134000 1.798400
6.156300 1.861200
6.178600 2.157600
6.200900 2.419400
6.223200 2.470500
6.245500 2.430100
6.267800 2.550300
6.290100 2.922100
6.312300 3.370100
6.334600 3.563900
6.356900 3.303900
6.379200 2.815100
6.401500 2.602700
6.423800 2.867600
6.446100 3.201100
6.468400 3.047500
6.490700 2.380600
6.513000 1.689200
6.535300 1.421900
6.557600 1.651400
6.579800 2.127000
6.602100 2.500300
6.624400 2.547300
6.646700 2.287000
6.669000 1.969600
6.691300 1.867700
6.713600 1.976700
6.735900 2.070100
6.758200 2.104400
6.780500 2.268400
6.802800 2.576700
6.825100 2.794700
6.847300 2.828900
6.869600 2.824400
6.891900 2.858400
6.914200 2.840600
6.936500 2.677000
6.958800 2.388600
6.981100 2.155100
7.003400 2.190500
7.025700 2.479700
7.048000 2.758900
7.070300 2.799400
7.092600 2.586500
7.114900 2.247800
7.137100 1.980100
7.159400 2.003800
7.181700 2.389600
7.204000 2.911200
7.226300 3.218800
7.248600 3.252300
7.270900 3.335300
7.293200 3.674200
7.315500 3.963600
7.337800 3.788600
7.360100 3.225400
7.382400 2.717700
7.404600 2.544700
7.426900 2.688500
7.449200 3.031600
7.471500 3.417900
7.493800 3.643400
7.516100 3.601300
7.538400 3.384400
7.560700 3.200900
7.583000 3.206600
7.605300 3.351600
7.627600 3.414000
7.649900 3.244800
7.672100 2.971900
7.694400 2.892500
7.716700 3.144000
7.739000 3.501400
7.761300 3.533000
7.783600 3.057300
7.805900 2.388500
7.828200 2.047500
7.850500 2.281900
7.872800 2.855400
7.895100 3.276000
7.917400 3.249000
7.939700 2.910100
7.961900 2.586400
7.984200 2.444100
8.006500 2.545900
8.028800 2.993100
8.051100 3.693100
8.073400 4.272100
8.095700 4.471600
8.118000 4.359600
8.140300 4.056100
8.162600 3.631600
8.184900 3.288400
8.207200 3.231900
8.229400 3.373400
8.251700 3.421300
8.274000 3.225600
8.296300 2.885100
8.318600 2.585000
8.340900 2.455600
8.363200 2.520600
8.385500 2.701500
8.407800 2.887300
8.430100 3.019700
8.452400 3.115800
8.474700 3.180300
8.497000 3.178600
8.519200 3.129500
8.541500 3.095400
8.563800 3.128200
8.586100 3.307500
8.608400 3.736000
8.630700 4.384600
8.653000 4.982000
8.675300 5.189300
8.697600 4.951800
8.719900 4.577100
8.742200 4.338400
8.764500 4.240500
8.786700 4.263700
8.809000 4.526800
8.831300 5.136900
8.853600 5.969000
8.875900 6.641700
8.898200 6.767200
8.920500 6.223800
8.942800 5.304400
8.965100 4.552600
8.987400 4.236200
9.009700 4.144500
9.032000 3.993200
9.054200 3.742900
9.076500 3.537600
9.098800 3.632500
9.121100 4.241500
9.143400 5.189100
9.165700 5.853400
9.188000 5.664700
9.210300 4.669100
9.232600 3.470600
9.254900 2.637600
9.277200 2.348200
9.299500 2.512400
9.321800 2.968300
9.344000 3.509600
9.366300 3.877900
9.388600 3.972800
9.410900 4.069400
9.433200 4.513700
9.455500 5.167700
9.477800 5.481900
9.500100 5.191100
9.522400 4.590500
9.544700 4.072800
9.567000 3.817400
9.589300 3.923100
9.611500 4.519300
9.633800 5.627600
9.656100 6.843500
9.678400 7.392400
9.700700 6.797700
9.723000 5.349200
9.745300 3.825300
9.767600 2.846800
9.789900 2.501800
9.812200 2.566900
9.834500 2.853600
9.856800 3.264200
9.879100 3.752700
9.901300 4.178900
9.923600 4.230100
9.945900 3.819600
9.968200 3.376000
9.990500 3.411900
10.012800 4.052100
10.035100 5.045300
10.057400 5.941700
10.079700 6.340100
10.102000 6.222000
10.124300 5.962800
10.146600 5.901400
10.168800 6.084300
10.191100 6.384800
10.213400 6.576000
10.235700 6.440500
10.258000 5.997700
10.280300 5.495900
10.302600 5.175700
10.324900 5.107200
10.347200 5.184100
10.369500 5.249400
10.391800 5.214800
10.414100 4.992000
10.436300 4.515100
10.458600 3.974300
10.480900 3.742000
10.503200 3.947400
10.525500 4.373900
10.547800 4.791700
10.570100 5.145400
10.592400 5.467600
10.614700 5.874800
10.637000 6.524600
10.659300 7.305900
10.681600 7.815500
10.703900 7.901000
10.726100 7.852200
10.748400 7.905800
10.770700 8.003400
10.793000 7.949600
10.815300 7.518600
10.837600 6.753500
10.859900 6.135700
10.882200 6.022800
10.904500 6.187700
10.926800 6.241200
10.949100 6.185500
10.971400 6.288500
10.993600 6.575300
11.015900 6.770900
11.038200 6.773500
11.060500 6.764800
11.082800 6.804200
11.105100 6.771600
11.127400 6.681000
11.149700 6.653500
11.172000 6.660700
11.194300 6.502300
11.216600 6.037400
11.238900 5.396400
11.261100 4.840500
11.283400 4.454000
11.305700 4.157000
11.328000 3.927500
11.350300 3.856500
11.372600 4.087700
11.394900 4.691100
11.417200 5.492500
11.439500 6.099100
11.461800 6.170000
11.484100 5.730500
11.506400 5.131000
11.528700 4.617700
11.550900 4.238200
11.573200 4.095400
11.595500 4.290800
11.617800 4.734700
11.640100 5.230000
11.662400 5.633000
11.684700 5.864600
11.707000 5.870300
11.729300 5.665400
11.751600 5.382400
11.773900 5.147900
11.796200 4.927300
11.818400 4.666000
11.840700 4.534200
11.863000 4.768100
11.885300 5.324100
11.907600 5.861300
11.929900 5.936800
11.952200 5.293300
11.974500 4.231200
11.996800 3.460200
12.019100 3.380000
12.041400 3.770500
12.063700 4.225800
12.086000 4.562300
12.108200 4.690300
12.130500 4.491900
12.152800 4.084500
12.175100 3.901300
12.197400 4.278400
12.219700 5.039800
12.242000 5.651900
12.264300 5.807000
12.286600 5.620100
12.308900 5.259700
12.331200 4.717000
12.353500 4.030100
12.375700 3.506200
12.398000 3.485700
12.420300 3.905000
12.442600 4.303100
12.464900 4.388100
12.487200 4.386700
12.509500 4.623300
12.531800 5.052000
12.554100 5.381300
12.576400 5.390000
12.598700 5.075700
12.621000 4.673700
12.643200 4.510300
12.665500 4.693400
12.687800 4.990100
12.710100 5.086600
12.732400 4.879700
12.754700 4.482800
12.777000 4.030100
12.799300 3.587100
12.821600 3.253300
12.843900 3.178000
12.866200 3.379300
12.888500 3.671300
12.910800 3.866700
12.933000 3.963900
12.955300 4.096200
12.977600 4.356900
12.999900 4.674000
13.022200 4.815300
13.044500 4.565800
13.066800 3.989800
13.089100 3.480900
13.111400 3.442800
13.133700 3.913500
13.156000 4.597000
13.178300 5.200600
13.200500 5.615400
13.222800 5.812700
13.245100 5.757400
13.267400 5.511100
13.289700 5.223700
13.312000 5.006200
13.334300 4.893900
13.356600 4.798300
13.378900 4.512900
13.401200 3.979500
13.423500 3.516300
13.445800 3.504900
13.468100 3.940100
13.490300 4.459000
13.512600 4.610800
13.534900 4.188400
13.557200 3.508700
13.579500 3.153700
13.601800 3.393600
13.624100 3.976400
13.646400 4.350800
13.668700 4.154300
13.691000 3.571400
13.713300 3.104900
13.735600 3.075800
13.757800 3.437000
13.780100 3.941100
13.802400 4.319700
13.824700 4.342500
13.847000 3.971100
13.869300 3.497700
13.891600 3.288800
13.913900 3.431600
13.936200 3.746900
13.958500 3.971100
13.980800 3.900000
14.003100 3.520900
14.025300 3.048800
14.047600 2.750700
14.069900 2.645000
14.092200 2.525200
14.114500 2.301100
14.136800 2.098700
14.159100 2.076100
14.181400 2.294700
14.203700 2.729700
14.226000 3.307100
14.248300 3.908500
14.270600 4.366700
14.292900 4.470100
14.315100 4.123200
14.337400 3.565200
14.359700 3.179600
14.382000 3.055400
14.404300 2.997200
14.426600 2.979100
14.448900 3.254200
14.471200 3.821800
14.493500 4.170500
14.515800 3.854900
14.538100 2.994900
14.560400 2.052400
14.582600 1.434500
14.604900 1.334800
14.627200 1.698100
14.649500 2.282100
14.671800 2.845500
14.694100 3.294700
14.716400 3.608700
14.738700 3.681900
14.761000 3.413700
14.783300 2.968800
14.805600 2.741500
14.827900 2.977500
14.850100 3.550000
14.872400 4.130000
14.894700 4.518700
14.917000 4.722600
14.939300 4.760300
14.961600 4.663900
14.983900 4.527500
15.006200 4.314900
15.028500 3.861000
15.050800 3.160400
15.073100 2.498200
15.095400 2.206400
15.117700 2.315300
15.139900 2.601400
15.162200 2.942100
15.184500 3.416500
15.206800 4.078200
15.229100 4.797500
15.251400 5.339600
15.273700 5.524300
15.296000 5.299900
15.318300 4.681700
15.340600 3.777300
15.362900 2.918000
15.385200 2.457500
15.407400 2.419000
15.429700 2.564100
15.452000 2.707100
15.474300 2.866300
15.496600 3.148200
15.518900 3.505800
15.541200 3.717500
15.563500 3.639200
15.585800 3.415100
15.608100 3.349700
15.630400 3.575900
15.652700 3.980400
15.675000 4.323800
15.697200 4.357500
15.719500 4.097000
15.741800 3.853800
15.764100 3.772500
15.786400 3.660700
15.808700 3.364200
15.831000 2.987800
15.853300 2.730700
15.875600 2.705400
15.897900 2.917600
15.920200 3.292200
15.942500 3.764500
15.964700 4.351500
15.987000 4.954400
16.009300 5.266400
16.031600 5.159100
16.053900 4.899800
16.076200 4.730200
16.098500 4.479200
16.120800 3.850900
16.143100 2.960900
16.165400 2.307100
16.187700 2.240000
16.210000 2.658700
16.232200 3.134500
16.254500 3.249000
16.276800 2.968800
16.299100 2.707900
16.321400 2.867500
16.343700 3.321600
16.366000 3.590600
16.388300 3.525900
16.410600 3.448700
16.432900 3.581800
16.455200 3.762900
16.477500 3.765100
16.499800 3.578300
16.522000 3.345800
16.544300 3.251900
16.566600 3.411600
16.588900 3.731100
16.611200 3.988000
16.633500 4.058200
16.655800 3.989100
16.678100 3.908300
16.700400 3.881800
16.722700 3.853400
16.745000 3.785500
16.767300 3.767700
16.789500 3.837400
16.811800 3.860300
16.834100 3.750100
16.856400 3.656500
16.878700 3.852900
16.901000 4.443400
16.923300 5.141900
16.945600 5.472000
16.967900 5.223200
16.990200 4.557900
17.012500 3.780100
17.034800 3.153000
17.057100 2.806200
17.079300 2.709800
17.101600 2.735000
17.123900 2.738000
17.146200 2.665300
17.168500 2.612000
17.190800 2.730600
17.213100 3.100200
17.235400 3.599900
17.257700 3.895200
17.280000 3.758400
17.302300 3.354600
17.324600 3.063600
17.346800 3.103600
17.369100 3.370300
17.391400 3.667700
17.413700 3.994700
17.436000 4.347200
17.458300 4.494200
17.480600 4.340300
17.502900 4.127500
17.525200 3.997100
17.547500 3.788000
17.569800 3.408000
17.592100 3.091500
17.614300 3.196200
17.636600 3.824500
17.658900 4.647700
17.681200 5.212400
17.703500 5.415200
17.725800 5.431200
17.748100 5.313300
17.770400 5.010900
17.792700 4.625300
17.815000 4.361100
17.837300 4.298100
17.859600 4.340100
17.881900 4.349100
17.904100 4.223700
17.926400 3.901900
17.948700 3.498100
17.971000 3.319100
17.993300 3.540700
18.015600 4.017900
18.037900 4.434200
18.060200 4.546900
18.082500 4.341400
18.104800 3.990300
18.127100 3.744500
18.149400 3.738600
18.171600 3.744400
18.193900 3.416100
18.216200 2.835500
18.238500 2.433300
18.260800 2.429600
18.283100 2.665900
18.305400 2.900400
18.327700 3.034300
18.350000 3.045700
18.372300 2.897300
18.394600 2.642900
18.416900 2.478600
18.439100 2.544900
18.461400 2.871500
18.483700 3.463000
18.506000 4.092100
18.528300 4.327900
18.550600 4.113900
18.572900 3.890200
18.595200 3.991500
18.617500 4.287600
18.639800 4.515500
18.662100 4.640200
18.684400 4.708600
18.706700 4.695400
18.728900 4.594900
18.751200 4.365100
18.773500 3.932600
18.795800 3.423800
18.818100 3.059100
18.840400 2.859600
18.862700 2.816400
18.885000 3.074800
18.907300 3.584600
18.929600 3.880100
18.951900 3.601700
18.974200 2.997900
18.996400 2.550800
19.018700 2.419200
19.041000 2.575100
19.063300 3.080400
19.085600 3.905600
19.107900 4.746200
19.130200 5.214200
19.152500 5.106500
19.174800 4.543200
19.197100 3.923500
19.219400 3.632200
19.241700 3.811700
19.264000 4.373500
19.286200 5.013400
19.308500 5.348500
19.330800 5.236700
19.353100 4.796000
19.375400 4.154100
19.397700 3.477600
19.420000 3.142100
19.442300 3.521800
19.464600 4.559600
19.486900 5.705600
19.509200 6.338000
19.531500 6.225400
19.553700 5.689200
19.576000 5.391100
19.598300 5.689000
19.620600 6.136800
19.642900 5.975000
19.665200 5.143200
19.687500 4.381900
19.709800 4.233500
19.732100 4.441900
19.754400 4.480600
19.776700 4.194100
19.799000 3.835500
19.821200 3.745800
19.843500 3.923700
19.865800 3.963700
19.888100 3.708900
19.910400 3.656900
19.932700 4.272200
19.955000 5.175300
19.977300 5.476500
19.999600 4.822300
20.021900 3.737100
20.044200 2.998000
20.066500 2.928300
20.088800 3.239800
20.111000 3.450300
20.133300 3.377200
20.155600 3.190400
20.177900 3.143300
20.200200 3.362600
20.222500 3.837900
20.244800 4.491600
20.267100 5.116800
20.289400 5.403600
20.311700 5.228300
20.334000 4.778800
20.356300 4.336100
20.378500 4.058000
20.400800 3.953500
20.423100 3.945100
20.445400 3.938100
20.467700 3.884500
20.490000 3.856900
20.512300 4.037500
20.534600 4.428600
20.556900 4.688700
20.579200 4.611600
20.601500 4.560400
20.623800 5.023100
20.646100 5.874400
20.668300 6.383500
20.690600 6.036900
20.712900 5.106800
20.735200 4.238200
20.757500 3.769600
20.779800 3.583000
20.802100 3.392100
20.824400 3.088400
20.846700 2.846800
20.869000 2.909300
20.891300 3.262100
20.913600 3.588700
20.935800 3.623300
20.958100 3.477400
20.980400 3.459700
21.002700 3.624500
21.025000 3.710000
21.047300 3.577900
21.069600 3.494700
21.091900 3.783000
21.114200 4.387000
21.136500 4.938000
21.158800 5.089600
21.181100 4.728300
21.203300 3.959500
21.225600 3.067900
21.247900 2.497600
21.270200 2.576400
21.292500 3.186500
21.314800 3.920600
21.337100 4.538400
21.359400 5.034700
21.381700 5.277800
21.404000 5.021300
21.426300 4.436700
21.448600 4.123400
21.470900 4.400600
21.493100 5.006000
21.515400 5.461200
21.537700 5.430000
21.560000 4.904600
21.582300 4.232000
21.604600 3.795100
21.626900 3.657300
21.649200 3.631700
21.671500 3.551700
21.693800 3.385400
21.716100 3.212600
21.738400 3.143500
21.760600 3.174200
21.782900 3.134500
21.805200 2.955800
21.827500 2.901000
21.849800 3.215500
21.872100 3.680900
21.894400 3.897800
21.916700 3.842300
21.939000 3.755600
21.961300 3.632400
21.983600 3.214400
22.005900 2.470700
22.028100 1.734400
22.050400 1.324800
22.072700 1.281100
22.095000 1.448100
22.117300 1.630600
22.139600 1.686600
22.161900 1.578000
22.184200 1.340200
22.206500 1.026100
22.228800 0.700300
22.251100 0.427200
22.273400 0.233400
22.295700 0.111200
22.317900 0.049100
22.340200 0.036300
22.362500 0.057000
22.384800 0.089200
22.407100 0.115500
22.429400 0.141600
22.451700 0.183600
22.474000 0.229700
22.496300 0.237600
22.518600 0.186000
22.540900 0.105800
22.563200 0.042800
22.585400 0.012200
22.607700 0.002400
22.630000 0.000300
22.652300 0.000000
22.674600 0.000000
22.696900 0.000000
22.719200 0.000000
22.741500 0.000000
22.763800 0.000000
22.786100 0.000000
22.808400 0.000000
22.830700 0.000000
22.853000 0.000000
22.875200 0.000000
22.897500 0.000000
22.919800 0.000000
22.942100 0.000000
22.964400 0.000000
22.986700 0.000000
23.009000 0.000000
23.031300 0.000000
23.053600 0.000000
23.075900 0.000000
23.098200 0.000000
23.120500 0.000000
23.142700 0.000000
23.165000 0.000000
23.187300 0.000000
23.209600 0.000000
23.231900 0.000000
23.254200 0.000000
23.276500 0.000000
23.298800 0.000000
23.321100 0.000000
23.343400 0.000000
23.365700 0.000000
23.388000 0.000000
23.410200 0.000000
23.432500 0.000000
23.454800 0.000000
23.477100 0.000000
23.499400 0.000000
23.521700 0.000000
23.544000 0.000000
23.566300 0.000000
23.588600 0.000000
23.610900 0.000000
23.633200 0.000000
23.655500 0.000000
23.677800 0.000000
23.700000 0.000000
23.722300 0.000000
23.744600 0.000000
23.766900 0.000000
23.789200 0.000000
23.811500 0.000000
23.833800 0.000000
23.856100 0.000000
23.878400 0.000000
23.900700 0.000000
23.923000 0.000000
23.945300 0.000000
23.967500 0.000000
23.989800 0.000000
24.012100 0.000000
24.034400 0.000000
24.056700 0.000000
24.079000 0.000000
24.101300 0.000000
24.123600 0.000000
24.145900 0.000000
24.168200 0.000000
24.190500 0.000000
24.212800 0.000000
24.235100 0.000000
24.257300 0.000000
24.279600 0.000000
24.301900 0.000000
24.324200 0.000000
24.346500 0.000000
24.368800 0.000000
24.391100 0.000000
24.413400 0.000000
24.435700 0.000000
24.458000 0.000000
24.480300 0.000000
24.502600 0.000000
24.524800 0.000000
e
