set title 'mp-9851 - Density of States'
set xlabel 'Energy (eV)'
set ylabel 'DOS (states/eV)'
set grid
set xrange [-10:10]
set yrange [0:15.649]
set xzeroaxis lt -1
set terminal png size 800,600
set output 'mp-9851_dos_gnuplot.png'
plot '-' using 1:2 with lines title 'DOS'
-19.844200 0.000000
-19.827500 0.000000
-19.810900 0.000000
-19.794200 0.000000
-19.777500 0.000000
-19.760800 0.000000
-19.744200 0.000000
-19.727500 0.000000
-19.710800 0.000000
-19.694200 0.000000
-19.677500 0.000000
-19.660800 0.000000
-19.644200 0.000000
-19.627500 0.000000
-19.610800 0.000000
-19.594100 0.000000
-19.577500 0.000000
-19.560800 0.000000
-19.544100 0.000000
-19.527500 0.000000
-19.510800 0.000000
-19.494100 0.000000
-19.477500 0.000000
-19.460800 0.000000
-19.444100 0.000000
-19.427500 0.000000
-19.410800 0.000000
-19.394100 0.000000
-19.377400 0.000000
-19.360800 0.000000
-19.344100 0.000000
-19.327400 0.000000
-19.310800 0.000000
-19.294100 0.000000
-19.277400 0.000000
-19.260800 0.000000
-19.244100 0.000000
-19.227400 0.000000
-19.210700 0.000000
-19.194100 0.000000
-19.177400 0.000000
-19.160700 0.000000
-19.144100 0.000000
-19.127400 0.000000
-19.110700 0.000000
-19.094100 0.000000
-19.077400 0.000000
-19.060700 0.000000
-19.044100 0.000000
-19.027400 0.000000
-19.010700 0.000000
-18.994000 0.000000
-18.977400 0.000000
-18.960700 0.000000
-18.944000 0.000000
-18.927400 0.000000
-18.910700 0.000000
-18.894000 0.000000
-18.877400 0.000000
-18.860700 0.000000
-18.844000 0.000000
-18.827300 0.000000
-18.810700 0.000000
-18.794000 0.000000
-18.777300 0.000000
-18.760700 0.000000
-18.744000 0.000000
-18.727300 0.000000
-18.710700 0.000000
-18.694000 0.000000
-18.677300 0.000000
-18.660700 0.000000
-18.644000 0.000000
-18.627300 0.000000
-18.610600 0.000000
-18.594000 0.000000
-18.577300 0.000000
-18.560600 0.000000
-18.544000 0.000000
-18.527300 0.000000
-18.510600 0.000000
-18.494000 0.000000
-18.477300 0.000000
-18.460600 0.000000
-18.443900 0.000000
-18.427300 0.000000
-18.410600 0.000000
-18.393900 0.000000
-18.377300 0.000000
-18.360600 0.000000
-18.343900 0.000000
-18.327300 126.288800
-18.310600 0.000000
-18.293900 0.000000
-18.277300 0.000000
-18.260600 0.000000
-18.243900 0.000000
-18.227200 0.000000
-18.210600 0.000000
-18.193900 0.000000
-18.177200 325.560300
-18.160600 91.513900
-18.143900 505.059900
-18.127200 0.000000
-18.110600 0.000000
-18.093900 0.000000
-18.077200 0.000000
-18.060500 0.000000
-18.043900 0.000000
-18.027200 0.000000
-18.010500 0.000000
-17.993900 0.000000
-17.977200 0.000000
-17.960500 0.000000
-17.943900 0.000000
-17.927200 0.000000
-17.910500 0.000000
-17.893900 0.000000
-17.877200 0.000000
-17.860500 0.000000
-17.843800 0.000000
-17.827200 0.000000
-17.810500 0.000000
-17.793800 0.000000
-17.777200 0.000000
-17.760500 0.000000
-17.743800 0.000000
-17.727200 0.000000
-17.710500 0.000000
-17.693800 0.000000
-17.677100 0.000000
-17.660500 0.000000
-17.643800 0.000000
-17.627100 0.000000
-17.610500 0.000000
-17.593800 0.000000
-17.577100 0.000000
-17.560500 0.000000
-17.543800 0.000000
-17.527100 0.000000
-17.510500 0.000000
-17.493800 0.000000
-17.477100 0.000000
-17.460400 0.000000
-17.443800 0.000000
-17.427100 0.000000
-17.410400 0.000000
-17.393800 0.000000
-17.377100 0.000000
-17.360400 0.000000
-17.343800 0.000000
-17.327100 0.000000
-17.310400 0.000000
-17.293700 0.000000
-17.277100 0.000000
-17.260400 0.000000
-17.243700 0.000000
-17.227100 0.000000
-17.210400 0.000000
-17.193700 0.000000
-17.177100 0.000000
-17.160400 0.000000
-17.143700 0.000000
-17.127100 0.000000
-17.110400 0.000000
-17.093700 0.000000
-17.077000 0.000000
-17.060400 0.000000
-17.043700 0.000000
-17.027000 0.000000
-17.010400 0.000000
-16.993700 0.000000
-16.977000 0.000000
-16.960400 0.000000
-16.943700 0.000000
-16.927000 0.000000
-16.910300 0.000000
-16.893700 0.000000
-16.877000 0.000000
-16.860300 0.000000
-16.843700 0.000000
-16.827000 0.000000
-16.810300 0.000000
-16.793700 0.000000
-16.777000 0.000000
-16.760300 0.000000
-16.743700 0.000000
-16.727000 0.000000
-16.710300 0.000000
-16.693600 0.000000
-16.677000 0.000000
-16.660300 0.000000
-16.643600 0.000000
-16.627000 0.000000
-16.610300 0.000000
-16.593600 0.000000
-16.577000 0.000000
-16.560300 0.000000
-16.543600 0.000000
-16.526900 0.000000
-16.510300 0.000000
-16.493600 0.000000
-16.476900 0.000000
-16.460300 0.000000
-16.443600 0.000000
-16.426900 0.000000
-16.410300 0.000000
-16.393600 0.000000
-16.376900 0.000000
-16.360300 0.000000
-16.343600 0.000000
-16.326900 0.000000
-16.310200 0.000000
-16.293600 0.000000
-16.276900 0.000000
-16.260200 0.000000
-16.243600 0.000000
-16.226900 0.000000
-16.210200 0.000000
-16.193600 0.000000
-16.176900 0.000000
-16.160200 0.000000
-16.143500 0.000000
-16.126900 0.000000
-16.110200 0.000000
-16.093500 0.000000
-16.076900 0.000000
-16.060200 0.000000
-16.043500 0.000000
-16.026900 0.000000
-16.010200 0.000000
-15.993500 0.000000
-15.976900 0.000000
-15.960200 0.000000
-15.943500 0.000000
-15.926800 0.000000
-15.910200 0.000000
-15.893500 0.000000
-15.876800 0.000000
-15.860200 0.000000
-15.843500 0.000000
-15.826800 0.000000
-15.810200 0.000000
-15.793500 0.000000
-15.776800 0.000000
-15.760100 0.000000
-15.743500 0.000000
-15.726800 0.000000
-15.710100 0.000000
-15.693500 0.000000
-15.676800 0.000000
-15.660100 0.000000
-15.643500 0.000000
-15.626800 0.000000
-15.610100 0.000000
-15.593500 0.000000
-15.576800 0.000000
-15.560100 0.000000
-15.543400 0.000000
-15.526800 0.000000
-15.510100 0.000000
-15.493400 0.000000
-15.476800 0.000000
-15.460100 0.000000
-15.443400 0.000000
-15.426800 0.000000
-15.410100 0.000000
-15.393400 0.000000
-15.376700 0.000000
-15.360100 0.000000
-15.343400 0.000000
-15.326700 0.000000
-15.310100 0.000000
-15.293400 0.000000
-15.276700 0.000000
-15.260100 0.000000
-15.243400 0.000000
-15.226700 0.000000
-15.210100 0.000000
-15.193400 0.000000
-15.176700 0.000000
-15.160000 0.000000
-15.143400 0.000000
-15.126700 0.000000
-15.110000 0.000000
-15.093400 0.000000
-15.076700 0.000000
-15.060000 0.000000
-15.043400 0.000000
-15.026700 0.000000
-15.010000 0.000000
-14.993300 0.000000
-14.976700 0.000000
-14.960000 0.000000
-14.943300 0.000000
-14.926700 0.000000
-14.910000 0.000000
-14.893300 0.000000
-14.876700 0.000000
-14.860000 0.000000
-14.843300 0.000000
-14.826700 0.000000
-14.810000 0.000000
-14.793300 0.000000
-14.776600 0.000000
-14.760000 0.000000
-14.743300 0.000000
-14.726600 0.000000
-14.710000 0.000000
-14.693300 0.000000
-14.676600 0.000000
-14.660000 0.000000
-14.643300 0.000000
-14.626600 0.000000
-14.609900 0.000000
-14.593300 0.000000
-14.576600 0.000000
-14.559900 0.000000
-14.543300 0.000000
-14.526600 0.000000
-14.509900 0.000000
-14.493300 0.000000
-14.476600 0.000000
-14.459900 0.000000
-14.443300 0.000000
-14.426600 0.000000
-14.409900 0.000000
-14.393200 0.000000
-14.376600 0.000000
-14.359900 0.000000
-14.343200 0.000000
-14.326600 0.000000
-14.309900 0.000000
-14.293200 0.000000
-14.276600 0.000000
-14.259900 0.000000
-14.243200 0.000000
-14.226500 0.000000
-14.209900 0.000000
-14.193200 0.000000
-14.176500 0.000000
-14.159900 0.000000
-14.143200 0.000000
-14.126500 0.000000
-14.109900 0.000000
-14.093200 0.000000
-14.076500 0.000000
-14.059900 0.000000
-14.043200 0.000000
-14.026500 0.000000
-14.009800 0.000000
-13.993200 0.000000
-13.976500 0.000000
-13.959800 0.000000
-13.943200 0.000000
-13.926500 0.000000
-13.909800 0.000000
-13.893200 0.000000
-13.876500 0.000000
-13.859800 0.000000
-13.843100 0.000000
-13.826500 0.000000
-13.809800 0.000000
-13.793100 0.000000
-13.776500 0.000000
-13.759800 0.000000
-13.743100 0.000000
-13.726500 0.000000
-13.709800 0.000000
-13.693100 0.000000
-13.676500 0.000000
-13.659800 0.000000
-13.643100 0.000000
-13.626400 0.000000
-13.609800 0.000000
-13.593100 0.000000
-13.576400 0.000000
-13.559800 0.000000
-13.543100 0.000000
-13.526400 0.000000
-13.509800 0.000000
-13.493100 0.000000
-13.476400 0.000000
-13.459700 0.000000
-13.443100 0.000000
-13.426400 0.000000
-13.409700 0.000000
-13.393100 0.000000
-13.376400 0.000000
-13.359700 0.000000
-13.343100 0.000000
-13.326400 0.000000
-13.309700 0.000000
-13.293100 0.000000
-13.276400 0.000000
-13.259700 0.000000
-13.243000 0.000000
-13.226400 0.000000
-13.209700 0.000000
-13.193000 0.000000
-13.176400 0.000000
-13.159700 0.000000
-13.143000 0.000000
-13.126400 0.000000
-13.109700 0.000000
-13.093000 0.000000
-13.076300 0.000000
-13.059700 0.000000
-13.043000 0.000000
-13.026300 0.000000
-13.009700 0.000000
-12.993000 0.000000
-12.976300 0.000000
-12.959700 0.000000
-12.943000 0.000000
-12.926300 0.000000
-12.909700 0.000000
-12.893000 0.000000
-12.876300 0.000000
-12.859600 0.000000
-12.843000 0.000000
-12.826300 0.000000
-12.809600 0.000000
-12.793000 0.000000
-12.776300 0.000000
-12.759600 0.000000
-12.743000 0.000000
-12.726300 0.000000
-12.709600 0.000000
-12.692900 0.000000
-12.676300 0.000000
-12.659600 0.000000
-12.642900 0.000000
-12.626300 0.000000
-12.609600 0.000000
-12.592900 0.000000
-12.576300 0.000000
-12.559600 0.000000
-12.542900 0.000000
-12.526300 0.000000
-12.509600 0.000000
-12.492900 0.000000
-12.476200 0.000000
-12.459600 0.000000
-12.442900 0.000000
-12.426200 0.000000
-12.409600 0.000000
-12.392900 0.000000
-12.376200 0.000000
-12.359600 0.000000
-12.342900 0.000000
-12.326200 0.000000
-12.309500 0.000000
-12.292900 0.000000
-12.276200 0.000000
-12.259500 0.000000
-12.242900 0.000000
-12.226200 0.000000
-12.209500 0.000000
-12.192900 0.000000
-12.176200 0.000000
-12.159500 0.000000
-12.142900 0.000000
-12.126200 0.000000
-12.109500 0.000000
-12.092800 0.000000
-12.076200 0.000000
-12.059500 0.000000
-12.042800 0.000000
-12.026200 0.000000
-12.009500 0.000000
-11.992800 0.000000
-11.976200 0.000000
-11.959500 0.000000
-11.942800 0.000000
-11.926100 0.000000
-11.909500 0.000000
-11.892800 0.000000
-11.876100 0.000000
-11.859500 0.000000
-11.842800 0.000000
-11.826100 0.000000
-11.809500 0.000000
-11.792800 0.000000
-11.776100 0.000000
-11.759500 0.000000
-11.742800 0.000000
-11.726100 0.000000
-11.709400 0.000000
-11.692800 0.000000
-11.676100 0.000000
-11.659400 0.000000
-11.642800 0.000000
-11.626100 0.000000
-11.609400 0.000000
-11.592800 0.000000
-11.576100 0.000000
-11.559400 0.000000
-11.542700 0.000000
-11.526100 0.000000
-11.509400 0.000000
-11.492700 0.000000
-11.476100 0.000000
-11.459400 0.000000
-11.442700 0.000000
-11.426100 0.000000
-11.409400 0.000000
-11.392700 0.000000
-11.376100 0.000000
-11.359400 0.000000
-11.342700 0.000000
-11.326000 0.000000
-11.309400 0.000000
-11.292700 0.000000
-11.276000 0.000000
-11.259400 0.000000
-11.242700 0.000000
-11.226000 0.000000
-11.209400 0.000000
-11.192700 0.000000
-11.176000 0.000000
-11.159300 0.000000
-11.142700 0.000000
-11.126000 0.000000
-11.109300 0.000000
-11.092700 0.000000
-11.076000 0.000000
-11.059300 0.000000
-11.042700 0.000000
-11.026000 0.000000
-11.009300 0.000000
-10.992700 0.000000
-10.976000 0.000000
-10.959300 0.000000
-10.942600 0.000000
-10.926000 0.000000
-10.909300 0.000000
-10.892600 0.000000
-10.876000 0.000000
-10.859300 0.000000
-10.842600 0.000000
-10.826000 0.000000
-10.809300 0.000000
-10.792600 0.000000
-10.775900 0.000000
-10.759300 0.000000
-10.742600 0.000000
-10.725900 0.000000
-10.709300 0.000000
-10.692600 0.000000
-10.675900 0.000000
-10.659300 0.000000
-10.642600 0.000000
-10.625900 0.000000
-10.609300 0.000000
-10.592600 0.000000
-10.575900 0.000000
-10.559200 0.000000
-10.542600 0.000000
-10.525900 0.000000
-10.509200 0.000000
-10.492600 0.000000
-10.475900 0.000000
-10.459200 0.000000
-10.442600 0.000000
-10.425900 0.000000
-10.409200 0.000000
-10.392500 0.000000
-10.375900 0.000000
-10.359200 0.000000
-10.342500 0.000000
-10.325900 0.000000
-10.309200 0.000000
-10.292500 0.000000
-10.275900 0.000000
-10.259200 0.000000
-10.242500 0.000000
-10.225900 0.000000
-10.209200 0.000000
-10.192500 0.000000
-10.175800 0.000000
-10.159200 0.000000
-10.142500 0.000000
-10.125800 0.000000
-10.109200 0.000000
-10.092500 0.000000
-10.075800 0.000000
-10.059200 0.000000
-10.042500 0.000000
-10.025800 0.000000
-10.009200 0.000000
-9.992500 0.000000
-9.975800 0.000000
-9.959100 0.000000
-9.942500 0.000000
-9.925800 0.000000
-9.909100 0.000000
-9.892500 0.000000
-9.875800 0.000000
-9.859100 0.000000
-9.842500 0.000000
-9.825800 0.000000
-9.809100 0.000000
-9.792400 0.000000
-9.775800 0.000000
-9.759100 0.000000
-9.742400 0.000000
-9.725800 0.000000
-9.709100 0.000000
-9.692400 0.000000
-9.675800 0.000000
-9.659100 0.000000
-9.642400 0.000000
-9.625800 0.000000
-9.609100 0.000000
-9.592400 0.000000
-9.575700 0.000000
-9.559100 0.000000
-9.542400 0.000000
-9.525700 0.000000
-9.509100 0.000000
-9.492400 0.000000
-9.475700 0.000000
-9.459100 0.000000
-9.442400 0.000000
-9.425700 0.000000
-9.409000 0.000000
-9.392400 0.000000
-9.375700 0.000000
-9.359000 0.000000
-9.342400 0.000000
-9.325700 0.000000
-9.309000 0.000000
-9.292400 0.000000
-9.275700 0.000000
-9.259000 0.000000
-9.242400 0.000000
-9.225700 0.000000
-9.209000 0.000000
-9.192300 0.000000
-9.175700 0.000000
-9.159000 0.001400
-9.142300 0.198500
-9.125700 0.569000
-9.109000 0.807900
-9.092300 0.909200
-9.075700 1.043800
-9.059000 1.189100
-9.042300 1.342600
-9.025600 1.490000
-9.009000 1.627700
-8.992300 1.743400
-8.975600 1.860200
-8.959000 1.994900
-8.942300 2.138600
-8.925600 2.305800
-8.909000 2.481800
-8.892300 2.668900
-8.875600 2.928700
-8.859000 3.338800
-8.842300 3.562800
-8.825600 3.527700
-8.808900 3.552800
-8.792300 3.626300
-8.775600 3.665300
-8.758900 3.719500
-8.742300 3.791600
-8.725600 3.850500
-8.708900 3.935700
-8.692300 4.027100
-8.675600 4.120700
-8.658900 4.448900
-8.642200 4.659000
-8.625600 4.655200
-8.608900 4.594800
-8.592200 4.592300
-8.575600 4.603600
-8.558900 4.590000
-8.542200 4.555200
-8.525600 4.604800
-8.508900 4.295200
-8.492200 3.926200
-8.475600 3.732100
-8.458900 3.641100
-8.442200 3.551300
-8.425500 3.467300
-8.408900 3.387000
-8.392200 3.310500
-8.375500 3.240900
-8.358900 3.249900
-8.342200 3.272900
-8.325500 3.291800
-8.308900 3.317700
-8.292200 3.350200
-8.275500 3.388800
-8.258800 3.436200
-8.242200 3.438900
-8.225500 3.370900
-8.208800 3.293100
-8.192200 3.281500
-8.175500 3.255200
-8.158800 3.175700
-8.142200 3.074600
-8.125500 2.946200
-8.108800 2.773100
-8.092200 2.542400
-8.075500 2.344600
-8.058800 2.228500
-8.042100 2.121300
-8.025500 2.019300
-8.008800 1.922300
-7.992100 1.831000
-7.975500 1.745900
-7.958800 1.666200
-7.942100 1.598100
-7.925500 1.538300
-7.908800 1.480700
-7.892100 1.426000
-7.875400 1.373000
-7.858800 1.321300
-7.842100 1.277000
-7.825400 1.225000
-7.808800 1.166200
-7.792100 1.122600
-7.775400 1.079800
-7.758800 1.034200
-7.742100 0.985700
-7.725400 0.933900
-7.708800 0.879100
-7.692100 0.816300
-7.675400 0.752900
-7.658700 0.688800
-7.642100 0.623800
-7.625400 0.549700
-7.608700 0.442700
-7.592100 0.367100
-7.575400 0.304200
-7.558700 0.247900
-7.542100 0.220800
-7.525400 0.303600
-7.508700 0.394300
-7.492000 0.461900
-7.475400 0.517900
-7.458700 0.603200
-7.442000 0.714300
-7.425400 0.836500
-7.408700 0.973900
-7.392000 1.163600
-7.375400 1.315900
-7.358700 1.439900
-7.342000 1.549300
-7.325400 1.659300
-7.308700 1.762700
-7.292000 1.864000
-7.275300 1.971900
-7.258700 2.096900
-7.242000 2.231300
-7.225300 2.426400
-7.208700 2.632700
-7.192000 2.790600
-7.175300 2.906500
-7.158700 3.010600
-7.142000 3.108600
-7.125300 3.203000
-7.108600 3.264800
-7.092000 3.342100
-7.075300 3.421700
-7.058600 3.468200
-7.042000 3.560400
-7.025300 3.639800
-7.008600 3.758600
-6.992000 3.868600
-6.975300 3.978200
-6.958600 4.054700
-6.942000 4.382300
-6.925300 4.633600
-6.908600 4.256200
-6.891900 4.169800
-6.875300 4.134100
-6.858600 4.015400
-6.841900 3.958500
-6.825300 3.565200
-6.808600 3.069900
-6.791900 3.012500
-6.775300 2.953700
-6.758600 2.893300
-6.741900 2.831300
-6.725200 2.767700
-6.708600 2.699700
-6.691900 2.633900
-6.675200 2.571900
-6.658600 2.508800
-6.641900 2.446200
-6.625200 2.385400
-6.608600 2.327000
-6.591900 2.276500
-6.575200 2.232200
-6.558600 2.187700
-6.541900 2.142200
-6.525200 2.100300
-6.508500 2.063800
-6.491900 2.027700
-6.475200 1.985300
-6.458500 1.951200
-6.441900 1.919100
-6.425200 1.888800
-6.408500 1.859000
-6.391900 1.827200
-6.375200 1.805000
-6.358500 1.788000
-6.341800 1.771100
-6.325200 1.754800
-6.308500 1.738800
-6.291800 1.721600
-6.275200 1.701600
-6.258500 1.679700
-6.241800 1.656500
-6.225200 1.632200
-6.208500 1.608100
-6.191800 1.586600
-6.175200 1.564800
-6.158500 1.541900
-6.141800 1.520500
-6.125100 1.502700
-6.108500 1.486600
-6.091800 1.619200
-6.075100 1.763700
-6.058500 1.932600
-6.041800 2.110000
-6.025100 2.329100
-6.008500 2.666600
-5.991800 2.893400
-5.975100 3.090200
-5.958400 3.177900
-5.941800 3.207200
-5.925100 3.196100
-5.908400 3.151900
-5.891800 3.015300
-5.875100 2.950700
-5.858400 2.891200
-5.841800 2.850300
-5.825100 2.835100
-5.808400 2.822500
-5.791800 2.815500
-5.775100 2.820600
-5.758400 2.846000
-5.741700 2.900900
-5.725100 2.950900
-5.708400 3.008700
-5.691700 3.058200
-5.675100 3.068600
-5.658400 2.960300
-5.641700 2.755600
-5.625100 2.470800
-5.608400 2.094300
-5.591700 1.794200
-5.575000 1.597400
-5.558400 1.569200
-5.541700 1.576600
-5.525000 1.594300
-5.508400 1.620100
-5.491700 1.645000
-5.475000 1.667900
-5.458400 1.690300
-5.441700 1.712300
-5.425000 1.734100
-5.408400 1.755600
-5.391700 1.777100
-5.375000 1.798600
-5.358300 1.827000
-5.341700 1.868300
-5.325000 1.935100
-5.308300 2.020000
-5.291700 2.116300
-5.275000 2.211400
-5.258300 2.316600
-5.241700 2.420300
-5.225000 2.517400
-5.208300 2.626800
-5.191600 2.765900
-5.175000 2.929500
-5.158300 3.131100
-5.141600 3.210400
-5.125000 3.321400
-5.108300 3.445700
-5.091600 3.499000
-5.075000 3.560100
-5.058300 3.604700
-5.041600 3.501100
-5.025000 3.384700
-5.008300 3.275900
-4.991600 3.220800
-4.974900 3.166300
-4.958300 3.088100
-4.941600 2.994500
-4.924900 2.858600
-4.908300 2.771900
-4.891600 2.712800
-4.874900 2.692700
-4.858300 2.648800
-4.841600 2.555900
-4.824900 2.484100
-4.808200 2.426000
-4.791600 2.400000
-4.774900 2.380100
-4.758200 2.361700
-4.741600 2.343200
-4.724900 2.328300
-4.708200 2.312200
-4.691600 2.305800
-4.674900 2.295500
-4.658200 2.278600
-4.641600 2.253200
-4.624900 2.191900
-4.608200 2.175100
-4.591500 2.192500
-4.574900 2.191400
-4.558200 2.138800
-4.541500 2.062800
-4.524900 1.995900
-4.508200 1.951300
-4.491500 1.921200
-4.474900 1.924400
-4.458200 2.008800
-4.441500 2.107300
-4.424800 2.166600
-4.408200 2.177200
-4.391500 2.179500
-4.374800 2.145800
-4.358200 2.120900
-4.341500 2.108100
-4.324800 2.042700
-4.308200 2.029100
-4.291500 2.056000
-4.274800 2.072000
-4.258200 2.003400
-4.241500 1.953800
-4.224800 1.933700
-4.208100 1.938200
-4.191500 1.950000
-4.174800 1.961000
-4.158100 1.980500
-4.141500 2.004400
-4.124800 2.026200
-4.108100 2.058300
-4.091500 2.108000
-4.074800 2.178000
-4.058100 2.264600
-4.041400 2.300500
-4.024800 2.308600
-4.008100 2.295800
-3.991400 2.263500
-3.974800 2.238000
-3.958100 2.217900
-3.941400 2.197100
-3.924800 2.176000
-3.908100 2.161300
-3.891400 2.152000
-3.874800 2.140700
-3.858100 2.114600
-3.841400 2.091100
-3.824700 2.065900
-3.808100 2.058900
-3.791400 2.084600
-3.774700 2.122000
-3.758100 2.158000
-3.741400 2.187200
-3.724700 2.216900
-3.708100 2.244600
-3.691400 2.270400
-3.674700 2.301800
-3.658000 2.337300
-3.641400 2.376100
-3.624700 2.408200
-3.608000 2.442300
-3.591400 2.477400
-3.574700 2.512900
-3.558000 2.549200
-3.541400 2.588200
-3.524700 2.629600
-3.508000 2.675800
-3.491400 2.724000
-3.474700 2.774200
-3.458000 2.826400
-3.441300 2.885400
-3.424700 2.973000
-3.408000 3.082400
-3.391300 3.198700
-3.374700 3.337200
-3.358000 3.549000
-3.341300 3.728600
-3.324700 3.823100
-3.308000 3.888700
-3.291300 3.920400
-3.274600 3.967600
-3.258000 3.981300
-3.241300 3.968500
-3.224600 3.960700
-3.208000 3.913300
-3.191300 3.744600
-3.174600 3.595000
-3.158000 3.473100
-3.141300 3.357700
-3.124600 3.299600
-3.108000 3.238400
-3.091300 3.166800
-3.074600 3.090800
-3.057900 3.023300
-3.041300 2.942300
-3.024600 2.856500
-3.007900 2.769500
-2.991300 2.635500
-2.974600 2.546600
-2.957900 2.465500
-2.941300 2.387100
-2.924600 2.312100
-2.907900 2.243900
-2.891200 2.182800
-2.874600 2.120300
-2.857900 2.047200
-2.841200 2.008200
-2.824600 1.963300
-2.807900 1.917800
-2.791200 1.869400
-2.774600 1.756600
-2.757900 1.594900
-2.741200 1.478000
-2.724600 1.532700
-2.707900 1.527800
-2.691200 1.540200
-2.674500 1.620000
-2.657900 1.643300
-2.641200 1.561200
-2.624500 1.551200
-2.607900 1.539000
-2.591200 1.532800
-2.574500 1.526700
-2.557900 1.518700
-2.541200 1.512000
-2.524500 1.511600
-2.507800 1.499900
-2.491200 1.487300
-2.474500 1.471200
-2.457800 1.451900
-2.441200 1.459900
-2.424500 1.572000
-2.407800 1.641600
-2.391200 1.718400
-2.374500 1.790400
-2.357800 1.857500
-2.341200 1.956100
-2.324500 1.967700
-2.307800 2.020000
-2.291100 2.069800
-2.274500 2.117800
-2.257800 2.155200
-2.241100 2.194200
-2.224500 2.247900
-2.207800 2.330500
-2.191100 2.450800
-2.174500 2.578000
-2.157800 2.726400
-2.141100 2.856800
-2.124400 2.967500
-2.107800 3.100500
-2.091100 3.174800
-2.074400 3.200500
-2.057800 3.268500
-2.041100 3.244900
-2.024400 3.277900
-2.007800 3.284200
-1.991100 3.239600
-1.974400 3.190700
-1.957800 3.141500
-1.941100 3.094400
-1.924400 3.051100
-1.907700 2.996200
-1.891100 2.945400
-1.874400 2.907900
-1.857700 2.885700
-1.841100 2.864200
-1.824400 2.843300
-1.807700 2.823900
-1.791100 2.806800
-1.774400 2.793500
-1.757700 2.780400
-1.741000 2.767800
-1.724400 2.751300
-1.707700 2.732000
-1.691000 2.718100
-1.674400 2.704600
-1.657700 2.691100
-1.641000 2.677400
-1.624400 2.662600
-1.607700 2.647600
-1.591000 2.631700
-1.574400 2.616600
-1.557700 2.601800
-1.541000 2.590800
-1.524300 2.584700
-1.507700 2.578100
-1.491000 2.571200
-1.474300 2.563200
-1.457700 2.554000
-1.441000 2.543000
-1.424300 2.531500
-1.407700 2.529000
-1.391000 2.536700
-1.374300 2.538700
-1.357600 2.514900
-1.341000 2.479800
-1.324300 2.449100
-1.307600 2.419000
-1.291000 2.382400
-1.274300 2.344800
-1.257600 2.296300
-1.241000 2.247700
-1.224300 2.204400
-1.207600 2.166200
-1.191000 2.129300
-1.174300 2.166500
-1.157600 2.259400
-1.140900 2.074500
-1.124300 1.937400
-1.107600 1.874200
-1.090900 1.817800
-1.074300 1.771300
-1.057600 1.750100
-1.040900 1.834600
-1.024300 1.858300
-1.007600 1.812200
-0.990900 1.623000
-0.974200 1.468500
-0.957600 1.309100
-0.940900 1.213100
-0.924200 1.316000
-0.907600 1.285100
-0.890900 0.946100
-0.874200 0.354800
-0.857600 0.179400
-0.840900 0.093400
-0.824200 0.206100
-0.807600 0.282500
-0.790900 0.343700
-0.774200 0.417600
-0.757500 0.509800
-0.740900 0.612400
-0.724200 0.727200
-0.707500 0.848700
-0.690900 0.981200
-0.674200 1.079100
-0.657500 1.163900
-0.640900 1.241700
-0.624200 1.321300
-0.607500 1.418400
-0.590800 1.547300
-0.574200 1.700600
-0.557500 1.854700
-0.540800 1.992900
-0.524200 2.114100
-0.507500 2.246800
-0.490800 2.355800
-0.474200 2.444500
-0.457500 2.537000
-0.440800 2.622700
-0.424200 2.719700
-0.407500 2.834400
-0.390800 2.961800
-0.374100 3.095100
-0.357500 3.261800
-0.340800 3.314900
-0.324100 3.274900
-0.307500 3.284300
-0.290800 3.248600
-0.274100 3.231200
-0.257500 3.223900
-0.240800 3.217100
-0.224100 3.208900
-0.207400 3.196700
-0.190800 3.168900
-0.174100 3.132500
-0.157400 3.101500
-0.140800 3.093400
-0.124100 3.098300
-0.107400 3.115200
-0.090800 3.146800
-0.074100 3.187100
-0.057400 3.238000
-0.040800 3.299300
-0.024100 3.368900
-0.007400 3.451900
0.009300 3.547900
0.025900 3.652400
0.042600 3.766600
0.059300 3.902500
0.075900 4.068100
0.092600 4.166500
0.109300 4.261300
0.125900 4.302800
0.142600 4.363700
0.159300 4.372000
0.176000 4.407500
0.192600 4.508900
0.209300 4.708200
0.226000 4.990200
0.242600 5.315300
0.259300 5.578600
0.276000 5.606800
0.292600 5.484100
0.309300 5.287900
0.326000 5.077200
0.342600 5.130700
0.359300 5.202700
0.376000 5.256300
0.392700 5.348200
0.409300 5.519100
0.426000 5.836100
0.442700 6.025800
0.459300 6.459300
0.476000 6.981500
0.492700 7.054700
0.509300 7.070500
0.526000 7.125600
0.542700 7.126200
0.559400 7.301200
0.576000 7.723800
0.592700 7.660300
0.609400 7.419700
0.626000 7.702400
0.642700 7.912400
0.659400 8.230500
0.676000 8.344500
0.692700 8.556200
0.709400 8.449100
0.726000 7.795900
0.742700 7.288800
0.759400 6.650900
0.776100 6.175200
0.792700 5.741300
0.809400 5.399400
0.826100 5.182200
0.842700 4.809600
0.859400 4.635200
0.876100 4.439400
0.892700 4.258900
0.909400 4.077300
0.926100 4.055600
0.942800 4.173100
0.959400 4.242600
0.976100 4.163200
0.992800 4.236700
1.009400 4.407400
1.026100 4.164200
1.042800 3.841800
1.059400 3.805000
1.076100 3.808900
1.092800 3.712400
1.109400 3.695300
1.126100 4.058200
1.142800 4.809300
1.159500 5.424100
1.176100 5.821500
1.192800 6.107700
1.209500 6.649700
1.226100 7.087000
1.242800 7.321300
1.259500 7.275000
1.276100 7.339600
1.292800 7.271500
1.309500 7.347700
1.326200 7.339000
1.342800 7.346500
1.359500 7.190600
1.376200 6.968500
1.392800 6.723800
1.409500 6.402800
1.426200 6.183900
1.442800 6.029100
1.459500 5.811600
1.476200 5.491500
1.492800 5.247800
1.509500 5.220700
1.526200 5.270800
1.542900 5.415100
1.559500 5.573300
1.576200 5.247000
1.592900 5.226500
1.609500 5.736500
1.626200 6.416400
1.642900 5.975100
1.659500 5.805800
1.676200 5.595700
1.692900 5.357600
1.709600 5.163500
1.726200 5.044700
1.742900 4.933000
1.759600 4.818100
1.776200 4.725400
1.792900 4.647300
1.809600 4.615700
1.826200 4.656600
1.842900 4.601800
1.859600 4.667000
1.876200 4.845300
1.892900 4.850200
1.909600 4.732800
1.926300 4.618400
1.942900 4.551900
1.959600 4.495700
1.976300 4.514100
1.992900 4.429400
2.009600 4.498800
2.026300 4.633800
2.042900 4.815000
2.059600 4.986000
2.076300 5.163500
2.093000 5.339500
2.109600 5.514100
2.126300 5.780000
2.143000 6.095000
2.159600 6.219400
2.176300 6.348800
2.193000 6.661400
2.209600 7.194000
2.226300 7.799500
2.243000 8.024700
2.259600 7.766100
2.276300 7.495100
2.293000 7.364700
2.309700 7.343000
2.326300 7.385800
2.343000 7.449000
2.359700 7.749100
2.376300 7.757600
2.393000 7.695700
2.409700 7.521800
2.426300 7.214700
2.443000 7.471500
2.459700 7.619000
2.476400 7.523500
2.493000 7.476200
2.509700 7.701700
2.526400 8.041100
2.543000 8.066200
2.559700 7.941800
2.576400 8.983600
2.593000 9.358700
2.609700 9.498700
2.626400 9.666100
2.643000 9.536000
2.659700 9.129600
2.676400 8.319400
2.693100 7.696900
2.709700 7.209500
2.726400 6.816300
2.743100 6.625700
2.759700 6.568000
2.776400 6.283100
2.793100 6.263900
2.809700 6.348700
2.826400 6.615700
2.843100 6.957200
2.859800 7.091100
2.876400 7.199400
2.893100 7.284800
2.909800 6.932300
2.926400 6.568600
2.943100 6.286500
2.959800 6.080800
2.976400 6.432900
2.993100 6.070400
3.009800 6.186900
3.026400 6.015200
3.043100 5.989100
3.059800 6.320700
3.076500 6.595400
3.093100 6.694200
3.109800 6.698200
3.126500 6.608500
3.143100 6.297200
3.159800 5.959900
3.176500 5.666600
3.193100 5.478200
3.209800 5.303000
3.226500 5.290700
3.243200 5.410800
3.259800 5.719600
3.276500 6.765700
3.293200 7.692900
3.309800 7.333200
3.326500 7.016300
3.343200 6.752900
3.359800 6.580700
3.376500 6.441300
3.393200 6.369000
3.409800 6.359100
3.426500 6.444300
3.443200 6.146100
3.459900 6.202400
3.476500 6.325200
3.493200 6.491300
3.509900 6.510600
3.526500 6.623000
3.543200 6.924800
3.559900 7.017400
3.576500 6.991800
3.593200 7.021200
3.609900 7.034800
3.626600 7.173600
3.643200 7.467100
3.659900 7.902500
3.676600 8.006700
3.693200 8.067300
3.709900 7.809000
3.726600 7.324500
3.743200 7.901900
3.759900 8.668100
3.776600 9.023300
3.793200 9.019900
3.809900 8.864900
3.826600 9.411600
3.843300 9.513700
3.859900 9.772800
3.876600 9.884000
3.893300 9.713400
3.909900 9.660700
3.926600 9.318300
3.943300 8.516800
3.959900 8.238800
3.976600 7.937900
3.993300 8.171100
4.010000 8.583000
4.026600 9.332000
4.043300 10.913600
4.060000 14.226000
4.076600 12.005300
4.093300 11.084700
4.110000 9.825200
4.126600 9.114000
4.143300 8.941100
4.160000 9.337100
4.176600 9.552900
4.193300 10.499200
4.210000 11.146800
4.226700 10.305400
4.243300 9.624600
4.260000 9.042000
4.276700 9.387000
4.293300 9.498300
4.310000 10.164400
4.326700 10.253400
4.343300 10.474600
4.360000 11.240800
4.376700 10.393100
4.393400 9.482000
4.410000 7.826300
4.426700 6.484300
4.443400 5.591800
4.460000 5.131900
4.476700 4.860300
4.493400 4.486200
4.510000 4.187800
4.526700 4.070600
4.543400 3.497500
4.560000 3.187500
4.576700 3.054100
4.593400 3.418000
4.610100 3.625700
4.626700 3.956600
4.643400 4.321900
4.660100 4.501100
4.676700 4.481200
4.693400 4.436300
4.710100 4.738900
4.726700 5.365100
4.743400 6.350500
4.760100 7.067500
4.776800 7.146900
4.793400 7.838400
4.810100 8.461800
4.826800 9.024800
4.843400 9.147600
4.860100 9.537900
4.876800 10.033500
4.893400 10.170400
4.910100 10.056200
4.926800 8.788600
4.943400 7.054900
4.960100 6.231600
4.976800 5.146500
4.993500 4.468000
5.010100 4.182800
5.026800 3.999500
5.043500 3.898400
5.060100 3.810100
5.076800 3.696700
5.093500 3.590300
5.110100 3.501200
5.126800 3.389300
5.143500 3.251800
5.160200 3.075400
5.176800 2.860400
5.193500 2.634000
5.210200 2.411100
5.226800 2.243500
5.243500 2.115000
5.260200 2.162700
5.276800 1.902000
5.293500 1.561200
5.310200 1.004000
5.326800 0.761900
5.343500 0.655900
5.360200 0.571400
5.376900 0.494200
5.393500 0.417900
5.410200 0.324900
5.426900 0.216100
5.443500 0.127900
5.460200 0.058900
5.476900 0.014800
5.493500 0.000000
5.510200 0.000000
5.526900 0.000000
5.543600 0.000000
5.560200 0.000000
5.576900 0.000000
5.593600 0.000000
5.610200 0.000000
5.626900 0.000000
5.643600 0.120000
5.660200 0.140800
5.676900 0.163000
5.693600 0.186800
5.710200 0.212100
5.726900 0.238900
5.743600 0.258900
5.760300 0.279000
5.776900 0.300200
5.793600 0.321200
5.810300 0.341600
5.826900 0.367300
5.843600 0.387300
5.860300 0.398900
5.876900 0.405600
5.893600 0.417300
5.910300 0.435200
5.927000 0.456500
5.943600 0.481600
5.960300 0.510600
5.977000 0.543500
5.993600 0.580300
6.010300 0.620900
6.027000 0.667200
6.043600 0.726800
6.060300 0.789400
6.077000 0.854200
6.093600 0.933300
6.110300 1.028600
6.127000 1.123000
6.143700 1.223400
6.160300 1.330200
6.177000 1.443600
6.193700 1.605900
6.210300 1.973700
6.227000 1.980800
6.243700 1.911700
6.260300 1.720100
6.277000 1.630400
6.293700 1.610100
6.310400 1.600300
6.327000 1.615200
6.343700 1.654100
6.360400 1.711700
6.377000 1.791300
6.393700 1.882700
6.410400 2.003700
6.427000 2.150200
6.443700 2.311700
6.460400 2.509900
6.477000 2.787500
6.493700 2.768300
6.510400 2.796300
6.527100 2.815200
6.543700 2.837400
6.560400 2.886900
6.577100 2.854800
6.593700 2.772100
6.610400 2.858200
6.627100 2.928900
6.643700 3.033100
6.660400 3.163300
6.677100 3.212600
6.693800 3.263100
6.710400 3.315300
6.727100 3.381000
6.743800 3.488500
6.760400 3.664400
6.777100 3.906700
6.793800 4.194200
6.810400 4.387500
6.827100 4.545800
6.843800 4.627800
6.860400 4.627500
6.877100 4.661000
6.893800 4.729700
6.910500 4.882300
6.927100 4.974400
6.943800 5.016900
6.960500 5.325800
6.977100 5.301100
6.993800 5.400900
7.010500 5.425300
7.027100 5.389000
7.043800 5.295400
7.060500 5.365500
7.077200 5.371500
7.093800 5.436000
7.110500 5.494800
7.127200 5.498100
7.143800 5.447300
7.160500 5.418600
7.177200 5.382200
7.193800 5.400800
7.210500 5.625400
7.227200 6.001200
7.243800 6.130600
7.260500 6.250900
7.277200 6.416600
7.293900 6.624600
7.310500 6.887500
7.327200 6.868900
7.343900 6.857000
7.360500 6.963400
7.377200 7.078200
7.393900 7.402900
7.410500 7.492700
7.427200 7.286300
7.443900 6.910600
7.460500 6.394300
7.477200 5.974600
7.493900 5.729300
7.510600 5.610300
7.527200 5.475100
7.543900 5.322800
7.560600 5.121400
7.577200 4.905900
7.593900 4.729800
7.610600 4.847800
7.627200 5.117600
7.643900 5.493800
7.660600 5.912100
7.677300 6.489900
7.693900 6.965500
7.710600 7.325500
7.727300 7.796300
7.743900 7.928500
7.760600 8.116700
7.777300 8.246400
7.793900 8.453300
7.810600 8.816200
7.827300 9.123700
7.843900 9.299200
7.860600 9.485300
7.877300 9.628500
7.894000 9.970000
7.910600 9.370700
7.927300 8.956900
7.944000 8.457300
7.960600 7.974100
7.977300 7.444000
7.994000 7.152000
8.010600 6.929900
8.027300 6.938700
8.044000 7.116200
8.060700 7.249800
8.077300 7.925400
8.094000 8.426400
8.110700 9.208600
8.127300 9.802100
8.144000 10.360000
8.160700 9.483100
8.177300 9.247600
8.194000 9.144800
8.210700 9.171200
8.227300 8.972800
8.244000 9.165600
8.260700 9.400200
8.277400 9.328800
8.294000 9.608600
8.310700 9.949600
8.327400 10.044700
8.344000 9.418800
8.360700 9.016700
8.377400 8.777400
8.394000 8.665400
8.410700 8.539900
8.427400 8.541600
8.444100 8.326500
8.460700 8.456400
8.477400 8.752400
8.494100 8.967700
8.510700 9.351400
8.527400 9.411700
8.544100 9.041600
8.560700 9.222600
8.577400 9.404500
8.594100 9.066700
8.610700 9.079700
8.627400 9.508900
8.644100 10.289100
8.660800 10.704200
8.677400 10.645900
8.694100 10.063600
8.710800 9.537100
8.727400 9.383400
8.744100 9.565000
8.760800 9.774100
8.777400 9.744600
8.794100 9.465100
8.810800 8.679900
8.827500 8.397700
8.844100 9.207900
8.860800 8.101500
8.877500 8.017600
8.894100 8.104900
8.910800 8.416700
8.927500 8.367100
8.944100 8.684400
8.960800 8.522100
8.977500 8.956800
8.994100 9.176100
9.010800 9.279900
9.027500 9.668400
9.044200 9.650400
9.060800 9.504500
9.077500 9.506900
9.094200 9.595400
9.110800 9.537000
9.127500 9.711400
9.144200 9.915200
9.160800 10.191600
9.177500 10.090900
9.194200 10.474200
9.210900 10.624700
9.227500 10.843000
9.244200 10.344000
9.260900 10.165700
9.277500 10.150500
9.294200 10.635600
9.310900 11.629300
9.327500 11.808300
9.344200 11.980100
9.360900 12.357900
9.377500 12.463200
9.394200 13.460400
9.410900 12.594700
9.427600 11.663900
9.444200 11.372200
9.460900 10.962600
9.477600 10.551100
9.494200 10.528600
9.510900 10.975100
9.527600 10.946400
9.544200 10.815800
9.560900 10.642300
9.577600 10.224900
9.594300 10.019700
9.610900 10.426800
9.627600 10.545000
9.644300 9.912100
9.660900 9.802500
9.677600 10.118100
9.694300 10.624300
9.710900 10.741000
9.727600 11.112200
9.744300 11.107500
9.760900 11.086000
9.777600 11.011000
9.794300 10.803600
9.811000 10.587300
9.827600 10.367600
9.844300 10.736400
9.861000 10.845300
9.877600 10.735800
9.894300 10.621800
9.911000 10.552400
9.927600 10.554500
9.944300 10.574100
9.961000 10.514000
9.977700 10.819200
9.994300 10.655000
10.011000 10.045700
10.027700 9.163700
10.044300 8.418400
10.061000 7.790400
10.077700 7.915100
10.094300 8.323300
10.111000 8.882600
10.127700 9.705300
10.144300 9.232600
10.161000 8.646200
10.177700 8.310600
10.194400 8.322800
10.211000 8.824500
10.227700 9.957500
10.244400 9.775000
10.261000 9.368800
10.277700 9.039700
10.294400 9.092600
10.311000 9.191100
10.327700 9.196500
10.344400 9.313000
10.361100 9.318900
10.377700 9.102000
10.394400 8.984300
10.411100 8.854700
10.427700 8.762000
10.444400 8.751100
10.461100 8.399100
10.477700 8.280900
10.494400 8.374400
10.511100 8.916600
10.527700 9.167200
10.544400 9.242900
10.561100 9.624900
10.577800 9.982400
10.594400 10.189500
10.611100 10.320000
10.627800 9.497800
10.644400 9.142600
10.661100 9.345700
10.677800 9.467500
10.694400 9.223300
10.711100 8.939700
10.727800 8.406900
10.744500 8.391200
10.761100 8.596600
10.777800 8.882200
10.794500 8.982700
10.811100 9.062900
10.827800 8.837800
10.844500 8.360500
10.861100 8.100700
10.877800 8.232400
10.894500 8.811000
10.911100 8.684700
10.927800 8.530500
10.944500 8.685600
10.961200 8.782400
10.977800 9.201600
10.994500 9.734300
11.011200 10.193000
11.027800 10.368600
11.044500 10.445200
11.061200 10.395800
11.077800 9.652400
11.094500 9.187400
11.111200 8.830500
11.127900 8.746200
11.144500 8.557100
11.161200 8.380300
11.177900 8.583400
11.194500 8.602300
11.211200 7.559100
11.227900 7.261000
11.244500 6.987700
11.261200 6.887400
11.277900 6.845900
11.294500 6.945700
11.311200 7.258700
11.327900 7.853700
11.344600 8.468400
11.361200 8.048100
11.377900 7.445000
11.394600 7.571500
11.411200 7.672200
11.427900 7.627700
11.444600 7.834400
11.461200 7.796400
11.477900 7.651100
11.494600 7.691300
11.511300 7.107100
11.527900 6.123100
11.544600 5.591100
11.561300 5.339000
11.577900 4.982900
11.594600 4.950300
11.611300 5.395900
11.627900 5.912800
11.644600 6.623000
11.661300 6.621700
11.677900 6.009900
11.694600 5.423700
11.711300 5.191400
11.728000 4.543000
11.744600 4.061900
11.761300 3.651800
11.778000 3.066000
11.794600 2.408500
11.811300 1.822000
11.828000 1.269100
11.844600 0.785700
11.861300 0.493500
11.878000 0.315600
11.894700 0.209800
11.911300 0.145500
11.928000 0.089900
11.944700 0.053300
11.961300 0.014800
11.978000 0.000100
11.994700 0.000000
12.011300 0.000000
12.028000 0.000000
12.044700 0.000000
12.061300 0.000000
12.078000 0.000000
12.094700 0.000000
12.111400 0.000000
12.128000 0.000000
12.144700 0.000000
12.161400 0.000000
12.178000 0.000000
12.194700 0.000000
12.211400 0.000000
12.228000 0.000000
12.244700 0.000000
12.261400 0.000000
12.278100 0.000000
12.294700 0.000000
12.311400 0.000000
12.328100 0.000000
12.344700 0.000000
12.361400 0.000000
12.378100 0.000000
12.394700 0.000000
12.411400 0.000000
12.428100 0.000000
12.444700 0.000000
12.461400 0.000000
12.478100 0.000000
12.494800 0.000000
12.511400 0.000000
12.528100 0.000000
12.544800 0.000000
12.561400 0.000000
12.578100 0.000000
12.594800 0.000000
12.611400 0.000000
12.628100 0.000000
12.644800 0.000000
12.661500 0.000000
12.678100 0.000000
12.694800 0.000000
12.711500 0.000000
12.728100 0.000000
12.744800 0.000000
12.761500 0.000000
12.778100 0.000000
12.794800 0.000000
12.811500 0.000000
12.828100 0.000000
12.844800 0.000000
12.861500 0.000000
12.878200 0.000000
12.894800 0.000000
12.911500 0.000000
12.928200 0.000000
12.944800 0.000000
12.961500 0.000000
12.978200 0.000000
12.994800 0.000000
13.011500 0.000000
13.028200 0.000000
13.044900 0.000000
13.061500 0.000000
13.078200 0.000000
13.094900 0.000000
13.111500 0.000000
13.128200 0.000000
13.144900 0.000000
13.161500 0.000000
13.178200 0.000000
13.194900 0.000000
13.211500 0.000000
13.228200 0.000000
13.244900 0.000000
13.261600 0.000000
13.278200 0.000000
13.294900 0.000000
13.311600 0.000000
13.328200 0.000000
13.344900 0.000000
13.361600 0.000000
13.378200 0.000000
13.394900 0.000000
13.411600 0.000000
13.428300 0.000000
13.444900 0.000000
13.461600 0.000000
13.478300 0.000000
13.494900 0.000000
e
