set title 'mp-1223797 - Density of States'
set xlabel 'Energy (eV)'
set ylabel 'DOS (states/eV)'
set grid
set xrange [-10:10]
set yrange [0:17.090]
set xzeroaxis lt -1
set terminal png size 800,600
set output 'mp-1223797_dos_gnuplot.png'
plot '-' using 1:2 with lines title 'DOS'
-37.254200 0.000000
-37.216600 0.000000
-37.178900 0.000000
-37.141300 0.000000
-37.103600 0.000000
-37.066000 0.000000
-37.028400 0.000000
-36.990700 0.000000
-36.953100 0.000000
-36.915400 0.000000
-36.877800 0.000000
-36.840100 0.000000
-36.802500 0.000000
-36.764900 0.000000
-36.727200 0.000000
-36.689600 0.000000
-36.651900 0.000000
-36.614300 0.000000
-36.576600 0.000000
-36.539000 0.000000
-36.501400 0.000000
-36.463700 0.000000
-36.426100 0.000000
-36.388400 0.000000
-36.350800 0.000000
-36.313200 0.000000
-36.275500 0.000000
-36.237900 0.000000
-36.200200 0.000000
-36.162600 0.000000
-36.124900 0.000000
-36.087300 0.000000
-36.049700 0.000000
-36.012000 0.000000
-35.974400 0.000000
-35.936700 0.000000
-35.899100 0.000000
-35.861400 0.000000
-35.823800 0.000000
-35.786200 0.000000
-35.748500 0.000000
-35.710900 0.000000
-35.673200 0.000000
-35.635600 0.000000
-35.597900 0.000000
-35.560300 0.000000
-35.522700 0.000000
-35.485000 0.000000
-35.447400 0.000000
-35.409700 0.000000
-35.372100 0.000000
-35.334400 0.000000
-35.296800 0.000000
-35.259200 0.000000
-35.221500 0.000000
-35.183900 0.000000
-35.146200 0.000000
-35.108600 0.000000
-35.070900 0.000000
-35.033300 0.000000
-34.995700 0.000000
-34.958000 0.000000
-34.920400 0.000000
-34.882700 0.000000
-34.845100 0.000000
-34.807400 0.000000
-34.769800 0.000000
-34.732200 0.000000
-34.694500 0.000000
-34.656900 0.000000
-34.619200 0.000000
-34.581600 0.000000
-34.543900 0.000000
-34.506300 0.000000
-34.468700 0.000000
-34.431000 0.000000
-34.393400 0.000000
-34.355700 0.000000
-34.318100 0.000000
-34.280400 0.000000
-34.242800 0.000000
-34.205200 0.000000
-34.167500 0.000000
-34.129900 0.000000
-34.092200 0.000000
-34.054600 0.000000
-34.017000 0.000000
-33.979300 0.000000
-33.941700 0.000000
-33.904000 0.000000
-33.866400 0.000000
-33.828700 2.077400
-33.791100 5.294800
-33.753500 6.831600
-33.715800 9.612000
-33.678200 18.941900
-33.640500 0.000000
-33.602900 0.000000
-33.565200 0.000000
-33.527600 0.000000
-33.490000 0.000000
-33.452300 0.000000
-33.414700 0.000000
-33.377000 0.000000
-33.339400 0.000000
-33.301700 0.000000
-33.264100 0.000000
-33.226500 0.000000
-33.188800 0.000000
-33.151200 0.000000
-33.113500 0.000000
-33.075900 0.000000
-33.038200 0.000000
-33.000600 0.000000
-32.963000 0.000000
-32.925300 0.000000
-32.887700 0.000000
-32.850000 0.000000
-32.812400 0.000000
-32.774700 0.000000
-32.737100 0.000000
-32.699500 0.000000
-32.661800 0.000000
-32.624200 0.000000
-32.586500 0.000000
-32.548900 0.000000
-32.511200 0.000000
-32.473600 0.000000
-32.436000 0.000000
-32.398300 0.000000
-32.360700 0.000000
-32.323000 0.000000
-32.285400 0.000000
-32.247700 0.000000
-32.210100 0.000000
-32.172500 0.000000
-32.134800 0.000000
-32.097200 0.000000
-32.059500 0.000000
-32.021900 0.000000
-31.984200 0.000000
-31.946600 0.000000
-31.909000 0.000000
-31.871300 0.000000
-31.833700 0.000000
-31.796000 0.000000
-31.758400 0.000000
-31.720800 0.000000
-31.683100 0.000000
-31.645500 0.000000
-31.607800 0.000000
-31.570200 0.000000
-31.532500 0.000000
-31.494900 0.000000
-31.457300 0.000000
-31.419600 0.000000
-31.382000 0.000000
-31.344300 0.000000
-31.306700 0.000000
-31.269000 0.000000
-31.231400 0.000000
-31.193800 0.000000
-31.156100 0.000000
-31.118500 0.000000
-31.080800 0.000000
-31.043200 0.000000
-31.005500 0.000000
-30.967900 0.000000
-30.930300 0.000000
-30.892600 0.000000
-30.855000 0.000000
-30.817300 0.000000
-30.779700 0.000000
-30.742000 0.000000
-30.704400 0.000000
-30.666800 0.000000
-30.629100 0.000000
-30.591500 0.000000
-30.553800 0.000000
-30.516200 0.000000
-30.478500 0.000000
-30.440900 0.000000
-30.403300 0.000000
-30.365600 0.000000
-30.328000 0.000000
-30.290300 0.000000
-30.252700 0.000000
-30.215000 0.000000
-30.177400 0.000000
-30.139800 0.000000
-30.102100 0.000000
-30.064500 0.000000
-30.026800 0.000000
-29.989200 0.000000
-29.951500 0.000000
-29.913900 0.000000
-29.876300 0.000000
-29.838600 0.000000
-29.801000 0.000000
-29.763300 0.000000
-29.725700 0.000000
-29.688000 0.000000
-29.650400 0.000000
-29.612800 0.000000
-29.575100 0.000000
-29.537500 0.000000
-29.499800 0.000000
-29.462200 0.000000
-29.424600 0.000000
-29.386900 0.000000
-29.349300 0.000000
-29.311600 0.000000
-29.274000 0.000000
-29.236300 0.000000
-29.198700 0.000000
-29.161100 0.000000
-29.123400 0.000000
-29.085800 0.000000
-29.048100 0.000000
-29.010500 0.000000
-28.972800 0.000000
-28.935200 0.000000
-28.897600 0.000000
-28.859900 0.000000
-28.822300 0.000000
-28.784600 0.000000
-28.747000 0.000000
-28.709300 0.000000
-28.671700 0.000000
-28.634100 0.000000
-28.596400 0.000000
-28.558800 0.000000
-28.521100 0.000000
-28.483500 0.000000
-28.445800 0.000000
-28.408200 0.000000
-28.370600 0.000000
-28.332900 0.000000
-28.295300 0.000000
-28.257600 0.000000
-28.220000 0.000000
-28.182300 0.000000
-28.144700 0.000000
-28.107100 0.000000
-28.069400 0.000000
-28.031800 0.000000
-27.994100 0.000000
-27.956500 0.000000
-27.918800 0.000000
-27.881200 0.000000
-27.843600 0.000000
-27.805900 0.000000
-27.768300 0.000000
-27.730600 0.000000
-27.693000 0.000000
-27.655300 0.000000
-27.617700 0.000000
-27.580100 0.000000
-27.542400 0.000000
-27.504800 0.000000
-27.467100 0.000000
-27.429500 0.000000
-27.391800 0.000000
-27.354200 0.000000
-27.316600 0.000000
-27.278900 0.000000
-27.241300 0.000000
-27.203600 0.000000
-27.166000 0.000000
-27.128400 0.000000
-27.090700 0.000000
-27.053100 0.000000
-27.015400 0.000000
-26.977800 0.000000
-26.940100 0.000000
-26.902500 0.000000
-26.864900 0.000000
-26.827200 0.000000
-26.789600 0.000000
-26.751900 0.000000
-26.714300 0.000000
-26.676600 0.000000
-26.639000 0.000000
-26.601400 0.000000
-26.563700 0.000000
-26.526100 0.000000
-26.488400 0.000000
-26.450800 0.000000
-26.413100 0.000000
-26.375500 0.000000
-26.337900 0.000000
-26.300200 0.000000
-26.262600 0.000000
-26.224900 0.000000
-26.187300 0.000000
-26.149600 0.000000
-26.112000 0.000000
-26.074400 0.000000
-26.036700 0.000000
-25.999100 0.000000
-25.961400 0.000000
-25.923800 0.000000
-25.886100 0.000000
-25.848500 0.000000
-25.810900 0.000000
-25.773200 0.000000
-25.735600 0.000000
-25.697900 0.000000
-25.660300 0.000000
-25.622600 0.000000
-25.585000 0.000000
-25.547400 0.000000
-25.509700 0.000000
-25.472100 0.000000
-25.434400 0.000000
-25.396800 0.000000
-25.359100 0.000000
-25.321500 0.000000
-25.283900 0.000000
-25.246200 0.000000
-25.208600 0.000000
-25.170900 0.000000
-25.133300 0.000000
-25.095600 0.000000
-25.058000 0.000000
-25.020400 0.000000
-24.982700 0.000000
-24.945100 0.000000
-24.907400 0.000000
-24.869800 0.000000
-24.832200 0.000000
-24.794500 0.000000
-24.756900 0.000000
-24.719200 0.000000
-24.681600 0.000000
-24.643900 0.000000
-24.606300 0.000000
-24.568700 0.000000
-24.531000 0.000000
-24.493400 0.000000
-24.455700 0.000000
-24.418100 0.000000
-24.380400 0.000000
-24.342800 0.000000
-24.305200 0.000000
-24.267500 0.000000
-24.229900 0.000000
-24.192200 0.000000
-24.154600 0.000000
-24.116900 0.000000
-24.079300 0.000000
-24.041700 0.000000
-24.004000 0.000000
-23.966400 0.000000
-23.928700 0.000000
-23.891100 0.000000
-23.853400 0.000000
-23.815800 0.000000
-23.778200 0.000000
-23.740500 0.000000
-23.702900 0.000000
-23.665200 0.000000
-23.627600 0.000000
-23.589900 0.000000
-23.552300 0.000000
-23.514700 0.000000
-23.477000 0.000000
-23.439400 0.000000
-23.401700 0.000000
-23.364100 0.000000
-23.326400 0.000000
-23.288800 0.000000
-23.251200 0.000000
-23.213500 0.000000
-23.175900 0.000000
-23.138200 0.000000
-23.100600 0.000000
-23.062900 0.000000
-23.025300 0.000000
-22.987700 0.000000
-22.950000 0.000000
-22.912400 0.000000
-22.874700 0.000000
-22.837100 0.000000
-22.799400 0.000000
-22.761800 0.000000
-22.724200 0.000000
-22.686500 0.000000
-22.648900 0.000000
-22.611200 0.000000
-22.573600 0.000000
-22.536000 0.000000
-22.498300 0.000000
-22.460700 0.000000
-22.423000 0.000000
-22.385400 0.000000
-22.347700 0.000000
-22.310100 0.000000
-22.272500 0.000000
-22.234800 0.000000
-22.197200 0.000000
-22.159500 0.000000
-22.121900 0.000000
-22.084200 0.000000
-22.046600 0.000000
-22.009000 0.000000
-21.971300 0.000000
-21.933700 0.000000
-21.896000 0.000000
-21.858400 0.000000
-21.820700 0.000000
-21.783100 0.000000
-21.745500 0.000000
-21.707800 0.000000
-21.670200 0.000000
-21.632500 0.000000
-21.594900 0.000000
-21.557200 0.000000
-21.519600 0.000000
-21.482000 0.000000
-21.444300 0.000000
-21.406700 0.000000
-21.369000 0.000000
-21.331400 0.000000
-21.293700 0.000000
-21.256100 0.000000
-21.218500 0.000000
-21.180800 0.000000
-21.143200 0.000000
-21.105500 0.000000
-21.067900 0.000000
-21.030200 0.000000
-20.992600 0.000000
-20.955000 0.000000
-20.917300 0.000000
-20.879700 0.000000
-20.842000 0.000000
-20.804400 0.000000
-20.766700 0.000000
-20.729100 0.000000
-20.691500 0.000000
-20.653800 0.000000
-20.616200 0.000000
-20.578500 0.000000
-20.540900 0.000000
-20.503200 0.000000
-20.465600 0.000000
-20.428000 0.000000
-20.390300 0.000000
-20.352700 0.000000
-20.315000 0.000000
-20.277400 0.000000
-20.239800 0.000000
-20.202100 0.000000
-20.164500 0.000000
-20.126800 0.000000
-20.089200 0.000000
-20.051500 0.000000
-20.013900 0.000000
-19.976300 0.000000
-19.938600 0.000000
-19.901000 0.000000
-19.863300 0.000000
-19.825700 0.000000
-19.788000 0.000000
-19.750400 0.000000
-19.712800 0.000000
-19.675100 0.000000
-19.637500 0.000000
-19.599800 0.000000
-19.562200 0.000000
-19.524500 0.000000
-19.486900 0.000000
-19.449300 0.000000
-19.411600 0.000000
-19.374000 0.000000
-19.336300 0.000000
-19.298700 0.000000
-19.261000 0.000000
-19.223400 0.000000
-19.185800 0.000000
-19.148100 0.000000
-19.110500 0.000000
-19.072800 0.000000
-19.035200 0.000000
-18.997500 0.000000
-18.959900 0.000000
-18.922300 0.000000
-18.884600 0.000000
-18.847000 0.000000
-18.809300 0.000000
-18.771700 0.000000
-18.734000 0.000000
-18.696400 0.000000
-18.658800 0.000000
-18.621100 0.000000
-18.583500 8.168700
-18.545800 11.650100
-18.508200 8.724700
-18.470500 4.385200
-18.432900 14.667500
-18.395300 8.327200
-18.357600 28.685400
-18.320000 8.956800
-18.282300 9.909800
-18.244700 14.205800
-18.207000 10.063300
-18.169400 8.490200
-18.131800 0.000000
-18.094100 0.000000
-18.056500 0.000000
-18.018800 0.000000
-17.981200 0.000000
-17.943600 0.000000
-17.905900 0.000000
-17.868300 0.000000
-17.830600 0.000000
-17.793000 0.000000
-17.755300 0.000000
-17.717700 0.000000
-17.680100 0.000000
-17.642400 0.000000
-17.604800 0.000000
-17.567100 0.000000
-17.529500 0.000000
-17.491800 0.000000
-17.454200 0.000000
-17.416600 0.000000
-17.378900 0.000000
-17.341300 0.000000
-17.303600 0.000000
-17.266000 0.000000
-17.228300 0.000000
-17.190700 0.000000
-17.153100 0.000000
-17.115400 0.000000
-17.077800 0.000000
-17.040100 0.000000
-17.002500 0.000000
-16.964800 0.000000
-16.927200 0.000000
-16.889600 0.000000
-16.851900 0.000000
-16.814300 0.000000
-16.776600 0.000000
-16.739000 0.000000
-16.701300 0.000000
-16.663700 0.000000
-16.626100 0.000000
-16.588400 0.000000
-16.550800 0.000000
-16.513100 0.000000
-16.475500 0.000000
-16.437800 0.000000
-16.400200 0.000000
-16.362600 0.000000
-16.324900 0.000000
-16.287300 0.000000
-16.249600 0.000000
-16.212000 0.000000
-16.174300 0.000000
-16.136700 0.000000
-16.099100 0.000000
-16.061400 0.000000
-16.023800 0.000000
-15.986100 0.000000
-15.948500 0.000000
-15.910800 0.000000
-15.873200 0.000000
-15.835600 0.000000
-15.797900 0.000000
-15.760300 0.000000
-15.722600 0.000000
-15.685000 0.000000
-15.647400 0.000000
-15.609700 0.000000
-15.572100 0.000000
-15.534400 0.000000
-15.496800 0.000000
-15.459100 0.000000
-15.421500 0.000000
-15.383900 0.000000
-15.346200 0.000000
-15.308600 0.000000
-15.270900 0.000000
-15.233300 0.000000
-15.195600 0.000000
-15.158000 0.000000
-15.120400 0.000000
-15.082700 0.000000
-15.045100 0.000000
-15.007400 0.000000
-14.969800 0.000000
-14.932100 0.000000
-14.894500 0.000000
-14.856900 0.000000
-14.819200 0.000000
-14.781600 0.000000
-14.743900 0.000000
-14.706300 0.000000
-14.668600 0.000000
-14.631000 0.000000
-14.593400 0.000000
-14.555700 0.000000
-14.518100 0.000000
-14.480400 0.000000
-14.442800 0.000000
-14.405100 0.000000
-14.367500 0.000000
-14.329900 0.000000
-14.292200 0.000000
-14.254600 0.000000
-14.216900 0.000000
-14.179300 0.000000
-14.141600 0.000000
-14.104000 0.000000
-14.066400 0.000000
-14.028700 0.000000
-13.991100 0.000000
-13.953400 0.000000
-13.915800 0.000000
-13.878100 0.000000
-13.840500 0.000000
-13.802900 0.000000
-13.765200 0.000000
-13.727600 0.000000
-13.689900 0.000000
-13.652300 0.000000
-13.614600 0.000000
-13.577000 0.000000
-13.539400 0.000000
-13.501700 0.000000
-13.464100 0.000000
-13.426400 0.000000
-13.388800 0.000000
-13.351200 0.000000
-13.313500 0.000000
-13.275900 0.000000
-13.238200 0.000000
-13.200600 0.000000
-13.162900 0.000000
-13.125300 0.000000
-13.087700 0.000000
-13.050000 0.000000
-13.012400 0.000000
-12.974700 0.000000
-12.937100 0.000000
-12.899400 0.000000
-12.861800 0.000000
-12.824200 0.244600
-12.786500 1.656800
-12.748900 2.504300
-12.711200 2.253300
-12.673600 2.360700
-12.635900 2.569000
-12.598300 2.864500
-12.560700 3.375400
-12.523000 5.193100
-12.485400 2.650100
-12.447700 2.413000
-12.410100 2.007300
-12.372400 1.424800
-12.334800 1.241300
-12.297200 1.113800
-12.259500 1.137700
-12.221900 1.175900
-12.184200 1.260100
-12.146600 1.408400
-12.108900 2.222900
-12.071300 2.893700
-12.033700 3.732000
-11.996000 5.102300
-11.958400 3.720900
-11.920700 1.425400
-11.883100 5.206300
-11.845400 9.028800
-11.807800 13.640300
-11.770200 10.688200
-11.732500 10.232700
-11.694900 3.660200
-11.657200 2.142700
-11.619600 2.208000
-11.581900 2.273400
-11.544300 2.338800
-11.506700 2.500100
-11.469000 3.002500
-11.431400 4.031200
-11.393700 4.667100
-11.356100 3.391300
-11.318400 3.058900
-11.280800 2.874700
-11.243200 2.611600
-11.205500 2.357200
-11.167900 2.102800
-11.130200 2.327500
-11.092600 2.072600
-11.055000 1.962400
-11.017300 2.109000
-10.979700 1.587500
-10.942000 1.035100
-10.904400 0.000000
-10.866700 0.000000
-10.829100 0.000000
-10.791500 0.000000
-10.753800 0.000000
-10.716200 0.000000
-10.678500 0.000000
-10.640900 0.000000
-10.603200 0.000000
-10.565600 0.000000
-10.528000 0.000000
-10.490300 0.000000
-10.452700 0.000000
-10.415000 0.000000
-10.377400 0.000000
-10.339700 0.000000
-10.302100 0.000000
-10.264500 0.000000
-10.226800 0.000000
-10.189200 0.000000
-10.151500 0.000000
-10.113900 0.000000
-10.076200 0.000000
-10.038600 0.000000
-10.001000 0.000000
-9.963300 0.000000
-9.925700 0.000000
-9.888000 0.000000
-9.850400 0.000000
-9.812700 0.000000
-9.775100 0.000000
-9.737500 0.000000
-9.699800 0.000000
-9.662200 0.000000
-9.624500 0.000000
-9.586900 0.000000
-9.549200 0.000000
-9.511600 0.000000
-9.474000 0.000000
-9.436300 0.000000
-9.398700 0.000000
-9.361000 0.000000
-9.323400 0.000000
-9.285700 0.000000
-9.248100 0.000000
-9.210500 0.000000
-9.172800 0.000000
-9.135200 0.000000
-9.097500 0.000000
-9.059900 0.000000
-9.022200 0.000000
-8.984600 0.000000
-8.947000 0.000000
-8.909300 0.000000
-8.871700 0.000000
-8.834000 0.000000
-8.796400 0.000000
-8.758800 0.000000
-8.721100 0.000000
-8.683500 0.000000
-8.645800 0.000000
-8.608200 0.000000
-8.570500 0.000000
-8.532900 0.000000
-8.495300 0.000000
-8.457600 0.000000
-8.420000 0.000000
-8.382300 0.000000
-8.344700 0.000000
-8.307000 0.000000
-8.269400 0.000000
-8.231800 0.000000
-8.194100 0.000000
-8.156500 0.000000
-8.118800 0.000000
-8.081200 0.000000
-8.043500 0.000000
-8.005900 0.000000
-7.968300 0.000000
-7.930600 0.000000
-7.893000 0.000000
-7.855300 0.000000
-7.817700 0.000000
-7.780000 0.000000
-7.742400 0.000000
-7.704800 0.000000
-7.667100 0.000000
-7.629500 0.000000
-7.591800 0.000000
-7.554200 0.000000
-7.516500 0.000000
-7.478900 0.000000
-7.441300 0.000000
-7.403600 0.000000
-7.366000 0.000000
-7.328300 0.000000
-7.290700 0.000000
-7.253000 0.000000
-7.215400 0.000000
-7.177800 0.000000
-7.140100 0.000000
-7.102500 0.000000
-7.064800 0.000000
-7.027200 0.000000
-6.989500 0.000000
-6.951900 0.000000
-6.914300 0.000000
-6.876600 0.000000
-6.839000 0.000000
-6.801300 0.000000
-6.763700 0.000000
-6.726000 0.000000
-6.688400 0.000000
-6.650800 0.000000
-6.613100 0.000000
-6.575500 0.000000
-6.537800 0.000000
-6.500200 0.000000
-6.462600 0.000000
-6.424900 0.000000
-6.387300 0.000000
-6.349600 0.000000
-6.312000 0.000000
-6.274300 0.000000
-6.236700 0.000000
-6.199100 0.000000
-6.161400 0.000000
-6.123800 0.000000
-6.086100 0.000000
-6.048500 0.000000
-6.010800 0.000000
-5.973200 0.000000
-5.935600 0.000000
-5.897900 0.000000
-5.860300 0.000000
-5.822600 0.000000
-5.785000 0.000000
-5.747300 0.000000
-5.709700 0.000000
-5.672100 0.000000
-5.634400 0.000000
-5.596800 0.000000
-5.559100 0.000000
-5.521500 0.000000
-5.483800 0.000000
-5.446200 0.000000
-5.408600 0.000000
-5.370900 0.000000
-5.333300 0.000000
-5.295600 0.000000
-5.258000 0.000000
-5.220300 0.000000
-5.182700 0.000000
-5.145100 0.000000
-5.107400 0.000000
-5.069800 0.000000
-5.032100 0.000000
-4.994500 0.000000
-4.956800 0.000000
-4.919200 0.000000
-4.881600 0.000000
-4.843900 0.000000
-4.806300 0.000000
-4.768600 0.000000
-4.731000 0.000000
-4.693300 0.000000
-4.655700 0.000000
-4.618100 0.000000
-4.580400 0.000000
-4.542800 0.000000
-4.505100 0.000000
-4.467500 0.000000
-4.429800 0.000000
-4.392200 0.000000
-4.354600 0.000000
-4.316900 0.000000
-4.279300 0.000000
-4.241600 0.000000
-4.204000 0.000000
-4.166400 0.000000
-4.128700 0.000000
-4.091100 0.000000
-4.053400 0.000000
-4.015800 0.000000
-3.978100 0.000000
-3.940500 0.000000
-3.902900 0.000000
-3.865200 0.000000
-3.827600 0.000000
-3.789900 0.000000
-3.752300 0.000000
-3.714600 0.000000
-3.677000 0.000000
-3.639400 0.000000
-3.601700 0.000000
-3.564100 0.000000
-3.526400 0.000000
-3.488800 0.000000
-3.451100 0.000000
-3.413500 0.000000
-3.375900 0.000000
-3.338200 0.000000
-3.300600 0.000000
-3.262900 0.000000
-3.225300 0.000000
-3.187600 0.000000
-3.150000 0.000000
-3.112400 0.000000
-3.074700 0.000000
-3.037100 0.000000
-2.999400 0.000000
-2.961800 0.000000
-2.924100 0.000000
-2.886500 0.000000
-2.848900 0.000000
-2.811200 0.000000
-2.773600 0.000000
-2.735900 0.000000
-2.698300 0.000000
-2.660600 0.000000
-2.623000 0.000000
-2.585400 0.000000
-2.547700 0.000000
-2.510100 0.000000
-2.472400 0.000000
-2.434800 0.000000
-2.397100 0.000000
-2.359500 0.000000
-2.321900 0.000000
-2.284200 0.000000
-2.246600 0.000000
-2.208900 0.000000
-2.171300 0.000000
-2.133600 0.000000
-2.096000 0.000000
-2.058400 0.000000
-2.020700 0.000000
-1.983100 0.000000
-1.945400 0.000000
-1.907800 0.000000
-1.870100 0.000000
-1.832500 0.000000
-1.794900 0.000000
-1.757200 0.000000
-1.719600 0.000000
-1.681900 0.000000
-1.644300 0.000000
-1.606700 0.000000
-1.569000 0.000000
-1.531400 0.000000
-1.493700 0.000000
-1.456100 0.000000
-1.418400 0.000000
-1.380800 0.000000
-1.343200 0.000000
-1.305500 0.000000
-1.267900 0.000000
-1.230200 0.000000
-1.192600 0.000000
-1.154900 0.000000
-1.117300 0.000000
-1.079700 0.000000
-1.042000 0.000000
-1.004400 0.000000
-0.966700 0.000000
-0.929100 0.000000
-0.891400 0.000000
-0.853800 0.000000
-0.816200 0.000000
-0.778500 0.000000
-0.740900 0.000000
-0.703200 0.000000
-0.665600 0.000000
-0.627900 0.000000
-0.590300 0.000000
-0.552700 0.000000
-0.515000 0.000000
-0.477400 0.000000
-0.439700 0.000000
-0.402100 0.000000
-0.364400 0.000000
-0.326800 0.000000
-0.289200 0.000000
-0.251500 0.000000
-0.213900 0.000000
-0.176200 0.000000
-0.138600 0.000000
-0.100900 0.000000
-0.063300 0.000000
-0.025700 0.000000
0.012000 0.000000
0.049600 0.000000
0.087300 0.000000
0.124900 0.000000
0.162600 0.000000
0.200200 0.000000
0.237800 0.000000
0.275500 0.000000
0.313100 0.000000
0.350800 0.000000
0.388400 0.000000
0.426100 0.000000
0.463700 0.007400
0.501300 0.018900
0.539000 0.033700
0.576600 0.051500
0.614300 0.070200
0.651900 0.074800
0.689500 0.076500
0.727200 0.082900
0.764800 0.090200
0.802500 0.097900
0.840100 0.104400
0.877800 0.110600
0.915400 0.117500
0.953000 0.124800
0.990700 0.132300
1.028300 0.139900
1.066000 0.146600
1.103600 0.153000
1.141300 0.158600
1.178900 0.163700
1.216500 0.169200
1.254200 0.175300
1.291800 0.181700
1.329500 0.188200
1.367100 0.195000
1.404800 0.201900
1.442400 0.208900
1.480000 0.216200
1.517700 0.223500
1.555300 0.230900
1.593000 0.238500
1.630600 0.246300
1.668300 0.254200
1.705900 0.261800
1.743500 0.269600
1.781200 0.277900
1.818800 0.286500
1.856500 0.295300
1.894100 0.304400
1.931800 0.314100
1.969400 0.325400
2.007000 0.339000
2.044700 0.352500
2.082300 0.365100
2.120000 0.376800
2.157600 0.387800
2.195300 0.397800
2.232900 0.407000
2.270500 0.415300
2.308200 0.428100
2.345800 0.452400
2.383500 0.479000
2.421100 0.497800
2.458800 0.515700
2.496400 0.537500
2.534000 0.563500
2.571700 0.595900
2.609300 0.636800
2.647000 0.688600
2.684600 0.869800
2.722300 1.059500
2.759900 1.221000
2.797500 1.305300
2.835200 1.274600
2.872800 1.310100
2.910500 1.372800
2.948100 1.515900
2.985700 1.738900
3.023400 1.914900
3.061000 2.059200
3.098700 2.215200
3.136300 2.196400
3.174000 2.167400
3.211600 2.209200
3.249200 2.232700
3.286900 2.247000
3.324500 2.283900
3.362200 2.335700
3.399800 2.253500
3.437500 2.207500
3.475100 2.213800
3.512700 2.158000
3.550400 2.050100
3.588000 2.002800
3.625700 1.984600
3.663300 1.982900
3.701000 1.980100
3.738600 1.977100
3.776200 1.977100
3.813900 1.987800
3.851500 2.008600
3.889200 2.151900
3.926800 2.519100
3.964500 2.647300
4.002100 2.715300
4.039700 2.805700
4.077400 2.801900
4.115000 2.790700
4.152700 2.737400
4.190300 2.724900
4.228000 2.703200
4.265600 2.678400
4.303200 2.739300
4.340900 2.998800
4.378500 3.129900
4.416200 3.275300
4.453800 2.540600
4.491500 2.166700
4.529100 2.062500
4.566700 2.082500
4.604400 2.083300
4.642000 2.219600
4.679700 2.409700
4.717300 4.468900
4.755000 3.309400
4.792600 3.275100
4.830200 2.911000
4.867900 2.054700
4.905500 1.564300
4.943200 1.178400
4.980800 0.984100
5.018500 0.943200
5.056100 1.170400
5.093700 1.419000
5.131400 1.663400
5.169000 2.030700
5.206700 2.608500
5.244300 3.023600
5.281900 3.482500
5.319600 3.309200
5.357200 3.557400
5.394900 3.544400
5.432500 3.527100
5.470200 3.379800
5.507800 3.205700
5.545400 2.947800
5.583100 2.722000
5.620700 2.854800
5.658400 2.976300
5.696000 3.096900
5.733700 3.045300
5.771300 3.195800
5.808900 3.321400
5.846600 3.342800
5.884200 3.439900
5.921900 3.518000
5.959500 3.667400
5.997200 4.048700
6.034800 4.096900
6.072400 3.930700
6.110100 3.970000
6.147700 4.199700
6.185400 4.233600
6.223000 4.321400
6.260700 4.275000
6.298300 4.131900
6.335900 3.804000
6.373600 3.540900
6.411200 3.270700
6.448900 3.124600
6.486500 2.993000
6.524200 2.897800
6.561800 2.740900
6.599400 2.662700
6.637100 2.626500
6.674700 2.624500
6.712400 2.691500
6.750000 3.012500
6.787700 3.558900
6.825300 4.186600
6.862900 4.508900
6.900600 6.351500
6.938200 8.824000
6.975900 6.716300
7.013500 8.463100
7.051200 11.652900
7.088800 8.367900
7.126400 7.134500
7.164100 6.486400
7.201700 7.682800
7.239400 9.784500
7.277000 9.872000
7.314700 10.878900
7.352300 11.522800
7.389900 8.245500
7.427600 7.717300
7.465200 8.826900
7.502900 10.478000
7.540500 12.825900
7.578100 8.108200
7.615800 2.649600
7.653400 1.882200
7.691100 2.431300
7.728700 2.775700
7.766400 3.139300
7.804000 3.301800
7.841600 3.864400
7.879300 4.177600
7.916900 4.433100
7.954600 5.286700
7.992200 6.872200
8.029900 5.916100
8.067500 6.912900
8.105100 8.395300
8.142800 8.223400
8.180400 8.099200
8.218100 8.510700
8.255700 8.809600
8.293400 9.998200
8.331000 12.070900
8.368600 15.536300
8.406300 12.473600
8.443900 13.658000
8.481600 12.612400
8.519200 8.383000
8.556900 9.057500
8.594500 8.903300
8.632100 7.579300
8.669800 4.716300
8.707400 3.435600
8.745100 2.572100
8.782700 1.786300
8.820400 1.842700
8.858000 2.070900
8.895600 2.419500
8.933300 3.247900
8.970900 3.659900
9.008600 4.263100
9.046200 5.021900
9.083900 4.309300
9.121500 3.744200
9.159100 3.317000
9.196800 2.933200
9.234400 2.661200
9.272100 3.026500
9.309700 2.566300
9.347400 2.103100
9.385000 2.078100
9.422600 2.147800
9.460300 2.497600
9.497900 2.746700
9.535600 2.755000
9.573200 2.764700
9.610900 2.670600
9.648500 2.666200
9.686100 2.605700
9.723800 2.570200
9.761400 2.516600
9.799100 2.415400
9.836700 2.287200
9.874300 2.359600
9.912000 2.292300
9.949600 2.149400
9.987300 2.019200
10.024900 1.964400
10.062600 1.923300
10.100200 1.888500
10.137800 1.857500
10.175500 1.848200
10.213100 1.837700
10.250800 1.835800
10.288400 1.805500
10.326100 1.751300
10.363700 1.731600
10.401300 1.716600
10.439000 1.706100
10.476600 1.714600
10.514300 1.732700
10.551900 1.766200
10.589600 1.809100
10.627200 1.834600
10.664800 1.878800
10.702500 1.916900
10.740100 1.951900
10.777800 1.938700
10.815400 1.962600
10.853100 1.994200
10.890700 2.146700
10.928300 2.301600
10.966000 2.370700
11.003600 2.387000
11.041300 2.401200
11.078900 2.423200
11.116600 2.427400
11.154200 2.513000
11.191800 2.534400
11.229500 2.398200
11.267100 2.407700
11.304800 2.388900
11.342400 2.376500
11.380100 2.372300
11.417700 2.362500
11.455300 2.309100
11.493000 2.225500
11.530600 2.225100
11.568300 2.205500
11.605900 2.151400
11.643600 2.178200
11.681200 2.429500
11.718800 2.737200
11.756500 2.815800
11.794100 2.851700
11.831800 2.790800
11.869400 2.763800
11.907100 2.636800
11.944700 2.613200
11.982300 2.688100
12.020000 2.960600
12.057600 3.112000
12.095300 2.789500
12.132900 2.565800
12.170500 1.948600
12.208200 1.621600
12.245800 1.350300
12.283500 1.246100
12.321100 1.135800
12.358800 1.067800
12.396400 1.029300
12.434000 1.007900
12.471700 1.005600
12.509300 1.030800
12.547000 1.153100
12.584600 1.401000
12.622300 1.552300
12.659900 1.643400
12.697500 1.724500
12.735200 1.907500
12.772800 2.432600
12.810500 2.891900
12.848100 3.258800
12.885800 3.321400
12.923400 2.802300
12.961000 2.361700
12.998700 2.208100
13.036300 2.002400
13.074000 2.047800
13.111600 2.073800
13.149300 2.108500
13.186900 1.719100
13.224500 1.571300
13.262200 1.513900
13.299800 1.474800
13.337500 1.538600
13.375100 1.656800
13.412800 1.809400
13.450400 2.047900
13.488000 1.910100
13.525700 1.913500
13.563300 1.923000
13.601000 1.769800
13.638600 1.621600
13.676300 1.456100
13.713900 1.286600
13.751500 1.191600
13.789200 1.119100
13.826800 1.042500
13.864500 1.011600
13.902100 0.961100
13.939800 0.935300
13.977400 0.863400
14.015000 0.759300
14.052700 0.802700
14.090300 0.734100
14.128000 0.719600
14.165600 0.712000
14.203300 0.653500
14.240900 0.621400
14.278500 0.601200
14.316200 0.600200
14.353800 0.615500
14.391500 0.663600
14.429100 0.744400
14.466700 0.931100
14.504400 1.126200
14.542000 1.287200
14.579700 1.466700
14.617300 1.693900
14.655000 1.638100
14.692600 1.649800
14.730200 1.647800
14.767900 1.584900
14.805500 1.567400
14.843200 1.550700
14.880800 1.550100
14.918500 1.673900
14.956100 1.738700
14.993700 1.610700
15.031400 1.586400
15.069000 1.575700
15.106700 1.693900
15.144300 1.471300
15.182000 1.353300
15.219600 1.270900
15.257200 1.221700
15.294900 1.199100
15.332500 1.181400
15.370200 1.186500
15.407800 1.222900
15.445500 1.356200
15.483100 1.469900
15.520700 1.514600
15.558400 1.541000
15.596000 1.893700
15.633700 1.645500
15.671300 1.557600
15.709000 1.538000
15.746600 1.558400
15.784200 1.544000
15.821900 1.569900
15.859500 1.590500
15.897200 1.598800
15.934800 1.619200
15.972500 1.648200
16.010100 1.671800
16.047700 1.690100
16.085400 1.697600
16.123000 1.693700
16.160700 1.668400
16.198300 1.644000
16.236000 1.649100
16.273600 1.647900
16.311200 1.635700
16.348900 1.540500
16.386500 1.529900
16.424200 1.514100
16.461800 1.493600
16.499500 1.471600
16.537100 1.470200
16.574700 1.490100
16.612400 1.534100
16.650000 1.597600
16.687700 1.609100
16.725300 1.643300
16.762900 1.576200
16.800600 1.557100
16.838200 1.576300
16.875900 1.595500
16.913500 1.630500
16.951200 1.765100
16.988800 1.781600
17.026400 1.850000
17.064100 1.917900
17.101700 2.016100
17.139400 2.166500
17.177000 2.254200
17.214700 2.248000
17.252300 2.264500
17.289900 2.107400
17.327600 2.054300
17.365200 2.007700
17.402900 1.970900
17.440500 1.947800
17.478200 1.995700
17.515800 1.846600
17.553400 1.785200
17.591100 1.746800
17.628700 1.755700
17.666400 1.882500
17.704000 2.012300
17.741700 2.175100
17.779300 1.976600
17.816900 1.788700
17.854600 1.735600
17.892200 1.698500
17.929900 1.668700
17.967500 1.652600
18.005200 1.663400
18.042800 1.695900
18.080400 1.733300
18.118100 1.773900
18.155700 1.797500
18.193400 1.857600
18.231000 1.972100
18.268700 2.117900
18.306300 2.263800
18.343900 2.463100
18.381600 2.529700
18.419200 2.818400
18.456900 2.932500
18.494500 3.212000
18.532200 3.261600
18.569800 3.201600
18.607400 2.991900
18.645100 2.830700
18.682700 2.550600
18.720400 2.397500
18.758000 2.329600
18.795700 2.363700
18.833300 2.384100
18.870900 2.409100
18.908600 2.380100
18.946200 2.402200
18.983900 2.334700
19.021500 2.567800
19.059100 2.795100
19.096800 2.592100
19.134400 2.317800
19.172100 2.127500
19.209700 2.043400
19.247400 2.060100
19.285000 2.145500
19.322600 2.304600
19.360300 2.414500
19.397900 2.392300
19.435600 2.429700
19.473200 2.539000
19.510900 2.549800
19.548500 2.464000
19.586100 2.477500
19.623800 2.287200
19.661400 2.184700
19.699100 1.679400
19.736700 1.558000
19.774400 1.524800
19.812000 1.394300
19.849600 1.427300
19.887300 1.562700
19.924900 1.719600
19.962600 1.860300
20.000200 2.012400
20.037900 2.011700
20.075500 2.128000
20.113100 2.234900
20.150800 2.210000
20.188400 2.200800
20.226100 2.337700
20.263700 2.183100
20.301400 2.089300
20.339000 2.031300
20.376600 2.039500
20.414300 2.491300
20.451900 2.207400
20.489600 2.174700
20.527200 2.079000
20.564900 1.989000
20.602500 2.093700
20.640100 2.209100
20.677800 2.335200
20.715400 2.464700
20.753100 2.610200
20.790700 2.615200
20.828400 2.796900
20.866000 2.925400
20.903600 2.980900
20.941300 2.878800
20.978900 2.781400
21.016600 2.631900
21.054200 2.495400
21.091900 2.448200
21.129500 2.345700
21.167100 2.262100
21.204800 2.136600
21.242400 1.993000
21.280100 1.874800
21.317700 1.865800
21.355300 1.930700
21.393000 1.967200
21.430600 1.974700
21.468300 1.959500
21.505900 2.038800
21.543600 2.147000
21.581200 2.189700
21.618800 2.231400
21.656500 2.232700
21.694100 2.252200
21.731800 2.274400
21.769400 2.192500
21.807100 2.202000
21.844700 2.157600
21.882300 2.098400
21.920000 2.038100
21.957600 2.034300
21.995300 2.056100
22.032900 2.277000
22.070600 2.423900
22.108200 2.365600
22.145800 2.547200
22.183500 2.257000
22.221100 1.965900
22.258800 1.820000
22.296400 1.853700
22.334100 1.699500
22.371700 1.384300
22.409300 1.264800
22.447000 1.202100
22.484600 1.143100
22.522300 1.078400
22.559900 1.023600
22.597600 1.015100
22.635200 1.009300
22.672800 1.039700
22.710500 1.102900
22.748100 1.165800
22.785800 1.201500
22.823400 1.249200
22.861100 1.317800
22.898700 1.378100
22.936300 1.447400
22.974000 1.519900
23.011600 1.592600
23.049300 1.684500
23.086900 1.712400
23.124600 1.703000
23.162200 1.740300
23.199800 1.782100
23.237500 1.877300
23.275100 1.862800
23.312800 1.845700
23.350400 1.853100
23.388100 1.889700
23.425700 2.084000
23.463300 2.027600
23.501000 1.990600
23.538600 1.946400
23.576300 1.874100
23.613900 1.872300
23.651500 1.893000
23.689200 1.965700
23.726800 2.090300
23.764500 2.221400
23.802100 2.294600
23.839800 2.428500
23.877400 2.414400
23.915000 2.295900
23.952700 2.233000
23.990300 2.195400
24.028000 2.137800
24.065600 2.090100
24.103300 2.014200
24.140900 1.977800
24.178500 1.973300
24.216200 1.952500
24.253800 1.939000
24.291500 1.958400
24.329100 2.048500
24.366800 2.196400
24.404400 2.289000
24.442000 2.382800
24.479700 2.462100
24.517300 2.546700
24.555000 2.728200
24.592600 2.595000
24.630300 2.490500
24.667900 2.346700
24.705500 2.231500
24.743200 2.157600
24.780800 2.190400
24.818500 2.256700
24.856100 2.327400
24.893800 2.371600
24.931400 2.395500
24.969000 2.329300
25.006700 2.453800
25.044300 2.536100
25.082000 2.713800
25.119600 2.553500
25.157300 2.509100
25.194900 2.467500
25.232500 2.411000
25.270200 2.376300
25.307800 2.383200
25.345500 2.398900
25.383100 2.393400
25.420800 2.451900
25.458400 2.522700
25.496000 2.564400
25.533700 2.677300
25.571300 2.701100
25.609000 2.714100
25.646600 2.774900
25.684300 2.877400
25.721900 2.884000
25.759500 2.843000
25.797200 2.920900
25.834800 2.970400
25.872500 3.002000
25.910100 3.060800
25.947700 2.970700
25.985400 2.799600
26.023000 2.679500
26.060700 2.629100
26.098300 2.705500
26.136000 2.725200
26.173600 2.703400
26.211200 2.726100
26.248900 2.785400
26.286500 2.819300
26.324200 2.970600
26.361800 2.988200
26.399500 3.073600
26.437100 3.180100
26.474700 3.256100
26.512400 3.358800
26.550000 3.426400
26.587700 3.644400
26.625300 3.323100
26.663000 3.215200
26.700600 3.140900
26.738200 3.145100
26.775900 2.917200
26.813500 2.683300
26.851200 2.494200
26.888800 2.337400
26.926500 2.309800
26.964100 2.249400
27.001700 2.235400
27.039400 2.255300
27.077000 2.350300
27.114700 2.301800
27.152300 2.280000
27.190000 2.307500
27.227600 2.457300
27.265200 2.437500
27.302900 2.200600
27.340500 2.178600
27.378200 2.324100
27.415800 2.413700
27.453500 2.676600
27.491100 2.682400
27.528700 2.722100
27.566400 2.473000
27.604000 2.158100
27.641700 1.958500
27.679300 1.875800
27.717000 1.817000
27.754600 1.770000
27.792200 1.718400
27.829900 1.654700
27.867500 1.627300
27.905200 1.620500
27.942800 1.597600
27.980500 1.615000
28.018100 1.554900
28.055700 1.568200
28.093400 1.620500
28.131000 1.675300
28.168700 1.762700
28.206300 1.920600
28.243900 2.055300
28.281600 2.093400
28.319200 2.079600
28.356900 2.051800
28.394500 2.130200
28.432200 2.188900
28.469800 2.148600
28.507400 2.129500
28.545100 2.016200
28.582700 1.897000
28.620400 2.083400
28.658000 1.796000
28.695700 1.745900
28.733300 1.771100
28.770900 1.993700
28.808600 2.304100
28.846200 2.664700
28.883900 2.832100
28.921500 2.877200
28.959200 2.940000
28.996800 2.971900
29.034400 3.016100
29.072100 2.865700
29.109700 2.604900
29.147400 2.415200
29.185000 2.402200
29.222700 2.221900
29.260300 1.851200
29.297900 1.639500
29.335600 1.630100
29.373200 1.668700
29.410900 1.665300
29.448500 1.673100
29.486200 1.709900
29.523800 1.758800
29.561400 1.826500
29.599100 1.948200
29.636700 2.117500
29.674400 2.324300
29.712000 2.474100
29.749700 2.574300
29.787300 2.712400
29.824900 2.835500
29.862600 2.915400
29.900200 2.900100
29.937900 2.939500
29.975500 3.017800
30.013200 3.178000
30.050800 3.147400
30.088400 2.937800
30.126100 2.669800
30.163700 2.349000
30.201400 2.261800
30.239000 2.305400
30.276700 2.497000
30.314300 2.686400
30.351900 2.716000
30.389600 2.704700
30.427200 2.737000
30.464900 2.839100
30.502500 2.901500
30.540100 2.789900
30.577800 2.963900
30.615400 3.163600
30.653100 3.596100
30.690700 3.252300
30.728400 3.187200
30.766000 3.122800
30.803600 3.045500
30.841300 2.949900
30.878900 2.811000
30.916600 2.707800
30.954200 2.670300
30.991900 2.517300
31.029500 2.314900
31.067100 2.113400
31.104800 1.930300
31.142400 1.871200
31.180100 1.862500
31.217700 1.977700
31.255400 2.151200
31.293000 2.267300
31.330600 2.409200
31.368300 2.526100
31.405900 2.618600
31.443600 2.663600
31.481200 2.719900
31.518900 2.773800
31.556500 2.805800
31.594100 2.778000
31.631800 2.772500
31.669400 2.757100
31.707100 2.733900
31.744700 2.790400
31.782400 2.551900
31.820000 2.086700
31.857600 1.868200
31.895300 1.940200
31.932900 2.094800
31.970600 2.249500
32.008200 2.417700
32.045900 2.615300
32.083500 2.860600
32.121100 3.010200
32.158800 3.064000
32.196400 3.146100
32.234100 3.236100
32.271700 3.252200
32.309400 3.181600
32.347000 3.069100
32.384600 2.774000
32.422300 2.635200
32.459900 2.157100
32.497600 1.986100
32.535200 1.927000
32.572900 2.092500
32.610500 2.255900
32.648100 2.459400
32.685800 2.663800
32.723400 2.808600
32.761100 2.608600
32.798700 2.492400
32.836300 2.384200
32.874000 2.477100
32.911600 2.124500
32.949300 1.940100
32.986900 2.069600
33.024600 2.180300
33.062200 2.425300
33.099800 2.721600
33.137500 3.043100
33.175100 3.288800
33.212800 3.272700
33.250400 3.237300
33.288100 3.231100
33.325700 3.259600
33.363300 3.412000
33.401000 3.513900
33.438600 3.612700
33.476300 3.691000
33.513900 4.013800
33.551600 4.034600
33.589200 4.054000
33.626800 3.811300
33.664500 3.434200
33.702100 2.501400
33.739800 2.229200
33.777400 2.200600
33.815100 2.455300
33.852700 3.089200
33.890300 2.973200
33.928000 2.807700
33.965600 2.496100
34.003300 1.979500
34.040900 1.488300
34.078600 1.102500
34.116200 0.827000
34.153800 0.621200
34.191500 0.404700
34.229100 0.267100
34.266800 0.196700
34.304400 0.138200
34.342100 0.086500
34.379700 0.033600
34.417300 0.011500
34.455000 0.005500
34.492600 0.003900
34.530300 0.002400
34.567900 0.001200
34.605600 0.000100
34.643200 0.000000
34.680800 0.000000
34.718500 0.000000
34.756100 0.000000
34.793800 0.000000
34.831400 0.000000
34.869100 0.000000
34.906700 0.000000
34.944300 0.000000
34.982000 0.000000
35.019600 0.000000
35.057300 0.000000
35.094900 0.000000
35.132500 0.000000
35.170200 0.000000
35.207800 0.000000
35.245500 0.000000
35.283100 0.000000
35.320800 0.000000
35.358400 0.000000
35.396000 0.000000
35.433700 0.000000
35.471300 0.000000
35.509000 0.000000
35.546600 0.000000
35.584300 0.000000
35.621900 0.000000
35.659500 0.000000
35.697200 0.000000
35.734800 0.000000
35.772500 0.000000
35.810100 0.000000
35.847800 0.000000
35.885400 0.000000
35.923000 0.000000
35.960700 0.000000
35.998300 0.000000
36.036000 0.000000
36.073600 0.000000
36.111300 0.000000
36.148900 0.000000
36.186500 0.000000
36.224200 0.000000
36.261800 0.000000
36.299500 0.000000
36.337100 0.000000
36.374800 0.000000
36.412400 0.000000
36.450000 0.000000
36.487700 0.000000
36.525300 0.000000
36.563000 0.000000
36.600600 0.000000
36.638300 0.000000
36.675900 0.000000
36.713500 0.000000
36.751200 0.000000
36.788800 0.000000
36.826500 0.000000
36.864100 0.000000
36.901800 0.000000
36.939400 0.000000
36.977000 0.000000
37.014700 0.000000
37.052300 0.000000
37.090000 0.000000
37.127600 0.000000
37.165300 0.000000
37.202900 0.000000
37.240500 0.000000
37.278200 0.000000
37.315800 0.000000
37.353500 0.000000
37.391100 0.000000
37.428700 0.000000
37.466400 0.000000
37.504000 0.000000
37.541700 0.000000
37.579300 0.000000
37.617000 0.000000
37.654600 0.000000
37.692200 0.000000
37.729900 0.000000
37.767500 0.000000
37.805200 0.000000
37.842800 0.000000
37.880500 0.000000
37.918100 0.000000
37.955700 0.000000
37.993400 0.000000
38.031000 0.000000
e
