set title 'mp-1025483 - Density of States'
set xlabel 'Energy (eV)'
set ylabel 'DOS (states/eV)'
set grid
set xrange [-10:10]
set yrange [0:16.250]
set xzeroaxis lt -1
set terminal png size 800,600
set output 'mp-1025483_dos_gnuplot.png'
plot '-' using 1:2 with lines title 'DOS'
-25.343700 0.000000
-25.317500 0.000000
-25.291200 0.000000
-25.265000 0.000000
-25.238700 0.000000
-25.212400 0.000000
-25.186200 0.000000
-25.159900 0.000000
-25.133700 0.000000
-25.107400 0.000000
-25.081200 0.000000
-25.054900 0.000000
-25.028700 0.000000
-25.002400 0.000000
-24.976100 0.000000
-24.949900 0.000000
-24.923600 0.000000
-24.897400 0.000000
-24.871100 0.000000
-24.844900 0.000000
-24.818600 0.000000
-24.792300 0.000000
-24.766100 0.000000
-24.739800 0.000000
-24.713600 0.000000
-24.687300 0.000000
-24.661100 0.000000
-24.634800 0.000000
-24.608500 0.000000
-24.582300 0.000000
-24.556000 0.000000
-24.529800 0.000000
-24.503500 0.000000
-24.477300 0.000000
-24.451000 0.000000
-24.424700 0.000000
-24.398500 0.000000
-24.372200 0.000000
-24.346000 0.000000
-24.319700 0.000000
-24.293500 0.000000
-24.267200 0.000000
-24.241000 0.000000
-24.214700 0.000000
-24.188400 0.000000
-24.162200 0.000000
-24.135900 0.000000
-24.109700 0.000000
-24.083400 0.000000
-24.057200 0.000000
-24.030900 0.000000
-24.004600 0.000000
-23.978400 0.000000
-23.952100 0.000000
-23.925900 0.000000
-23.899600 0.000000
-23.873400 0.000000
-23.847100 0.000000
-23.820800 0.000000
-23.794600 0.000000
-23.768300 0.000000
-23.742100 0.000000
-23.715800 0.000000
-23.689600 0.000000
-23.663300 0.000000
-23.637000 0.000000
-23.610800 0.000000
-23.584500 0.000000
-23.558300 0.000000
-23.532000 0.000000
-23.505800 0.000000
-23.479500 0.000000
-23.453200 0.000000
-23.427000 0.000000
-23.400700 0.000000
-23.374500 0.000000
-23.348200 0.000000
-23.322000 0.000000
-23.295700 0.000000
-23.269500 0.000000
-23.243200 0.000000
-23.216900 0.000000
-23.190700 0.000000
-23.164400 0.000000
-23.138200 0.000000
-23.111900 0.000000
-23.085700 0.000000
-23.059400 0.000000
-23.033100 0.000000
-23.006900 0.000000
-22.980600 0.000000
-22.954400 4.229000
-22.928100 4.994100
-22.901900 9.766200
-22.875600 7.448300
-22.849300 6.185700
-22.823100 5.894800
-22.796800 6.330500
-22.770600 7.294500
-22.744300 8.727900
-22.718100 7.376100
-22.691800 7.230700
-22.665500 1.976600
-22.639300 1.678800
-22.613000 2.782500
-22.586800 3.683800
-22.560500 3.323000
-22.534300 3.961100
-22.508000 4.272400
-22.481700 5.082800
-22.455500 4.769000
-22.429200 4.885100
-22.403000 11.303200
-22.376700 5.393100
-22.350500 6.324300
-22.324200 6.383700
-22.298000 6.520800
-22.271700 23.976500
-22.245400 19.795700
-22.219200 8.665500
-22.192900 3.851800
-22.166700 3.292600
-22.140400 2.870400
-22.114200 3.151800
-22.087900 5.132400
-22.061600 4.174100
-22.035400 0.878600
-22.009100 0.000000
-21.982900 0.000000
-21.956600 0.000000
-21.930400 0.000000
-21.904100 0.000000
-21.877800 0.000000
-21.851600 0.000000
-21.825300 0.000000
-21.799100 0.000000
-21.772800 0.000000
-21.746600 0.000000
-21.720300 0.000000
-21.694000 0.000000
-21.667800 0.000000
-21.641500 0.000000
-21.615300 0.000000
-21.589000 0.000000
-21.562800 0.000000
-21.536500 0.000000
-21.510200 0.000000
-21.484000 0.000000
-21.457700 0.000000
-21.431500 0.000000
-21.405200 0.000000
-21.379000 0.000000
-21.352700 0.000000
-21.326500 0.000000
-21.300200 0.000000
-21.273900 0.000000
-21.247700 0.000000
-21.221400 0.000000
-21.195200 0.000000
-21.168900 0.000000
-21.142700 0.000000
-21.116400 0.000000
-21.090100 0.000000
-21.063900 0.000000
-21.037600 0.000000
-21.011400 0.000000
-20.985100 0.000000
-20.958900 0.000000
-20.932600 0.000000
-20.906300 0.000000
-20.880100 0.000000
-20.853800 0.000000
-20.827600 0.000000
-20.801300 0.000000
-20.775100 0.000000
-20.748800 0.000000
-20.722500 0.000000
-20.696300 0.000000
-20.670000 0.000000
-20.643800 0.000000
-20.617500 0.000000
-20.591300 0.000000
-20.565000 0.000000
-20.538700 0.000000
-20.512500 0.000000
-20.486200 0.000000
-20.460000 0.000000
-20.433700 0.000000
-20.407500 0.000000
-20.381200 0.000000
-20.355000 0.000000
-20.328700 0.000000
-20.302400 0.000000
-20.276200 0.000000
-20.249900 0.000000
-20.223700 0.000000
-20.197400 0.000000
-20.171200 0.000000
-20.144900 0.000000
-20.118600 0.000000
-20.092400 0.000000
-20.066100 0.000000
-20.039900 0.000000
-20.013600 0.000000
-19.987400 0.000000
-19.961100 0.000000
-19.934800 0.000000
-19.908600 0.000000
-19.882300 0.000000
-19.856100 0.000000
-19.829800 0.000000
-19.803600 0.000000
-19.777300 0.000000
-19.751000 0.000000
-19.724800 0.000000
-19.698500 0.000000
-19.672300 0.000000
-19.646000 0.000000
-19.619800 0.000000
-19.593500 0.000000
-19.567200 0.000000
-19.541000 0.000000
-19.514700 0.000000
-19.488500 0.000000
-19.462200 0.000000
-19.436000 0.000000
-19.409700 0.000000
-19.383500 0.000000
-19.357200 0.000000
-19.330900 0.000000
-19.304700 0.000000
-19.278400 0.000000
-19.252200 0.000000
-19.225900 0.000000
-19.199700 0.000000
-19.173400 0.000000
-19.147100 0.000000
-19.120900 0.000000
-19.094600 0.000000
-19.068400 0.000000
-19.042100 0.000000
-19.015900 0.000000
-18.989600 0.000000
-18.963300 0.000000
-18.937100 0.000000
-18.910800 0.000000
-18.884600 0.000000
-18.858300 0.000000
-18.832100 0.002500
-18.805800 0.048000
-18.779500 0.131100
-18.753300 0.175400
-18.727000 0.193700
-18.700800 0.233200
-18.674500 0.272700
-18.648300 0.305100
-18.622000 0.335500
-18.595700 0.371600
-18.569500 0.404900
-18.543200 0.440900
-18.517000 0.477100
-18.490700 0.514300
-18.464500 0.562900
-18.438200 0.616300
-18.412000 0.679900
-18.385700 0.751400
-18.359400 0.827200
-18.333200 1.064300
-18.306900 1.066700
-18.280700 0.965700
-18.254400 0.960400
-18.228200 0.941700
-18.201900 0.960400
-18.175600 0.875400
-18.149400 0.807200
-18.123100 0.784100
-18.096900 0.763500
-18.070600 0.746300
-18.044400 0.741800
-18.018100 0.821800
-17.991800 0.881400
-17.965600 0.967000
-17.939300 1.075300
-17.913100 1.197500
-17.886800 1.704200
-17.860600 1.683800
-17.834300 1.799300
-17.808000 1.920900
-17.781800 2.072900
-17.755500 2.265400
-17.729300 2.500000
-17.703000 2.665500
-17.676800 2.903000
-17.650500 3.973300
-17.624200 4.920400
-17.598000 6.758800
-17.571700 4.255200
-17.545500 3.181300
-17.519200 2.732200
-17.493000 2.360600
-17.466700 1.999700
-17.440500 12.143100
-17.414200 19.288500
-17.387900 6.846100
-17.361700 0.663700
-17.335400 0.079600
-17.309200 0.013500
-17.282900 1.343400
-17.256700 1.361300
-17.230400 1.391900
-17.204100 1.404700
-17.177900 1.311600
-17.151600 1.454900
-17.125400 1.564900
-17.099100 1.689700
-17.072900 1.862500
-17.046600 2.200000
-17.020300 2.537400
-16.994100 3.081700
-16.967800 4.038900
-16.941600 6.345400
-16.915300 5.704900
-16.889100 5.415100
-16.862800 5.469000
-16.836500 5.716800
-16.810300 6.783100
-16.784000 9.329600
-16.757800 13.899000
-16.731500 7.761300
-16.705300 4.793600
-16.679000 8.080200
-16.652700 3.679900
-16.626500 1.735400
-16.600200 0.000000
-16.574000 0.000000
-16.547700 0.000000
-16.521500 0.000000
-16.495200 0.000000
-16.469000 0.000000
-16.442700 0.000000
-16.416400 0.000000
-16.390200 0.000000
-16.363900 0.000000
-16.337700 0.000000
-16.311400 0.000000
-16.285200 0.000000
-16.258900 0.000000
-16.232600 0.000000
-16.206400 0.000000
-16.180100 0.000000
-16.153900 0.000000
-16.127600 0.000000
-16.101400 0.000000
-16.075100 0.000000
-16.048800 0.000000
-16.022600 0.000000
-15.996300 0.000000
-15.970100 0.000000
-15.943800 0.000000
-15.917600 0.000000
-15.891300 0.000000
-15.865000 0.000000
-15.838800 0.000000
-15.812500 0.000000
-15.786300 0.000000
-15.760000 0.000000
-15.733800 0.000000
-15.707500 0.000000
-15.681200 0.000000
-15.655000 0.000000
-15.628700 0.000000
-15.602500 0.000000
-15.576200 0.000000
-15.550000 0.000000
-15.523700 0.000000
-15.497500 0.000000
-15.471200 0.000000
-15.444900 0.000000
-15.418700 0.000000
-15.392400 0.000000
-15.366200 0.000000
-15.339900 0.000000
-15.313700 0.000000
-15.287400 0.000000
-15.261100 0.000000
-15.234900 0.000000
-15.208600 0.000000
-15.182400 0.000000
-15.156100 0.000000
-15.129900 0.000000
-15.103600 0.000000
-15.077300 0.000000
-15.051100 0.000000
-15.024800 0.000000
-14.998600 0.000000
-14.972300 0.000000
-14.946100 0.000000
-14.919800 0.000000
-14.893500 0.000000
-14.867300 0.000000
-14.841000 0.000000
-14.814800 0.000000
-14.788500 0.000000
-14.762300 0.000000
-14.736000 0.000000
-14.709700 0.000000
-14.683500 0.000000
-14.657200 0.000000
-14.631000 0.000000
-14.604700 0.000000
-14.578500 0.000000
-14.552200 0.000000
-14.526000 0.000000
-14.499700 0.000000
-14.473400 0.000000
-14.447200 0.000000
-14.420900 0.000000
-14.394700 0.000000
-14.368400 0.000000
-14.342200 0.000000
-14.315900 0.000000
-14.289600 0.000000
-14.263400 0.000000
-14.237100 0.000000
-14.210900 0.000000
-14.184600 0.000000
-14.158400 0.000000
-14.132100 0.000000
-14.105800 0.000000
-14.079600 0.000000
-14.053300 0.000000
-14.027100 0.000000
-14.000800 0.000000
-13.974600 0.000000
-13.948300 0.000000
-13.922000 0.000000
-13.895800 0.000000
-13.869500 0.000000
-13.843300 0.000000
-13.817000 0.000000
-13.790800 0.000000
-13.764500 0.000000
-13.738200 0.000000
-13.712000 0.000000
-13.685700 0.000000
-13.659500 0.000000
-13.633200 0.000000
-13.607000 0.000000
-13.580700 0.000000
-13.554500 0.000000
-13.528200 0.000000
-13.501900 0.000000
-13.475700 0.000000
-13.449400 0.000000
-13.423200 0.000000
-13.396900 0.000000
-13.370700 0.000000
-13.344400 0.000000
-13.318100 0.000000
-13.291900 0.000000
-13.265600 0.000000
-13.239400 0.000000
-13.213100 0.000000
-13.186900 0.000000
-13.160600 0.000000
-13.134300 0.000000
-13.108100 0.000000
-13.081800 0.000000
-13.055600 0.000000
-13.029300 0.000000
-13.003100 0.000000
-12.976800 0.000000
-12.950500 0.000000
-12.924300 0.000000
-12.898000 0.000000
-12.871800 0.000000
-12.845500 0.000000
-12.819300 0.000000
-12.793000 0.000000
-12.766800 0.000000
-12.740500 0.000000
-12.714200 0.000000
-12.688000 0.000000
-12.661700 0.000000
-12.635500 0.000000
-12.609200 0.000000
-12.583000 0.000000
-12.556700 0.000000
-12.530400 0.000000
-12.504200 0.000000
-12.477900 0.000000
-12.451700 0.000000
-12.425400 0.000000
-12.399200 0.000000
-12.372900 0.000000
-12.346600 0.000000
-12.320400 0.000000
-12.294100 0.000000
-12.267900 0.000000
-12.241600 0.000000
-12.215400 0.000000
-12.189100 0.000000
-12.162800 0.000000
-12.136600 0.000000
-12.110300 0.000000
-12.084100 0.000000
-12.057800 0.000000
-12.031600 0.000000
-12.005300 0.000000
-11.979000 0.000000
-11.952800 0.000000
-11.926500 0.000000
-11.900300 0.000000
-11.874000 0.000000
-11.847800 0.000000
-11.821500 0.000000
-11.795300 0.000000
-11.769000 0.000000
-11.742700 0.000000
-11.716500 0.000000
-11.690200 0.000000
-11.664000 0.000000
-11.637700 0.000000
-11.611500 0.000000
-11.585200 0.000000
-11.558900 0.000000
-11.532700 0.000000
-11.506400 0.000000
-11.480200 0.000000
-11.453900 0.000000
-11.427700 0.000000
-11.401400 0.000000
-11.375100 0.000000
-11.348900 0.000000
-11.322600 0.000000
-11.296400 0.000000
-11.270100 0.000000
-11.243900 0.000000
-11.217600 0.000000
-11.191300 0.000000
-11.165100 0.000000
-11.138800 0.000000
-11.112600 0.000000
-11.086300 0.000000
-11.060100 0.000000
-11.033800 0.000000
-11.007500 0.000000
-10.981300 0.000000
-10.955000 0.000000
-10.928800 0.000000
-10.902500 0.000000
-10.876300 0.000000
-10.850000 0.000000
-10.823800 0.000000
-10.797500 0.000000
-10.771200 0.000000
-10.745000 0.000000
-10.718700 0.000000
-10.692500 0.000000
-10.666200 0.000000
-10.640000 0.000000
-10.613700 0.000000
-10.587400 0.000000
-10.561200 0.000000
-10.534900 0.000000
-10.508700 0.000000
-10.482400 0.000000
-10.456200 0.000000
-10.429900 0.000000
-10.403600 0.000000
-10.377400 0.000000
-10.351100 0.000000
-10.324900 0.000000
-10.298600 0.000000
-10.272400 0.000000
-10.246100 0.000000
-10.219800 0.000000
-10.193600 0.000000
-10.167300 0.000000
-10.141100 0.000000
-10.114800 0.000000
-10.088600 0.000000
-10.062300 0.000000
-10.036000 0.000000
-10.009800 0.000000
-9.983500 0.000000
-9.957300 0.000000
-9.931000 0.000000
-9.904800 0.000000
-9.878500 0.000000
-9.852300 0.000000
-9.826000 0.000000
-9.799700 0.000000
-9.773500 0.000000
-9.747200 0.000000
-9.721000 0.000000
-9.694700 0.000000
-9.668500 0.000000
-9.642200 0.000000
-9.615900 0.000000
-9.589700 0.000000
-9.563400 0.000000
-9.537200 0.000000
-9.510900 0.000000
-9.484700 0.000000
-9.458400 0.000000
-9.432100 0.000000
-9.405900 0.000000
-9.379600 0.000000
-9.353400 0.000000
-9.327100 0.000000
-9.300900 0.000000
-9.274600 0.000000
-9.248300 0.000000
-9.222100 0.000000
-9.195800 0.000000
-9.169600 0.000000
-9.143300 0.000000
-9.117100 0.000000
-9.090800 0.000000
-9.064500 0.000000
-9.038300 0.000000
-9.012000 0.000000
-8.985800 0.000000
-8.959500 0.000000
-8.933300 0.000000
-8.907000 0.000000
-8.880800 0.000000
-8.854500 0.000000
-8.828200 0.000000
-8.802000 0.000000
-8.775700 0.000000
-8.749500 0.000000
-8.723200 0.000000
-8.697000 0.000000
-8.670700 0.000000
-8.644400 0.000000
-8.618200 0.000000
-8.591900 0.000000
-8.565700 0.000000
-8.539400 0.000000
-8.513200 0.000000
-8.486900 0.000000
-8.460600 0.000000
-8.434400 0.000000
-8.408100 0.000000
-8.381900 0.000000
-8.355600 0.000000
-8.329400 0.000000
-8.303100 0.000000
-8.276800 0.000000
-8.250600 0.000000
-8.224300 0.000000
-8.198100 0.000000
-8.171800 0.000000
-8.145600 0.000000
-8.119300 0.000000
-8.093000 0.000000
-8.066800 0.000000
-8.040500 0.000000
-8.014300 0.000000
-7.988000 0.000000
-7.961800 0.000000
-7.935500 0.000000
-7.909300 0.000000
-7.883000 0.000000
-7.856700 0.000000
-7.830500 0.000000
-7.804200 0.000000
-7.778000 0.000000
-7.751700 0.000000
-7.725500 0.000000
-7.699200 0.000000
-7.672900 0.000000
-7.646700 0.000000
-7.620400 0.000000
-7.594200 0.000000
-7.567900 0.000000
-7.541700 0.000000
-7.515400 0.000000
-7.489100 0.000000
-7.462900 0.000000
-7.436600 0.000000
-7.410400 0.000000
-7.384100 0.000000
-7.357900 0.000000
-7.331600 0.000000
-7.305300 0.000000
-7.279100 0.000000
-7.252800 0.000000
-7.226600 0.000000
-7.200300 0.000000
-7.174100 0.000000
-7.147800 0.000000
-7.121500 0.000000
-7.095300 0.000000
-7.069000 0.000000
-7.042800 0.000000
-7.016500 0.000000
-6.990300 0.000000
-6.964000 0.000000
-6.937800 0.000000
-6.911500 0.000000
-6.885200 0.000000
-6.859000 0.000000
-6.832700 0.000000
-6.806500 0.000000
-6.780200 0.000000
-6.754000 0.000000
-6.727700 0.000000
-6.701400 0.000000
-6.675200 0.000000
-6.648900 0.000000
-6.622700 0.000000
-6.596400 0.000000
-6.570200 0.000000
-6.543900 0.000000
-6.517600 0.000000
-6.491400 0.000000
-6.465100 0.000000
-6.438900 0.000000
-6.412600 0.000000
-6.386400 0.000000
-6.360100 0.000000
-6.333800 0.000000
-6.307600 0.000000
-6.281300 0.000000
-6.255100 0.000000
-6.228800 0.000000
-6.202600 0.000000
-6.176300 0.000000
-6.150000 0.000000
-6.123800 0.000000
-6.097500 0.000000
-6.071300 0.000000
-6.045000 0.000000
-6.018800 0.000000
-5.992500 0.000000
-5.966300 0.000000
-5.940000 0.000000
-5.913700 0.000000
-5.887500 0.000000
-5.861200 0.000000
-5.835000 0.000000
-5.808700 0.000000
-5.782500 0.000000
-5.756200 0.000000
-5.729900 0.000000
-5.703700 0.000000
-5.677400 0.000000
-5.651200 0.000000
-5.624900 0.000000
-5.598700 0.000000
-5.572400 0.000000
-5.546100 0.000000
-5.519900 0.000000
-5.493600 0.000000
-5.467400 0.000000
-5.441100 0.000000
-5.414900 0.000000
-5.388600 0.000000
-5.362300 0.000000
-5.336100 0.000000
-5.309800 0.000000
-5.283600 0.000000
-5.257300 0.000000
-5.231100 0.000000
-5.204800 0.000000
-5.178500 0.000000
-5.152300 0.000000
-5.126000 0.000000
-5.099800 0.254400
-5.073500 2.013900
-5.047300 2.472400
-5.021000 2.375800
-4.994800 2.626200
-4.968500 2.619900
-4.942200 1.998800
-4.916000 3.776200
-4.889700 5.128500
-4.863500 4.032900
-4.837200 4.076300
-4.811000 4.189300
-4.784700 3.901400
-4.758400 3.855900
-4.732200 3.993200
-4.705900 3.862600
-4.679700 3.847300
-4.653400 4.050700
-4.627200 7.669500
-4.600900 5.038400
-4.574600 5.254200
-4.548400 4.392400
-4.522100 4.210300
-4.495900 3.872400
-4.469600 4.545900
-4.443400 3.826200
-4.417100 3.432300
-4.390800 3.188000
-4.364600 3.011100
-4.338300 2.975700
-4.312100 3.179000
-4.285800 3.542100
-4.259600 3.742700
-4.233300 4.759200
-4.207000 2.796800
-4.180800 1.934700
-4.154500 1.401600
-4.128300 1.587600
-4.102000 2.365000
-4.075800 4.268200
-4.049500 6.121100
-4.023300 7.080900
-3.997000 6.082800
-3.970700 6.348600
-3.944500 5.930500
-3.918200 5.101100
-3.892000 4.692200
-3.865700 4.688700
-3.839500 5.579800
-3.813200 6.054600
-3.786900 5.223100
-3.760700 3.426800
-3.734400 3.120500
-3.708200 3.004800
-3.681900 3.423600
-3.655700 4.080100
-3.629400 3.938700
-3.603100 3.154800
-3.576900 2.862000
-3.550600 2.814300
-3.524400 2.526100
-3.498100 2.266200
-3.471900 3.611400
-3.445600 2.751800
-3.419300 2.399900
-3.393100 2.118400
-3.366800 1.601900
-3.340600 1.493000
-3.314300 1.494400
-3.288100 1.855200
-3.261800 2.548400
-3.235500 3.671700
-3.209300 5.250600
-3.183000 4.289000
-3.156800 2.722000
-3.130500 1.697900
-3.104300 1.470600
-3.078000 1.429300
-3.051800 1.437100
-3.025500 1.464100
-2.999200 1.508400
-2.973000 1.538200
-2.946700 1.574500
-2.920500 1.610400
-2.894200 1.826500
-2.868000 2.341100
-2.841700 1.991700
-2.815400 1.724200
-2.789200 1.950900
-2.762900 4.899800
-2.736700 2.693000
-2.710400 2.792200
-2.684200 6.696500
-2.657900 7.649600
-2.631600 10.517700
-2.605400 9.948400
-2.579100 7.161100
-2.552900 8.427500
-2.526600 6.165300
-2.500400 6.504800
-2.474100 13.315200
-2.447800 7.967700
-2.421600 8.416400
-2.395300 6.235400
-2.369100 4.519400
-2.342800 4.605800
-2.316600 4.626800
-2.290300 4.689600
-2.264000 4.122300
-2.237800 3.448200
-2.211500 3.535200
-2.185300 4.389600
-2.159000 3.951000
-2.132800 3.278500
-2.106500 4.094100
-2.080300 2.651000
-2.054000 1.242500
-2.027700 0.782900
-2.001500 0.611800
-1.975200 0.871800
-1.949000 1.246800
-1.922700 1.690000
-1.896500 2.468700
-1.870200 3.260800
-1.843900 4.078800
-1.817700 3.058300
-1.791400 4.486200
-1.765200 7.389100
-1.738900 5.372300
-1.712700 5.504700
-1.686400 5.873300
-1.660100 5.897800
-1.633900 5.208900
-1.607600 5.144800
-1.581400 5.401900
-1.555100 6.251400
-1.528900 8.628700
-1.502600 10.315600
-1.476300 12.992200
-1.450100 12.929500
-1.423800 11.866700
-1.397600 7.718500
-1.371300 6.562500
-1.345100 7.362800
-1.318800 8.577100
-1.292500 8.654800
-1.266300 9.836700
-1.240000 10.021500
-1.213800 14.772300
-1.187500 11.813300
-1.161300 5.357500
-1.135000 6.511800
-1.108800 1.585600
-1.082500 0.297500
-1.056200 0.082900
-1.030000 0.000000
-1.003700 0.000000
-0.977500 0.000000
-0.951200 0.000000
-0.925000 0.000000
-0.898700 0.000000
-0.872400 0.000000
-0.846200 0.000000
-0.819900 0.000000
-0.793700 0.000000
-0.767400 0.000000
-0.741200 0.000000
-0.714900 0.000000
-0.688600 0.000000
-0.662400 0.000000
-0.636100 0.000000
-0.609900 0.000000
-0.583600 0.000000
-0.557400 0.000000
-0.531100 0.000000
-0.504800 0.000000
-0.478600 0.000000
-0.452300 0.000000
-0.426100 0.000000
-0.399800 0.000000
-0.373600 0.000000
-0.347300 0.000000
-0.321100 0.000000
-0.294800 0.000000
-0.268500 0.000000
-0.242300 0.000000
-0.216000 0.000000
-0.189800 0.000000
-0.163500 0.000000
-0.137300 0.000000
-0.111000 0.000000
-0.084700 0.000000
-0.058500 0.000000
-0.032200 0.000000
-0.006000 0.000000
0.020300 0.000000
0.046500 0.000000
0.072800 0.000000
0.099100 0.000000
0.125300 0.000000
0.151600 0.000000
0.177800 0.000000
0.204100 0.000000
0.230300 0.000000
0.256600 0.000000
0.282900 0.000000
0.309100 0.000000
0.335400 0.000000
0.361600 0.000000
0.387900 0.000000
0.414100 0.000000
0.440400 0.000000
0.466700 0.000000
0.492900 0.000000
0.519200 0.000000
0.545400 0.000000
0.571700 0.000000
0.597900 0.000000
0.624200 0.000000
0.650400 0.000000
0.676700 0.000000
0.703000 0.000000
0.729200 0.000000
0.755500 0.000000
0.781700 0.000000
0.808000 0.000000
0.834200 0.000000
0.860500 0.000000
0.886800 0.000000
0.913000 0.000000
0.939300 0.000000
0.965500 0.000000
0.991800 0.000000
1.018000 0.000000
1.044300 0.000000
1.070600 0.000000
1.096800 0.000000
1.123100 0.000000
1.149300 0.000000
1.175600 0.000000
1.201800 0.000000
1.228100 0.000000
1.254400 0.000000
1.280600 0.000000
1.306900 0.000000
1.333100 0.000000
1.359400 0.000000
1.385600 0.000000
1.411900 0.000000
1.438200 0.000000
1.464400 0.000000
1.490700 0.000000
1.516900 0.000000
1.543200 0.000000
1.569400 0.000000
1.595700 0.000000
1.621900 0.000000
1.648200 0.000000
1.674500 0.000000
1.700700 0.000000
1.727000 0.000000
1.753200 0.000000
1.779500 0.000000
1.805700 0.000000
1.832000 0.000000
1.858300 0.000000
1.884500 0.000000
1.910800 0.000000
1.937000 0.000000
1.963300 0.000000
1.989500 0.000000
2.015800 0.000000
2.042100 0.000000
2.068300 0.000000
2.094600 0.000000
2.120800 0.000000
2.147100 0.000000
2.173300 0.000000
2.199600 0.000000
2.225900 0.000000
2.252100 0.000000
2.278400 0.000000
2.304600 0.000000
2.330900 0.000000
2.357100 0.000000
2.383400 0.000000
2.409700 0.000000
2.435900 0.000000
2.462200 0.000000
2.488400 0.000000
2.514700 0.000000
2.540900 0.000000
2.567200 0.000000
2.593400 0.000000
2.619700 0.000000
2.646000 0.000000
2.672200 0.000000
2.698500 0.000000
2.724700 0.000000
2.751000 0.000000
2.777200 0.000000
2.803500 0.000000
2.829800 0.000000
2.856000 0.000000
2.882300 0.000000
2.908500 0.000000
2.934800 0.000000
2.961000 0.000000
2.987300 0.000000
3.013600 0.000000
3.039800 0.000000
3.066100 0.000000
3.092300 0.000000
3.118600 0.000000
3.144800 0.000000
3.171100 0.000000
3.197400 0.000000
3.223600 0.000000
3.249900 0.000000
3.276100 0.000000
3.302400 0.000000
3.328600 0.000000
3.354900 0.000000
3.381200 0.000000
3.407400 0.000000
3.433700 0.000000
3.459900 0.000000
3.486200 0.000000
3.512400 0.000000
3.538700 0.000000
3.564900 0.000000
3.591200 0.000000
3.617500 0.000000
3.643700 0.000000
3.670000 0.000000
3.696200 0.000000
3.722500 0.000000
3.748700 0.000000
3.775000 0.000000
3.801300 0.000000
3.827500 0.000000
3.853800 0.000000
3.880000 0.000000
3.906300 0.000000
3.932500 0.000000
3.958800 0.000000
3.985100 0.000000
4.011300 0.000000
4.037600 0.000000
4.063800 0.000000
4.090100 0.000000
4.116300 0.000000
4.142600 0.000000
4.168900 0.000000
4.195100 0.000000
4.221400 0.000000
4.247600 0.000000
4.273900 0.000000
4.300100 0.000000
4.326400 0.000000
4.352700 0.000000
4.378900 0.000000
4.405200 0.000000
4.431400 0.000000
4.457700 0.000000
4.483900 0.000000
4.510200 0.000000
4.536400 0.000000
4.562700 0.000000
4.589000 0.000000
4.615200 0.000000
4.641500 0.000000
4.667700 0.000000
4.694000 0.000000
4.720200 0.000000
4.746500 0.000000
4.772800 0.000000
4.799000 0.000000
4.825300 0.000000
4.851500 0.000000
4.877800 0.000000
4.904000 0.000000
4.930300 0.000000
4.956600 0.000000
4.982800 0.000000
5.009100 0.000000
5.035300 0.000000
5.061600 0.000000
5.087800 0.000000
5.114100 0.000000
5.140400 0.000000
5.166600 0.000000
5.192900 0.000000
5.219100 0.000000
5.245400 0.000000
5.271600 0.000000
5.297900 0.000000
5.324200 0.000000
5.350400 0.000000
5.376700 0.000000
5.402900 0.000000
5.429200 0.000000
5.455400 0.083500
5.481700 0.190500
5.507900 0.314200
5.534200 0.367800
5.560500 0.431200
5.586700 0.499100
5.613000 0.574400
5.639200 0.689700
5.665500 0.848400
5.691700 0.874700
5.718000 0.838400
5.744300 0.736400
5.770500 0.705700
5.796800 0.680200
5.823000 0.611500
5.849300 0.553900
5.875500 0.506200
5.901800 0.488300
5.928100 0.468500
5.954300 0.443400
5.980600 0.410800
6.006800 0.467400
6.033100 0.507600
6.059300 0.529800
6.085600 0.559900
6.111900 0.598900
6.138100 0.638000
6.164400 0.736200
6.190600 0.853700
6.216900 0.926700
6.243100 0.935400
6.269400 0.928800
6.295700 0.922700
6.321900 0.925200
6.348200 0.936800
6.374400 0.960300
6.400700 0.983800
6.426900 1.156100
6.453200 1.144900
6.479400 1.072400
6.505700 0.894600
6.532000 0.851300
6.558200 0.843100
6.584500 0.832900
6.610700 0.822500
6.637000 0.811900
6.663200 0.803200
6.689500 0.800100
6.715800 0.800300
6.742000 0.811100
6.768300 0.838000
6.794500 0.880300
6.820800 1.477900
6.847000 1.511100
6.873300 1.700700
6.899600 1.747200
6.925800 1.663900
6.952100 1.679300
6.978300 1.911100
7.004600 2.235200
7.030800 2.400200
7.057100 3.003200
7.083400 3.670900
7.109600 4.760900
7.135900 5.116400
7.162100 4.372800
7.188400 3.852900
7.214600 3.748700
7.240900 3.836900
7.267200 3.805700
7.293400 3.938100
7.319700 3.657100
7.345900 2.845800
7.372200 2.201500
7.398400 1.990400
7.424700 2.253400
7.450900 2.308700
7.477200 3.217500
7.503500 3.342600
7.529700 3.292800
7.556000 3.823700
7.582200 4.320400
7.608500 4.628300
7.634700 4.204800
7.661000 3.741100
7.687300 4.174500
7.713500 6.136000
7.739800 6.980400
7.766000 5.073700
7.792300 4.047400
7.818500 3.085000
7.844800 4.011300
7.871100 6.245800
7.897300 6.105200
7.923600 5.874100
7.949800 3.863200
7.976100 3.848100
8.002300 3.539400
8.028600 5.076200
8.054900 4.154300
8.081100 4.944800
8.107400 2.524000
8.133600 2.001100
8.159900 2.576100
8.186100 3.644700
8.212400 3.742900
8.238700 3.833500
8.264900 3.887800
8.291200 3.800200
8.317400 5.109600
8.343700 6.106300
8.369900 6.675000
8.396200 5.528400
8.422400 5.459100
8.448700 5.160100
8.475000 5.736300
8.501200 4.504300
8.527500 3.902600
8.553700 3.692200
8.580000 3.282200
8.606200 2.931000
8.632500 2.667400
8.658800 2.518400
8.685000 2.401800
8.711300 2.406900
8.737500 2.450500
8.763800 2.616500
8.790000 3.509100
8.816300 3.459200
8.842600 3.497600
8.868800 3.733600
8.895100 4.368600
8.921300 5.284800
8.947600 6.095700
8.973800 5.167800
9.000100 4.223300
9.026400 3.644800
9.052600 3.667000
9.078900 3.621300
9.105100 3.724900
9.131400 3.584600
9.157600 3.352500
9.183900 3.313600
9.210200 3.400800
9.236400 3.816700
9.262700 3.980900
9.288900 3.814800
9.315200 3.129200
9.341400 2.712700
9.367700 2.591200
9.393900 2.369500
9.420200 2.063200
9.446500 1.587000
9.472700 1.405400
9.499000 1.067300
9.525200 0.799900
9.551500 0.712200
9.577700 0.688600
9.604000 0.668200
9.630300 0.651300
9.656500 0.637700
9.682800 0.623500
9.709000 0.621500
9.735300 0.633100
9.761500 0.637400
9.787800 0.639800
9.814100 0.642100
9.840300 0.624500
9.866600 0.621700
9.892800 0.621500
9.919100 0.621900
9.945300 0.622800
9.971600 0.624300
9.997900 0.626700
10.024100 0.628900
10.050400 0.635600
10.076600 0.641300
10.102900 0.648300
10.129100 0.654900
10.155400 0.661100
10.181700 0.667000
10.207900 0.672800
10.234200 0.678400
10.260400 0.683600
10.286700 0.688800
10.312900 0.693300
10.339200 0.698300
10.365400 1.024300
10.391700 1.229000
10.418000 1.262700
10.444200 0.951200
10.470500 0.855900
10.496700 0.820800
10.523000 0.526800
10.549200 0.533800
10.575500 0.540500
10.601800 0.546900
10.628000 0.553200
10.654300 0.559400
10.680500 0.565500
10.706800 0.571600
10.733000 0.583100
10.759300 0.593900
10.785600 0.599900
10.811800 0.605100
10.838100 0.609400
10.864300 0.613500
10.890600 0.617000
10.916800 0.637100
10.943100 0.757400
10.969400 0.905600
10.995600 1.064800
11.021900 1.198200
11.048100 1.733200
11.074400 1.618900
11.100600 1.313900
11.126900 0.994000
11.153100 0.976900
11.179400 0.958400
11.205700 0.933700
11.231900 0.908400
11.258200 0.885700
11.284400 0.866000
11.310700 0.830600
11.336900 0.808300
11.363200 0.791700
11.389500 0.772700
11.415700 0.750200
11.442000 0.731600
11.468200 0.722100
11.494500 0.714700
11.520700 0.709600
11.547000 0.709500
11.573300 0.714900
11.599500 0.739100
11.625800 0.762900
11.652000 0.783700
11.678300 0.701500
11.704500 0.708300
11.730800 0.827700
11.757100 0.965800
11.783300 0.971000
11.809600 0.957800
11.835800 0.947200
11.862100 0.941900
11.888300 0.941000
11.914600 0.944600
11.940900 0.954300
11.967100 0.973400
11.993400 0.996900
12.019600 1.318000
12.045900 1.138500
12.072100 1.114200
12.098400 1.098600
12.124600 1.090300
12.150900 1.099000
12.177200 1.348100
12.203400 1.269000
12.229700 1.088600
12.255900 0.951000
12.282200 0.914900
12.308400 0.938200
12.334700 0.939200
12.361000 0.949600
12.387200 1.016800
12.413500 1.256100
12.439700 1.210500
12.466000 1.158300
12.492200 1.155800
12.518500 1.145300
12.544800 1.117100
12.571000 1.098500
12.597300 1.094900
12.623500 1.094500
12.649800 1.092000
12.676000 1.096700
12.702300 1.115200
12.728600 1.141500
12.754800 1.186300
12.781100 1.449000
12.807300 1.561500
12.833600 1.392700
12.859800 1.436800
12.886100 1.431100
12.912400 1.287200
12.938600 1.137500
12.964900 1.082600
12.991100 1.058600
13.017400 1.079200
13.043600 1.159900
13.069900 1.185900
13.096100 1.284700
13.122400 1.496800
13.148700 1.533400
13.174900 1.550300
13.201200 1.616600
13.227400 1.688100
13.253700 1.748000
13.279900 1.824200
13.306200 1.858800
13.332500 1.926500
13.358700 1.895500
13.385000 1.885300
13.411200 1.848000
13.437500 1.829500
13.463700 1.811000
13.490000 1.746200
13.516300 1.701000
13.542500 1.668000
13.568800 1.614400
13.595000 1.676600
13.621300 1.460400
13.647500 1.549800
13.673800 1.673300
13.700100 1.643800
13.726300 1.645800
13.752600 1.674000
13.778800 1.743900
13.805100 1.663100
13.831300 1.773000
13.857600 1.852300
13.883900 1.845000
13.910100 1.786800
13.936400 1.606600
13.962600 1.428200
13.988900 1.311600
14.015100 1.142300
14.041400 1.138700
14.067600 1.200700
14.093900 1.280500
14.120200 1.521900
14.146400 2.063600
14.172700 1.742100
14.198900 1.737800
14.225200 1.790700
14.251400 1.905700
14.277700 1.953500
14.304000 2.039400
14.330200 2.156300
14.356500 2.274600
14.382700 2.603100
14.409000 2.781600
14.435200 2.906400
14.461500 2.993900
14.487800 3.041800
14.514000 2.933100
14.540300 2.869100
14.566500 2.718300
14.592800 2.284600
14.619000 2.058500
14.645300 2.020600
14.671600 2.105300
14.697800 1.653600
14.724100 1.344300
14.750300 1.315100
14.776600 1.330300
14.802800 1.671800
14.829100 1.487900
14.855400 1.501000
14.881600 1.412900
14.907900 1.388000
14.934100 1.387800
14.960400 1.395900
14.986600 1.391000
15.012900 1.389000
15.039100 1.412300
15.065400 1.423500
15.091700 1.426500
15.117900 1.408300
15.144200 1.388300
15.170400 1.394200
15.196700 1.404300
15.222900 1.384100
15.249200 1.373400
15.275500 1.371000
15.301700 1.378500
15.328000 1.424800
15.354200 1.505500
15.380500 1.573600
15.406700 1.304700
15.433000 1.249600
15.459300 1.201700
15.485500 1.095100
15.511800 1.049400
15.538000 1.007700
15.564300 0.994800
15.590500 0.991800
15.616800 0.990800
15.643100 1.024100
15.669300 1.033000
15.695600 1.033200
15.721800 1.043900
15.748100 1.030100
15.774300 1.009500
15.800600 0.981900
15.826900 0.962600
15.853100 0.911600
15.879400 0.922300
15.905600 1.094200
15.931900 0.922000
15.958100 0.824700
15.984400 0.807000
16.010600 0.800800
16.036900 0.808100
16.063200 0.811300
16.089400 0.815100
16.115700 0.818900
16.141900 0.822500
16.168200 0.825900
16.194400 0.830900
16.220700 0.840100
16.247000 0.853200
16.273200 0.870700
16.299500 0.890900
16.325700 0.913300
16.352000 0.931100
16.378200 0.957700
16.404500 0.987600
16.430800 1.043300
16.457000 1.091100
16.483300 1.074600
16.509500 1.036600
16.535800 1.091100
16.562000 1.141200
16.588300 1.009700
16.614600 0.881900
16.640800 0.844300
16.667100 0.830000
16.693300 0.825800
16.719600 0.827100
16.745800 0.838000
16.772100 1.039500
16.798400 1.264800
16.824600 1.402800
16.850900 1.433800
16.877100 1.451600
16.903400 1.810700
16.929600 1.685700
16.955900 1.732700
16.982100 2.027900
17.008400 2.617900
17.034700 2.871600
17.060900 2.665700
17.087200 2.629600
17.113400 2.747300
17.139700 2.881700
17.165900 2.588900
17.192200 2.245100
17.218500 2.131200
17.244700 2.066400
17.271000 2.287200
17.297200 2.378600
17.323500 2.470700
17.349700 2.564700
17.376000 2.604500
17.402300 2.671800
17.428500 3.008600
17.454800 3.309900
17.481000 3.598600
17.507300 3.068800
17.533500 3.265300
17.559800 3.478900
17.586100 3.429900
17.612300 2.707400
17.638600 1.701400
17.664800 1.655700
17.691100 1.671900
17.717300 1.767900
17.743600 1.918700
17.769900 2.725500
17.796100 2.605400
17.822400 2.852200
17.848600 2.703400
17.874900 2.587000
17.901100 2.911000
17.927400 2.876700
17.953600 3.205100
17.979900 2.918100
18.006200 2.782600
18.032400 2.337100
18.058700 1.977700
18.084900 1.905300
18.111200 2.070100
18.137400 2.267100
18.163700 2.258400
18.190000 2.367800
18.216200 2.472800
18.242500 3.223500
18.268700 3.999900
18.295000 3.941500
18.321200 3.527200
18.347500 2.991900
18.373800 2.443500
18.400000 2.104500
18.426300 1.918100
18.452500 1.800500
18.478800 1.738400
18.505000 1.837700
18.531300 1.650300
18.557600 1.543500
18.583800 1.451700
18.610100 1.385000
18.636300 1.382100
18.662600 1.403800
18.688800 1.440200
18.715100 1.490100
18.741400 1.530900
18.767600 1.665100
18.793900 1.445700
18.820100 1.375400
18.846400 1.337400
18.872600 1.321100
18.898900 1.367600
18.925100 1.341100
18.951400 1.326900
18.977700 1.324800
19.003900 1.329100
19.030200 1.358400
19.056400 1.405100
19.082700 1.545700
19.108900 1.727600
19.135200 1.999000
19.161500 2.084900
19.187700 2.032800
19.214000 2.067300
19.240200 2.021200
19.266500 2.019800
19.292700 2.053800
19.319000 2.161300
19.345300 2.442100
19.371500 2.534900
19.397800 2.508200
19.424000 2.395300
19.450300 2.285800
19.476500 2.261800
19.502800 2.242600
19.529100 2.254900
19.555300 2.336100
19.581600 2.396500
19.607800 2.430000
19.634100 2.375600
19.660300 2.386600
19.686600 2.383300
19.712900 2.117200
19.739100 2.100900
19.765400 2.175800
19.791600 2.267300
19.817900 2.156400
19.844100 2.046400
19.870400 2.019400
19.896600 1.977100
19.922900 1.941700
19.949200 1.882400
19.975400 1.732100
20.001700 1.575600
20.027900 1.658500
20.054200 1.842100
20.080400 1.929200
20.106700 1.919500
20.133000 1.941000
20.159200 2.145200
20.185500 1.981100
20.211700 1.678000
20.238000 1.611800
20.264200 1.574200
20.290500 1.579900
20.316800 1.630000
20.343000 1.781500
20.369300 1.740100
20.395500 1.791800
20.421800 1.843300
20.448000 1.979200
20.474300 1.949100
20.500600 2.138200
20.526800 1.901000
20.553100 1.853700
20.579300 1.893500
20.605600 1.874500
20.631800 1.878000
20.658100 2.003900
20.684400 2.015200
20.710600 2.006500
20.736900 1.923100
20.763100 1.728600
20.789400 1.693000
20.815600 1.986400
20.841900 2.094100
20.868100 2.223800
20.894400 2.297100
20.920700 2.466100
20.946900 2.635500
20.973200 3.449500
20.999400 3.833500
21.025700 3.594100
21.051900 2.874600
21.078200 2.404400
21.104500 2.133600
21.130700 2.015900
21.157000 1.903100
21.183200 1.855500
21.209500 1.717700
21.235700 1.523200
21.262000 1.444200
21.288300 1.403500
21.314500 1.372900
21.340800 1.351800
21.367000 1.229000
21.393300 1.008300
21.419500 0.944800
21.445800 0.968600
21.472100 1.038900
21.498300 1.098100
21.524600 1.169100
21.550800 1.237500
21.577100 1.295700
21.603300 1.337700
21.629600 1.381800
21.655900 1.399600
21.682100 1.352600
21.708400 1.339600
21.734600 1.362800
21.760900 1.499600
21.787100 1.294800
21.813400 1.156200
21.839600 1.011900
21.865900 0.937000
21.892200 0.891700
21.918400 0.967700
21.944700 1.164300
21.970900 1.332600
21.997200 1.497800
22.023400 1.660700
22.049700 1.762300
22.076000 1.798400
22.102200 1.758800
22.128500 1.684300
22.154700 1.696300
22.181000 1.561000
22.207200 1.444900
22.233500 1.743500
22.259800 2.537800
22.286000 3.200200
22.312300 3.329300
22.338500 2.811300
22.364800 1.748100
22.391000 1.462000
22.417300 1.686700
22.443600 1.958100
22.469800 2.248800
22.496100 2.678700
22.522300 2.574600
22.548600 2.240700
22.574800 2.160700
22.601100 2.129700
22.627400 2.133000
22.653600 2.235000
22.679900 2.426900
22.706100 2.669400
22.732400 2.866100
22.758600 2.971600
22.784900 3.142600
22.811100 3.259100
22.837400 3.226600
22.863700 3.190600
22.889900 2.773400
22.916200 2.564300
22.942400 2.615400
22.968700 2.460800
22.994900 2.259400
23.021200 2.074500
23.047500 1.841800
23.073700 1.716800
23.100000 1.457200
23.126200 1.200300
23.152500 1.199100
23.178700 1.297900
23.205000 1.837800
23.231300 2.237600
23.257500 2.427600
23.283800 2.610600
23.310000 2.797000
23.336300 2.842700
23.362500 2.692400
23.388800 2.515500
23.415100 2.364800
23.441300 2.142400
23.467600 2.182800
23.493800 2.346900
23.520100 2.298200
23.546300 2.030800
23.572600 1.893600
23.598800 1.790100
23.625100 1.687500
23.651400 1.598600
23.677600 1.511900
23.703900 1.406900
23.730100 1.284600
23.756400 1.220800
23.782600 1.110100
23.808900 0.996200
23.835200 0.911600
23.861400 0.826100
23.887700 0.728000
23.913900 0.625200
23.940200 0.536800
23.966400 0.490300
23.992700 0.453400
24.019000 0.417800
24.045200 0.383500
24.071500 0.351400
24.097700 0.316600
24.124000 0.290700
24.150200 0.267700
24.176500 0.246900
24.202800 0.226700
24.229000 0.207000
24.255300 0.189300
24.281500 0.191800
24.307800 0.168200
24.334000 0.147600
24.360300 0.152100
24.386600 0.123200
24.412800 0.001900
24.439100 0.000500
24.465300 0.000000
24.491600 0.000000
24.517800 0.000000
24.544100 0.000000
24.570300 0.000000
24.596600 0.000000
24.622900 0.000000
24.649100 0.000000
24.675400 0.000000
24.701600 0.000000
24.727900 0.000000
24.754100 0.000000
24.780400 0.000000
24.806700 0.000000
24.832900 0.000000
24.859200 0.000000
24.885400 0.000000
24.911700 0.000000
24.937900 0.000000
24.964200 0.000000
24.990500 0.000000
25.016700 0.000000
25.043000 0.000000
25.069200 0.000000
25.095500 0.000000
25.121700 0.000000
25.148000 0.000000
25.174300 0.000000
25.200500 0.000000
25.226800 0.000000
25.253000 0.000000
25.279300 0.000000
25.305500 0.000000
25.331800 0.000000
25.358100 0.000000
25.384300 0.000000
25.410600 0.000000
25.436800 0.000000
25.463100 0.000000
25.489300 0.000000
25.515600 0.000000
25.541800 0.000000
25.568100 0.000000
25.594400 0.000000
25.620600 0.000000
25.646900 0.000000
25.673100 0.000000
25.699400 0.000000
25.725600 0.000000
25.751900 0.000000
25.778200 0.000000
25.804400 0.000000
25.830700 0.000000
25.856900 0.000000
25.883200 0.000000
25.909400 0.000000
25.935700 0.000000
25.962000 0.000000
25.988200 0.000000
26.014500 0.000000
26.040700 0.000000
26.067000 0.000000
26.093200 0.000000
26.119500 0.000000
26.145800 0.000000
26.172000 0.000000
26.198300 0.000000
26.224500 0.000000
26.250800 0.000000
26.277000 0.000000
26.303300 0.000000
26.329600 0.000000
26.355800 0.000000
26.382100 0.000000
26.408300 0.000000
26.434600 0.000000
26.460800 0.000000
26.487100 0.000000
26.513300 0.000000
26.539600 0.000000
26.565900 0.000000
26.592100 0.000000
26.618400 0.000000
26.644600 0.000000
26.670900 0.000000
26.697100 0.000000
26.723400 0.000000
26.749700 0.000000
26.775900 0.000000
26.802200 0.000000
26.828400 0.000000
26.854700 0.000000
26.880900 0.000000
26.907200 0.000000
26.933500 0.000000
26.959700 0.000000
26.986000 0.000000
27.012200 0.000000
27.038500 0.000000
27.064700 0.000000
27.091000 0.000000
27.117300 0.000000
27.143500 0.000000
27.169800 0.000000
e
