set title 'mp-1007760 - Density of States'
set xlabel 'Energy (eV)'
set ylabel 'DOS (states/eV)'
set grid
set xrange [-10:10]
set yrange [0:5.228]
set xzeroaxis lt -1
set terminal png size 800,600
set output 'mp-1007760_dos_gnuplot.png'
plot '-' using 1:2 with lines title 'DOS'
-24.194800 0.000000
-24.173400 0.000000
-24.151900 0.000000
-24.130400 0.000000
-24.108900 0.000000
-24.087500 0.000000
-24.066000 0.000000
-24.044500 0.000000
-24.023000 0.000000
-24.001600 0.000000
-23.980100 0.000000
-23.958600 0.000000
-23.937200 0.000000
-23.915700 0.000000
-23.894200 0.000000
-23.872700 0.000000
-23.851300 0.000000
-23.829800 0.000000
-23.808300 0.000000
-23.786800 0.000000
-23.765400 0.000000
-23.743900 0.000000
-23.722400 0.000000
-23.700900 0.000000
-23.679500 0.000000
-23.658000 0.000000
-23.636500 0.000000
-23.615000 0.000000
-23.593600 0.000000
-23.572100 0.000000
-23.550600 0.000000
-23.529100 0.000000
-23.507700 0.000000
-23.486200 0.000000
-23.464700 0.000000
-23.443200 0.000000
-23.421800 0.000000
-23.400300 0.000000
-23.378800 0.000000
-23.357300 0.000000
-23.335900 0.000000
-23.314400 0.000000
-23.292900 0.000000
-23.271400 0.000000
-23.250000 0.000000
-23.228500 0.000000
-23.207000 0.000000
-23.185500 0.000000
-23.164100 0.000000
-23.142600 0.000000
-23.121100 0.000000
-23.099600 0.000000
-23.078200 0.000000
-23.056700 0.000000
-23.035200 0.000000
-23.013700 0.000000
-22.992300 0.000000
-22.970800 0.000000
-22.949300 0.000000
-22.927800 0.000000
-22.906400 0.000000
-22.884900 0.000000
-22.863400 0.000000
-22.841900 0.000000
-22.820500 0.000000
-22.799000 0.000000
-22.777500 0.000000
-22.756000 0.000000
-22.734600 0.000000
-22.713100 0.000000
-22.691600 0.000000
-22.670200 0.000000
-22.648700 0.000000
-22.627200 0.000000
-22.605700 0.000000
-22.584300 0.000000
-22.562800 0.000000
-22.541300 0.000000
-22.519800 0.000000
-22.498400 0.000000
-22.476900 0.000000
-22.455400 0.000000
-22.433900 0.000000
-22.412500 0.000000
-22.391000 0.000000
-22.369500 0.000000
-22.348000 0.000000
-22.326600 0.000000
-22.305100 0.000000
-22.283600 0.000000
-22.262100 0.000000
-22.240700 29.232100
-22.219200 223.014800
-22.197700 46.574100
-22.176200 59.481100
-22.154800 98.199700
-22.133300 65.805400
-22.111800 171.309300
-22.090300 110.706200
-22.068900 34.902300
-22.047400 115.879600
-22.025900 176.473400
-22.004400 141.890900
-21.983000 98.961100
-21.961500 11.552100
-21.940000 155.652700
-21.918500 227.842500
-21.897100 0.000000
-21.875600 0.000000
-21.854100 0.000000
-21.832600 0.000000
-21.811200 0.000000
-21.789700 0.000000
-21.768200 0.000000
-21.746700 0.000000
-21.725300 0.000000
-21.703800 0.000000
-21.682300 0.000000
-21.660800 0.000000
-21.639400 0.000000
-21.617900 0.000000
-21.596400 0.000000
-21.574900 0.000000
-21.553500 0.000000
-21.532000 0.000000
-21.510500 0.000000
-21.489000 0.000000
-21.467600 0.000000
-21.446100 0.000000
-21.424600 0.000000
-21.403200 0.000000
-21.381700 0.000000
-21.360200 0.000000
-21.338700 0.000000
-21.317300 0.000000
-21.295800 0.000000
-21.274300 0.000000
-21.252800 0.000000
-21.231400 0.000000
-21.209900 0.000000
-21.188400 0.000000
-21.166900 0.000000
-21.145500 0.000000
-21.124000 0.000000
-21.102500 0.000000
-21.081000 0.000000
-21.059600 0.000000
-21.038100 0.000000
-21.016600 0.000000
-20.995100 0.000000
-20.973700 0.000000
-20.952200 0.000000
-20.930700 0.000000
-20.909200 0.000000
-20.887800 0.000000
-20.866300 0.000000
-20.844800 0.000000
-20.823300 0.000000
-20.801900 0.000000
-20.780400 0.000000
-20.758900 0.000000
-20.737400 0.000000
-20.716000 0.000000
-20.694500 0.000000
-20.673000 0.000000
-20.651500 0.000000
-20.630100 0.000000
-20.608600 0.000000
-20.587100 0.000000
-20.565600 0.000000
-20.544200 0.000000
-20.522700 0.000000
-20.501200 0.000000
-20.479700 0.000000
-20.458300 0.000000
-20.436800 0.000000
-20.415300 0.000000
-20.393800 0.000000
-20.372400 0.000000
-20.350900 0.000000
-20.329400 0.000000
-20.307900 0.000000
-20.286500 0.000000
-20.265000 0.000000
-20.243500 0.000000
-20.222000 0.000000
-20.200600 0.000000
-20.179100 0.000000
-20.157600 0.000000
-20.136100 0.000000
-20.114700 0.000000
-20.093200 0.000000
-20.071700 0.000000
-20.050300 0.000000
-20.028800 0.000000
-20.007300 0.000000
-19.985800 0.000000
-19.964400 0.000000
-19.942900 0.000000
-19.921400 0.000000
-19.899900 0.000000
-19.878500 0.000000
-19.857000 0.000000
-19.835500 0.000000
-19.814000 0.000000
-19.792600 0.000000
-19.771100 0.000000
-19.749600 0.000000
-19.728100 0.000000
-19.706700 0.000000
-19.685200 0.000000
-19.663700 0.000000
-19.642200 0.000000
-19.620800 0.000000
-19.599300 0.000000
-19.577800 0.000000
-19.556300 0.000000
-19.534900 0.000000
-19.513400 0.000000
-19.491900 0.000000
-19.470400 0.000000
-19.449000 0.000000
-19.427500 0.000000
-19.406000 0.000000
-19.384500 0.000000
-19.363100 0.000000
-19.341600 0.000000
-19.320100 0.000000
-19.298600 0.000000
-19.277200 0.000000
-19.255700 0.000000
-19.234200 0.000000
-19.212700 0.000000
-19.191300 0.000000
-19.169800 0.000000
-19.148300 0.000000
-19.126800 0.000000
-19.105400 0.000000
-19.083900 0.000000
-19.062400 0.000000
-19.040900 0.000000
-19.019500 0.000000
-18.998000 0.000000
-18.976500 0.000000
-18.955000 0.000000
-18.933600 0.000000
-18.912100 0.000000
-18.890600 0.000000
-18.869100 0.000000
-18.847700 0.000000
-18.826200 0.000000
-18.804700 0.000000
-18.783300 0.000000
-18.761800 0.000000
-18.740300 0.000000
-18.718800 0.000000
-18.697400 0.000000
-18.675900 0.000000
-18.654400 0.000000
-18.632900 0.000000
-18.611500 0.000000
-18.590000 0.000000
-18.568500 0.000000
-18.547000 0.000000
-18.525600 0.000000
-18.504100 0.000000
-18.482600 0.000000
-18.461100 0.000000
-18.439700 0.000000
-18.418200 0.000000
-18.396700 0.000000
-18.375200 0.000000
-18.353800 0.000000
-18.332300 0.000000
-18.310800 0.000000
-18.289300 0.000000
-18.267900 0.000000
-18.246400 0.000000
-18.224900 0.000000
-18.203400 0.000000
-18.182000 0.000000
-18.160500 0.000000
-18.139000 0.000000
-18.117500 0.000000
-18.096100 0.000000
-18.074600 0.000000
-18.053100 0.000000
-18.031600 0.000000
-18.010200 0.000000
-17.988700 0.000000
-17.967200 0.000000
-17.945700 0.000000
-17.924300 0.000000
-17.902800 0.000000
-17.881300 0.000000
-17.859800 0.000000
-17.838400 0.000000
-17.816900 0.000000
-17.795400 0.000000
-17.773900 0.000000
-17.752500 0.000000
-17.731000 0.000000
-17.709500 0.000000
-17.688000 0.000000
-17.666600 0.000000
-17.645100 0.000000
-17.623600 0.000000
-17.602100 0.000000
-17.580700 0.000000
-17.559200 0.000000
-17.537700 0.000000
-17.516200 0.000000
-17.494800 0.000000
-17.473300 0.000000
-17.451800 0.000000
-17.430400 0.000000
-17.408900 0.000000
-17.387400 0.000000
-17.365900 0.000000
-17.344500 0.000000
-17.323000 0.000000
-17.301500 0.000000
-17.280000 0.000000
-17.258600 0.000000
-17.237100 0.000000
-17.215600 0.000000
-17.194100 0.000000
-17.172700 0.000000
-17.151200 0.000000
-17.129700 0.000000
-17.108200 0.000000
-17.086800 0.000000
-17.065300 0.000000
-17.043800 0.000000
-17.022300 0.000000
-17.000900 0.000000
-16.979400 0.000000
-16.957900 0.000000
-16.936400 0.000000
-16.915000 0.000000
-16.893500 0.000000
-16.872000 0.000000
-16.850500 0.000000
-16.829100 0.000000
-16.807600 0.000000
-16.786100 0.000000
-16.764600 0.000000
-16.743200 0.000000
-16.721700 0.000000
-16.700200 0.000000
-16.678700 0.000000
-16.657300 0.000000
-16.635800 0.000000
-16.614300 0.000000
-16.592800 0.000000
-16.571400 0.000000
-16.549900 0.000000
-16.528400 0.000000
-16.506900 0.000000
-16.485500 0.000000
-16.464000 0.000000
-16.442500 0.000000
-16.421000 0.000000
-16.399600 0.000000
-16.378100 0.000000
-16.356600 0.000000
-16.335100 0.000000
-16.313700 0.000000
-16.292200 0.000000
-16.270700 0.000000
-16.249200 0.000000
-16.227800 0.000000
-16.206300 0.000000
-16.184800 0.000000
-16.163400 0.000000
-16.141900 0.000000
-16.120400 0.000000
-16.098900 0.000000
-16.077500 0.000000
-16.056000 0.000000
-16.034500 0.000000
-16.013000 0.000000
-15.991600 0.000000
-15.970100 0.000000
-15.948600 0.000000
-15.927100 0.000000
-15.905700 0.000000
-15.884200 0.000000
-15.862700 0.000000
-15.841200 0.000000
-15.819800 0.000000
-15.798300 0.000000
-15.776800 0.000000
-15.755300 0.000000
-15.733900 0.000000
-15.712400 0.000000
-15.690900 0.000000
-15.669400 0.000000
-15.648000 0.000000
-15.626500 0.000000
-15.605000 0.000000
-15.583500 0.000000
-15.562100 0.000000
-15.540600 0.000000
-15.519100 0.000000
-15.497600 0.000000
-15.476200 0.000000
-15.454700 0.000000
-15.433200 0.000000
-15.411700 0.000000
-15.390300 0.000000
-15.368800 0.000000
-15.347300 0.000000
-15.325800 0.000000
-15.304400 0.000000
-15.282900 0.000000
-15.261400 0.000000
-15.239900 0.000000
-15.218500 0.000000
-15.197000 0.000000
-15.175500 0.000000
-15.154000 0.000000
-15.132600 0.000000
-15.111100 0.000000
-15.089600 0.000000
-15.068100 0.000000
-15.046700 0.000000
-15.025200 0.000000
-15.003700 0.000000
-14.982200 0.000000
-14.960800 0.000000
-14.939300 0.000000
-14.917800 0.000000
-14.896400 0.000000
-14.874900 0.000000
-14.853400 0.000000
-14.831900 0.000000
-14.810500 0.000000
-14.789000 0.000000
-14.767500 0.000000
-14.746000 0.000000
-14.724600 0.000000
-14.703100 0.000000
-14.681600 0.000000
-14.660100 0.000000
-14.638700 0.000000
-14.617200 0.000000
-14.595700 0.000000
-14.574200 0.000000
-14.552800 0.000000
-14.531300 0.000000
-14.509800 0.000000
-14.488300 0.000000
-14.466900 0.000000
-14.445400 0.000000
-14.423900 0.000000
-14.402400 0.000000
-14.381000 0.000000
-14.359500 0.000000
-14.338000 0.000000
-14.316500 0.000000
-14.295100 0.000000
-14.273600 0.000000
-14.252100 0.000000
-14.230600 0.000000
-14.209200 0.000000
-14.187700 0.000000
-14.166200 0.000000
-14.144700 0.000000
-14.123300 0.000000
-14.101800 0.000000
-14.080300 0.000000
-14.058800 0.000000
-14.037400 0.000000
-14.015900 0.000000
-13.994400 0.000000
-13.972900 0.000000
-13.951500 0.000000
-13.930000 0.000000
-13.908500 0.000000
-13.887000 0.000000
-13.865600 0.000000
-13.844100 0.000000
-13.822600 0.000000
-13.801100 0.000000
-13.779700 0.000000
-13.758200 0.000000
-13.736700 0.000000
-13.715200 0.000000
-13.693800 0.000000
-13.672300 0.000000
-13.650800 0.000000
-13.629300 0.000000
-13.607900 0.000000
-13.586400 0.000000
-13.564900 0.000000
-13.543500 0.000000
-13.522000 0.000000
-13.500500 0.000000
-13.479000 0.000000
-13.457600 0.000000
-13.436100 0.000000
-13.414600 0.000000
-13.393100 0.000000
-13.371700 0.000000
-13.350200 0.000000
-13.328700 0.000000
-13.307200 0.000000
-13.285800 0.000000
-13.264300 0.000000
-13.242800 0.000000
-13.221300 0.000000
-13.199900 0.000000
-13.178400 0.000000
-13.156900 0.000000
-13.135400 0.000000
-13.114000 0.000000
-13.092500 0.000000
-13.071000 0.000000
-13.049500 0.000000
-13.028100 0.000000
-13.006600 0.000000
-12.985100 0.000000
-12.963600 0.000000
-12.942200 0.000000
-12.920700 0.000000
-12.899200 0.000000
-12.877700 0.000000
-12.856300 0.000000
-12.834800 0.000000
-12.813300 0.000000
-12.791800 0.000000
-12.770400 0.000000
-12.748900 0.000000
-12.727400 0.000000
-12.705900 0.000000
-12.684500 0.000000
-12.663000 0.000000
-12.641500 0.000000
-12.620000 0.000000
-12.598600 0.000000
-12.577100 0.000000
-12.555600 0.000000
-12.534100 0.000000
-12.512700 0.000000
-12.491200 0.000000
-12.469700 0.000000
-12.448200 0.000000
-12.426800 0.000000
-12.405300 0.000000
-12.383800 0.000000
-12.362300 0.000000
-12.340900 0.000000
-12.319400 0.000000
-12.297900 0.000000
-12.276500 0.000000
-12.255000 0.000000
-12.233500 0.000000
-12.212000 0.000000
-12.190600 0.000000
-12.169100 0.000000
-12.147600 0.000000
-12.126100 0.000000
-12.104700 0.000000
-12.083200 0.000000
-12.061700 0.000000
-12.040200 0.000000
-12.018800 0.000000
-11.997300 0.000000
-11.975800 0.000000
-11.954300 0.000000
-11.932900 0.000000
-11.911400 0.000000
-11.889900 0.000000
-11.868400 0.000000
-11.847000 0.000000
-11.825500 0.000000
-11.804000 0.000000
-11.782500 0.000000
-11.761100 0.000000
-11.739600 0.000000
-11.718100 0.000000
-11.696600 0.000000
-11.675200 0.000000
-11.653700 0.000000
-11.632200 0.000000
-11.610700 0.000000
-11.589300 0.000000
-11.567800 0.000000
-11.546300 0.000000
-11.524800 0.000000
-11.503400 0.000000
-11.481900 0.000000
-11.460400 0.000000
-11.438900 0.000000
-11.417500 0.000000
-11.396000 0.000000
-11.374500 0.000000
-11.353000 0.000000
-11.331600 0.000000
-11.310100 0.000000
-11.288600 0.000000
-11.267100 0.000000
-11.245700 0.000000
-11.224200 0.000000
-11.202700 0.000000
-11.181200 0.000000
-11.159800 0.000000
-11.138300 0.000000
-11.116800 0.000000
-11.095300 0.000000
-11.073900 0.000000
-11.052400 0.000000
-11.030900 0.000000
-11.009500 0.000000
-10.988000 0.000000
-10.966500 0.000000
-10.945000 0.000000
-10.923600 0.000000
-10.902100 0.000000
-10.880600 0.000000
-10.859100 0.000000
-10.837700 0.000000
-10.816200 0.000000
-10.794700 0.000000
-10.773200 0.000000
-10.751800 0.000000
-10.730300 0.000000
-10.708800 0.000000
-10.687300 0.000000
-10.665900 0.000000
-10.644400 0.000000
-10.622900 0.000000
-10.601400 0.000000
-10.580000 0.000000
-10.558500 0.000000
-10.537000 0.000000
-10.515500 0.000000
-10.494100 0.000000
-10.472600 0.000000
-10.451100 0.000000
-10.429600 0.000000
-10.408200 0.000000
-10.386700 0.000000
-10.365200 0.000000
-10.343700 0.000000
-10.322300 0.000000
-10.300800 0.000000
-10.279300 0.000000
-10.257800 0.000000
-10.236400 0.000000
-10.214900 0.000000
-10.193400 0.000000
-10.171900 0.000000
-10.150500 0.000000
-10.129000 0.000000
-10.107500 0.000000
-10.086000 0.000000
-10.064600 0.000000
-10.043100 0.000000
-10.021600 0.000000
-10.000100 0.000000
-9.978700 0.000000
-9.957200 0.000000
-9.935700 0.000000
-9.914200 0.000000
-9.892800 0.000000
-9.871300 0.000000
-9.849800 0.000000
-9.828300 0.000000
-9.806900 0.000300
-9.785400 0.047300
-9.763900 0.154900
-9.742400 0.187300
-9.721000 0.205700
-9.699500 0.245100
-9.678000 0.285600
-9.656600 0.315200
-9.635100 0.327200
-9.613600 0.341600
-9.592100 0.364200
-9.570700 0.386700
-9.549200 0.409200
-9.527700 0.432200
-9.506200 0.449400
-9.484800 0.465400
-9.463300 0.481000
-9.441800 0.493400
-9.420300 0.508000
-9.398900 0.523300
-9.377400 0.538800
-9.355900 0.555200
-9.334400 0.572500
-9.313000 0.589700
-9.291500 0.603400
-9.270000 0.615500
-9.248500 0.630600
-9.227100 0.706800
-9.205600 0.700600
-9.184100 0.709000
-9.162600 0.716700
-9.141200 0.724300
-9.119700 0.727200
-9.098200 0.722900
-9.076700 0.724200
-9.055300 0.730100
-9.033800 0.733100
-9.012300 0.735100
-8.990800 0.737400
-8.969400 0.739500
-8.947900 0.744600
-8.926400 0.819700
-8.904900 0.821600
-8.883500 0.838700
-8.862000 0.857600
-8.840500 0.877300
-8.819000 0.891300
-8.797600 0.898300
-8.776100 0.910300
-8.754600 0.923400
-8.733100 0.935900
-8.711700 0.950100
-8.690200 0.965000
-8.668700 0.974600
-8.647200 0.987400
-8.625800 1.000200
-8.604300 1.013100
-8.582800 1.027100
-8.561300 1.042200
-8.539900 1.057600
-8.518400 1.073300
-8.496900 1.087200
-8.475400 1.102800
-8.454000 1.115500
-8.432500 1.128300
-8.411000 1.144300
-8.389600 1.160600
-8.368100 1.176300
-8.346600 1.192300
-8.325100 1.208800
-8.303700 1.226300
-8.282200 1.244600
-8.260700 1.263400
-8.239200 1.283700
-8.217800 1.305900
-8.196300 1.326300
-8.174800 1.348600
-8.153300 1.372700
-8.131900 1.397700
-8.110400 1.423800
-8.088900 1.450600
-8.067400 1.480000
-8.046000 1.513200
-8.024500 1.548200
-8.003000 1.585100
-7.981500 1.626200
-7.960100 1.677600
-7.938600 1.758300
-7.917100 2.011200
-7.895600 1.963100
-7.874200 1.931300
-7.852700 1.952200
-7.831200 1.951300
-7.809700 1.923300
-7.788300 1.876900
-7.766800 1.859200
-7.745300 1.851700
-7.723800 1.846200
-7.702400 1.845000
-7.680900 1.839000
-7.659400 1.799000
-7.637900 1.772800
-7.616500 1.760200
-7.595000 1.741000
-7.573500 1.721500
-7.552000 1.706700
-7.530600 1.693100
-7.509100 1.679700
-7.487600 1.668000
-7.466100 1.661000
-7.444700 1.655200
-7.423200 1.554700
-7.401700 1.514900
-7.380200 1.481500
-7.358800 1.453500
-7.337300 1.429900
-7.315800 1.414900
-7.294300 1.420400
-7.272900 1.427200
-7.251400 1.495200
-7.229900 1.384200
-7.208400 1.410700
-7.187000 1.703800
-7.165500 1.399400
-7.144000 1.360300
-7.122500 1.327600
-7.101100 1.292700
-7.079600 1.261500
-7.058100 1.248800
-7.036700 1.241600
-7.015200 1.240200
-6.993700 1.214600
-6.972200 1.243200
-6.950800 1.241900
-6.929300 1.168000
-6.907800 1.173800
-6.886300 1.178300
-6.864900 1.196000
-6.843400 1.263900
-6.821900 1.203500
-6.800400 1.441200
-6.779000 1.588400
-6.757500 1.436000
-6.736000 1.331000
-6.714500 1.267000
-6.693100 1.220400
-6.671600 1.194400
-6.650100 1.193300
-6.628600 1.188400
-6.607200 1.192700
-6.585700 1.191300
-6.564200 1.152700
-6.542700 1.110600
-6.521300 1.069600
-6.499800 1.029500
-6.478300 0.990400
-6.456800 1.011700
-6.435400 1.040200
-6.413900 0.984800
-6.392400 0.991400
-6.370900 0.976500
-6.349500 0.899800
-6.328000 0.818300
-6.306500 0.733900
-6.285000 0.632400
-6.263600 0.517500
-6.242100 0.435700
-6.220600 0.347300
-6.199100 0.252200
-6.177700 0.154300
-6.156200 0.102800
-6.134700 0.064100
-6.113200 0.037000
-6.091800 0.019600
-6.070300 0.007300
-6.048800 0.000900
-6.027300 0.000000
-6.005900 0.002800
-5.984400 0.011300
-5.962900 0.025700
-5.941400 0.047300
-5.920000 0.088200
-5.898500 0.170800
-5.877000 0.287800
-5.855500 0.390000
-5.834100 0.561100
-5.812600 0.665400
-5.791100 0.763200
-5.769700 0.800500
-5.748200 0.802800
-5.726700 0.840700
-5.705200 0.877500
-5.683800 0.912100
-5.662300 0.960700
-5.640800 1.020000
-5.619300 1.085700
-5.597900 1.148800
-5.576400 1.204800
-5.554900 1.223200
-5.533400 1.236400
-5.512000 1.313000
-5.490500 1.401600
-5.469000 1.409100
-5.447500 1.430600
-5.426100 1.464500
-5.404600 1.526000
-5.383100 1.593400
-5.361600 1.686800
-5.340200 1.932900
-5.318700 1.543200
-5.297200 1.489700
-5.275700 1.440900
-5.254300 1.394900
-5.232800 1.425200
-5.211300 1.343600
-5.189800 1.286600
-5.168400 1.332600
-5.146900 1.403800
-5.125400 1.232700
-5.103900 1.187000
-5.082500 1.116600
-5.061000 1.105500
-5.039500 1.098900
-5.018000 1.098900
-4.996600 1.106700
-4.975100 1.117800
-4.953600 1.181100
-4.932100 1.139400
-4.910700 1.168300
-4.889200 1.228000
-4.867700 1.343800
-4.846200 1.301800
-4.824800 1.330200
-4.803300 1.359900
-4.781800 1.400000
-4.760300 1.544300
-4.738900 1.590300
-4.717400 1.569700
-4.695900 1.548900
-4.674400 1.521500
-4.653000 1.493100
-4.631500 1.464900
-4.610000 1.459900
-4.588500 1.425900
-4.567100 1.318000
-4.545600 1.295200
-4.524100 1.288000
-4.502700 1.280700
-4.481200 1.273700
-4.459700 1.266800
-4.438200 1.258900
-4.416800 1.254800
-4.395300 1.253600
-4.373800 1.254700
-4.352300 1.254200
-4.330900 1.253400
-4.309400 1.252400
-4.287900 1.251400
-4.266400 1.252100
-4.245000 1.254700
-4.223500 1.253300
-4.202000 1.249600
-4.180500 1.251200
-4.159100 1.261300
-4.137600 1.257100
-4.116100 1.247900
-4.094600 1.228100
-4.073200 1.191800
-4.051700 1.186600
-4.030200 1.207100
-4.008700 1.237000
-3.987300 1.232200
-3.965800 1.216400
-3.944300 1.173000
-3.922800 1.099900
-3.901400 1.066700
-3.879900 1.040100
-3.858400 1.014700
-3.836900 0.991000
-3.815500 0.969000
-3.794000 0.948900
-3.772500 0.930700
-3.751000 0.913600
-3.729600 0.897500
-3.708100 0.882200
-3.686600 0.867400
-3.665100 0.852800
-3.643700 0.838400
-3.622200 0.824800
-3.600700 0.811800
-3.579200 0.799300
-3.557800 0.787500
-3.536300 0.775900
-3.514800 0.764600
-3.493300 0.753900
-3.471900 0.743900
-3.450400 0.733400
-3.428900 0.723100
-3.407400 0.712800
-3.386000 0.701700
-3.364500 0.690600
-3.343000 0.681700
-3.321500 0.672800
-3.300100 0.664400
-3.278600 0.656000
-3.257100 0.647700
-3.235600 0.639500
-3.214200 0.631400
-3.192700 0.623400
-3.171200 0.615400
-3.149800 0.607500
-3.128300 0.599700
-3.106800 0.593000
-3.085300 0.587100
-3.063900 0.581200
-3.042400 0.574800
-3.020900 0.567000
-2.999400 0.559300
-2.978000 0.552200
-2.956500 0.545600
-2.935000 0.539000
-2.913500 0.532400
-2.892100 0.526000
-2.870600 0.520900
-2.849100 0.516500
-2.827600 0.512000
-2.806200 0.507500
-2.784700 0.502900
-2.763200 0.508700
-2.741700 0.500800
-2.720300 0.492900
-2.698800 0.485100
-2.677300 0.477400
-2.655800 0.469700
-2.634400 0.480100
-2.612900 0.497000
-2.591400 0.480400
-2.569900 0.464400
-2.548500 0.503300
-2.527000 0.353000
-2.505500 0.350700
-2.484000 0.348300
-2.462600 0.346100
-2.441100 0.344000
-2.419600 0.341600
-2.398100 0.339200
-2.376700 0.337000
-2.355200 0.335000
-2.333700 0.333100
-2.312200 0.331400
-2.290800 0.329800
-2.269300 0.328200
-2.247800 0.326600
-2.226300 0.325000
-2.204900 0.323400
-2.183400 0.322400
-2.161900 0.321400
-2.140400 0.320400
-2.119000 0.319400
-2.097500 0.318400
-2.076000 0.317500
-2.054500 0.370800
-2.033100 0.446800
-2.011600 0.468100
-1.990100 0.496100
-1.968600 0.525700
-1.947200 0.557700
-1.925700 0.592600
-1.904200 0.617000
-1.882800 0.645800
-1.861300 0.668000
-1.839800 0.696900
-1.818300 0.835400
-1.796900 1.034900
-1.775400 1.230800
-1.753900 1.489500
-1.732400 1.802700
-1.711000 2.195200
-1.689500 2.233400
-1.668000 2.238000
-1.646500 2.250300
-1.625100 2.160200
-1.603600 2.114500
-1.582100 1.924800
-1.560600 1.856200
-1.539200 1.796800
-1.517700 1.742100
-1.496200 1.700400
-1.474700 1.657600
-1.453300 1.623700
-1.431800 1.594500
-1.410300 1.577900
-1.388800 1.549900
-1.367400 1.523000
-1.345900 1.496900
-1.324400 1.464500
-1.302900 1.432800
-1.281500 1.425400
-1.260000 1.423700
-1.238500 1.475400
-1.217000 1.500000
-1.195600 1.535800
-1.174100 1.585400
-1.152600 1.622400
-1.131100 1.642400
-1.109700 1.656700
-1.088200 1.691600
-1.066700 1.724900
-1.045200 1.760500
-1.023800 1.792100
-1.002300 1.854600
-0.980800 1.909400
-0.959300 1.951600
-0.937900 1.968700
-0.916400 1.969700
-0.894900 1.968300
-0.873400 1.980400
-0.852000 2.001700
-0.830500 2.042400
-0.809000 2.059500
-0.787500 2.071300
-0.766100 2.077800
-0.744600 2.096300
-0.723100 2.126600
-0.701600 2.181700
-0.680200 2.209100
-0.658700 2.243900
-0.637200 2.155800
-0.615800 2.087300
-0.594300 2.048000
-0.572800 2.021000
-0.551300 1.996900
-0.529900 1.976100
-0.508400 1.955800
-0.486900 1.933100
-0.465400 1.919000
-0.444000 2.104800
-0.422500 2.246100
-0.401000 2.345800
-0.379500 2.419400
-0.358100 3.013200
-0.336600 3.110400
-0.315100 2.781300
-0.293600 2.802900
-0.272200 2.832600
-0.250700 2.831200
-0.229200 2.651700
-0.207700 2.604600
-0.186300 2.566800
-0.164800 2.548400
-0.143300 2.510400
-0.121800 2.435800
-0.100400 2.403800
-0.078900 2.386300
-0.057400 2.401200
-0.035900 2.448700
-0.014500 2.518200
0.007000 2.728300
0.028500 2.808100
0.050000 2.877100
0.071400 2.950700
0.092900 2.997100
0.114400 3.020000
0.135900 3.027600
0.157300 3.097700
0.178800 3.138300
0.200300 3.140200
0.221800 3.109900
0.243200 3.311900
0.264700 3.425200
0.286200 3.558200
0.307700 3.283900
0.329100 3.080700
0.350600 2.934600
0.372100 2.817600
0.393600 2.793400
0.415000 2.750800
0.436500 2.767300
0.458000 2.652800
0.479500 2.719700
0.500900 2.842800
0.522400 2.925700
0.543900 3.010300
0.565400 3.077600
0.586800 3.142200
0.608300 3.760400
0.629800 3.629700
0.651300 3.670300
0.672700 4.110600
0.694200 4.752500
0.715700 4.574600
0.737100 4.227200
0.758600 3.312500
0.780100 3.144700
0.801600 2.980200
0.823000 2.887900
0.844500 2.848900
0.866000 2.814900
0.887500 2.756900
0.908900 2.700200
0.930400 2.630500
0.951900 2.571400
0.973400 2.461800
0.994800 2.403300
1.016300 2.390900
1.037800 2.357800
1.059300 2.322000
1.080700 2.273500
1.102200 2.202100
1.123700 2.141000
1.145200 2.108000
1.166600 2.046900
1.188100 1.986000
1.209600 1.925200
1.231100 1.853900
1.252500 1.773800
1.274000 1.696400
1.295500 1.627300
1.317000 1.566500
1.338400 1.508100
1.359900 1.449800
1.381400 1.399100
1.402900 1.358800
1.424300 1.327200
1.445800 1.295900
1.467300 1.255200
1.488800 1.215700
1.510200 1.177300
1.531700 1.148000
1.553200 1.107700
1.574700 1.068300
1.596100 1.031000
1.617600 0.996400
1.639100 0.948400
1.660600 0.919100
1.682000 0.896800
1.703500 0.873300
1.725000 0.848700
1.746500 0.826500
1.767900 0.804800
1.789400 0.784500
1.810900 0.765400
1.832400 0.746000
1.853800 0.727300
1.875300 0.706000
1.896800 0.707200
1.918300 0.676000
1.939700 0.643300
1.961200 0.609100
1.982700 0.587400
2.004100 0.568100
2.025600 0.548900
2.047100 0.529300
2.068600 0.510100
2.090000 0.491200
2.111500 0.473700
2.133000 0.459100
2.154500 0.445300
2.175900 0.433500
2.197400 0.415600
2.218900 0.397400
2.240400 0.379500
2.261800 0.361900
2.283300 0.344800
2.304800 0.328100
2.326300 0.312000
2.347700 0.296500
2.369200 0.281700
2.390700 0.271800
2.412200 0.267600
2.433600 0.255700
2.455100 0.229300
2.476600 0.199600
2.498100 0.166200
2.519500 0.138400
2.541000 0.126000
2.562500 0.123400
2.584000 0.125100
2.605400 0.125300
2.626900 0.107100
2.648400 0.081300
2.669900 0.048200
2.691300 0.001300
2.712800 0.003100
2.734300 0.005800
2.755800 0.009100
2.777200 0.013200
2.798700 0.017400
2.820200 0.021800
2.841700 0.026400
2.863100 0.031100
2.884600 0.035900
2.906100 0.040900
2.927600 0.046000
2.949000 0.053100
2.970500 0.100200
2.992000 0.167000
3.013500 0.236200
3.034900 0.321800
3.056400 0.399000
3.077900 0.453500
3.099400 0.506000
3.120800 0.560500
3.142300 0.625000
3.163800 0.683700
3.185300 0.697200
3.206700 0.718600
3.228200 0.750400
3.249700 0.790300
3.271100 0.871500
3.292600 0.977100
3.314100 1.053700
3.335600 1.120200
3.357000 1.190300
3.378500 1.258100
3.400000 1.328600
3.421500 1.395900
3.442900 1.460100
3.464400 1.520200
3.485900 1.582100
3.507400 1.645500
3.528800 1.713200
3.550300 1.791600
3.571800 1.820200
3.593300 1.878500
3.614700 1.930100
3.636200 1.976200
3.657700 2.016500
3.679200 2.047600
3.700600 2.092600
3.722100 2.136100
3.743600 2.161600
3.765100 2.205200
3.786500 2.255000
3.808000 2.310700
3.829500 2.479800
3.851000 2.673400
3.872400 2.633200
3.893900 2.502700
3.915400 2.490200
3.936900 2.463700
3.958300 2.444100
3.979800 2.411200
4.001300 2.368500
4.022800 2.308600
4.044200 2.335300
4.065700 2.261000
4.087200 2.289800
4.108700 2.307200
4.130100 2.286000
4.151600 2.262200
4.173100 2.242800
4.194600 2.227500
4.216000 2.214500
4.237500 2.222800
4.259000 2.240400
4.280500 2.278400
4.301900 2.325300
4.323400 2.444600
4.344900 2.459700
4.366400 2.471900
4.387800 2.492100
4.409300 2.521000
4.430800 2.532800
4.452300 2.527300
4.473700 2.473500
4.495200 2.417700
4.516700 2.392600
4.538200 2.375300
4.559600 2.360300
4.581100 2.341000
4.602600 2.312900
4.624000 2.276700
4.645500 2.229300
4.667000 2.163600
4.688500 2.121800
4.709900 2.006600
4.731400 1.885600
4.752900 1.755300
4.774400 1.659400
4.795800 1.525300
4.817300 1.417100
4.838800 1.311100
4.860300 1.279500
4.881700 1.258200
4.903200 1.308600
4.924700 1.368600
4.946200 1.487200
4.967600 1.449400
4.989100 1.447100
5.010600 1.440400
5.032100 1.446700
5.053500 1.529900
5.075000 1.599600
5.096500 1.608900
5.118000 1.628000
5.139400 1.650500
5.160900 1.674000
5.182400 1.714500
5.203900 1.774400
5.225300 1.857500
5.246800 1.951100
5.268300 2.055000
5.289800 2.145700
5.311200 2.162700
5.332700 2.140800
5.354200 2.166500
5.375700 2.219900
5.397100 2.285600
5.418600 2.257400
5.440100 2.303100
5.461600 2.520500
5.483000 2.815300
5.504500 2.852800
5.526000 2.922700
5.547500 2.975700
5.568900 3.093100
5.590400 3.220100
5.611900 3.485900
5.633400 3.709600
5.654800 3.694300
5.676300 3.689300
5.697800 3.684700
5.719300 3.724500
5.740700 3.543300
5.762200 3.516700
5.783700 3.505600
5.805200 3.536200
5.826600 3.570900
5.848100 3.496800
5.869600 3.343800
5.891000 3.092200
5.912500 2.816600
5.934000 2.992400
5.955500 2.766600
5.976900 2.504500
5.998400 2.340500
6.019900 2.238600
6.041400 2.240400
6.062800 2.260200
6.084300 2.416100
6.105800 2.495700
6.127300 2.554200
6.148700 2.614600
6.170200 2.718300
6.191700 2.796000
6.213200 2.888400
6.234600 2.975500
6.256100 3.032800
6.277600 3.121000
6.299100 3.061800
6.320500 3.051300
6.342000 3.063200
6.363500 3.147600
6.385000 3.376000
6.406400 3.397800
6.427900 3.327800
6.449400 3.176200
6.470900 2.939600
6.492300 2.767100
6.513800 2.570200
6.535300 2.586200
6.556800 2.342700
6.578200 2.307600
6.599700 2.313900
6.621200 2.337300
6.642700 2.299600
6.664100 2.253400
6.685600 2.222000
6.707100 2.225900
6.728600 2.243000
6.750000 2.249200
6.771500 2.246500
6.793000 2.274100
6.814500 2.321300
6.835900 2.370700
6.857400 2.433900
6.878900 2.572700
6.900400 2.692500
6.921800 2.781500
6.943300 2.823800
6.964800 2.805200
6.986300 2.847900
7.007700 2.998800
7.029200 3.043800
7.050700 3.070700
7.072200 3.100200
7.093600 3.248200
7.115100 3.231000
7.136600 3.127100
7.158100 3.114900
7.179500 3.091600
7.201000 2.932500
7.222500 2.831200
7.243900 2.776700
7.265400 2.694000
7.286900 2.610600
7.308400 2.544000
7.329800 2.733900
7.351300 2.631900
7.372800 2.444800
7.394300 2.352600
7.415700 2.293800
7.437200 2.249900
7.458700 2.216300
7.480200 2.151700
7.501600 2.118800
7.523100 2.087300
7.544600 2.066100
7.566100 1.933600
7.587500 1.883800
7.609000 1.854400
7.630500 1.847600
7.652000 1.819400
7.673400 1.805300
7.694900 1.790000
7.716400 1.776600
7.737900 1.757300
7.759300 1.746600
7.780800 1.742600
7.802300 1.745000
7.823800 1.740700
7.845200 1.734200
7.866700 1.766300
7.888200 1.841400
7.909700 2.022000
7.931100 2.175500
7.952600 2.322300
7.974100 2.347500
7.995600 2.508300
8.017000 2.661000
8.038500 2.651300
8.060000 2.800500
8.081500 2.534900
8.102900 2.353700
8.124400 2.284100
8.145900 2.221800
8.167400 2.161900
8.188800 2.118200
8.210300 2.047700
8.231800 1.988000
8.253300 1.979800
8.274700 1.981900
8.296200 2.072000
8.317700 2.161500
8.339200 2.179900
8.360600 2.152000
8.382100 2.094300
8.403600 2.047100
8.425100 2.014700
8.446500 1.995900
8.468000 1.997300
8.489500 1.985900
8.510900 2.055300
8.532400 2.012400
8.553900 2.064100
8.575400 2.074400
8.596800 2.093500
8.618300 2.158700
8.639800 2.188900
8.661300 2.211200
8.682700 2.240800
8.704200 2.295800
8.725700 2.330800
8.747200 2.370100
8.768600 2.360200
8.790100 2.237900
8.811600 2.170700
8.833100 2.087400
8.854500 2.006300
8.876000 1.921300
8.897500 1.877600
8.919000 1.913700
8.940400 1.921900
8.961900 1.887000
8.983400 1.918900
9.004900 1.900800
9.026300 1.888900
9.047800 1.850800
9.069300 1.823000
9.090800 1.825700
9.112200 1.827000
9.133700 1.822500
9.155200 1.828200
9.176700 1.820000
9.198100 1.845500
9.219600 1.875200
9.241100 1.893100
9.262600 1.986500
9.284000 2.036000
9.305500 2.110400
9.327000 2.210900
9.348500 2.352200
9.369900 2.385300
9.391400 2.403400
9.412900 2.448100
9.434400 2.492300
9.455800 2.490600
9.477300 2.431200
9.498800 2.402800
9.520300 2.381000
9.541700 2.371700
9.563200 2.385000
9.584700 2.447000
9.606200 2.509400
9.627600 2.548700
9.649100 2.543200
9.670600 2.573900
9.692100 2.805600
9.713500 2.769100
9.735000 2.753100
9.756500 2.721800
9.777900 2.648500
9.799400 2.543500
9.820900 2.453300
9.842400 2.392500
9.863800 2.304900
9.885300 2.254700
9.906800 2.245100
9.928300 2.256500
9.949700 2.256800
9.971200 2.229500
9.992700 2.190500
10.014200 2.212100
10.035600 2.256300
10.057100 2.381800
10.078600 2.474700
10.100100 2.520200
10.121500 2.553700
10.143000 2.554600
10.164500 2.603200
10.186000 2.559000
10.207400 2.522500
10.228900 2.517500
10.250400 2.517700
10.271900 2.547000
10.293300 2.649900
10.314800 2.700600
10.336300 2.708000
10.357800 2.722600
10.379200 2.739900
10.400700 2.727400
10.422200 2.691300
10.443700 2.696500
10.465100 2.723000
10.486600 2.753100
10.508100 2.814600
10.529600 2.860500
10.551000 2.908600
10.572500 3.014600
10.594000 3.056500
10.615500 3.025800
10.636900 3.090900
10.658400 3.039500
10.679900 2.939100
10.701400 2.993900
10.722800 3.074900
10.744300 3.002100
10.765800 2.881200
10.787300 2.838200
10.808700 2.811700
10.830200 2.749800
10.851700 2.682800
10.873200 2.646000
10.894600 2.592700
10.916100 2.471600
10.937600 2.407800
10.959100 2.387000
10.980500 2.368800
11.002000 2.361900
11.023500 2.363500
11.045000 2.371100
11.066400 2.379300
11.087900 2.400000
11.109400 2.393800
11.130800 2.418500
11.152300 2.432200
11.173800 2.411200
11.195300 2.364400
11.216700 2.327500
11.238200 2.390000
11.259700 2.474900
11.281200 2.568300
11.302600 2.695500
11.324100 2.843300
11.345600 2.966800
11.367100 3.066600
11.388500 3.185100
11.410000 3.266200
11.431500 3.312200
11.453000 3.397700
11.474400 3.438800
11.495900 3.433900
11.517400 3.403700
11.538900 3.311700
11.560300 3.242700
11.581800 3.191300
11.603300 3.338500
11.624800 3.173100
11.646200 3.134800
11.667700 3.105800
11.689200 3.028000
11.710700 2.864700
11.732100 2.750300
11.753600 2.669700
11.775100 2.597200
11.796600 2.555600
11.818000 2.543000
11.839500 2.576300
11.861000 2.670200
11.882500 2.696100
11.903900 2.742100
11.925400 2.764400
11.946900 2.690000
11.968400 2.595600
11.989800 2.500900
12.011300 2.485100
12.032800 2.471900
12.054300 2.461000
12.075700 2.449900
12.097200 2.447100
12.118700 2.767300
12.140200 2.546800
12.161600 2.501700
12.183100 2.464200
12.204600 2.443000
12.226100 2.417900
12.247500 2.428900
12.269000 2.430200
12.290500 2.435000
12.312000 2.441600
12.333400 2.448900
12.354900 2.486400
12.376400 2.497500
12.397800 2.511800
12.419300 2.526000
12.440800 2.545200
12.462300 2.580300
12.483700 2.682900
12.505200 2.698800
12.526700 2.768700
12.548200 2.853100
12.569600 2.890300
12.591100 2.858000
12.612600 2.885700
12.634100 2.894500
12.655500 2.928400
12.677000 2.968500
12.698500 2.969100
12.720000 2.961000
12.741400 2.950200
12.762900 2.927100
12.784400 2.880400
12.805900 2.855100
12.827300 2.809800
12.848800 2.815600
12.870300 2.614500
12.891800 2.526000
12.913200 2.469600
12.934700 2.441300
12.956200 2.426900
12.977700 2.368300
12.999100 2.233900
13.020600 2.198300
13.042100 2.176800
13.063600 2.169600
13.085000 2.167800
13.106500 2.141400
13.128000 2.107600
13.149500 2.090200
13.170900 2.088100
13.192400 2.078400
13.213900 2.075000
13.235400 2.208300
13.256800 2.180900
13.278300 2.200700
13.299800 2.258900
13.321300 2.356000
13.342700 2.599700
13.364200 2.701000
13.385700 2.798000
13.407200 2.965400
13.428600 3.147200
13.450100 3.338800
13.471600 3.437800
13.493100 3.725800
13.514500 3.804200
13.536000 3.720100
13.557500 3.602200
13.579000 3.416200
13.600400 3.364200
13.621900 3.428700
13.643400 3.317300
13.664800 3.086000
13.686300 2.893100
13.707800 2.750000
13.729300 2.682700
13.750700 2.626700
13.772200 2.556300
13.793700 2.693200
13.815200 2.319300
13.836600 2.288000
13.858100 2.254900
13.879600 2.271500
13.901100 2.265500
13.922500 2.257500
13.944000 2.264300
13.965500 2.247600
13.987000 2.266000
14.008400 2.342000
14.029900 2.473700
14.051400 2.543700
14.072900 2.404600
14.094300 2.412900
14.115800 2.526300
14.137300 2.664500
14.158800 2.800900
14.180200 2.927900
14.201700 3.023000
14.223200 3.089800
14.244700 3.103000
14.266100 3.085600
14.287600 3.038200
14.309100 2.984600
14.330600 2.939100
14.352000 2.907600
14.373500 2.880000
14.395000 2.895800
14.416500 2.903500
14.437900 2.899700
14.459400 2.882000
14.480900 2.851100
14.502400 2.825700
14.523800 2.805900
14.545300 2.767200
14.566800 2.699100
14.588300 2.735200
14.609700 2.893400
14.631200 2.494000
14.652700 2.412500
14.674200 2.334000
14.695600 2.396700
14.717100 2.359400
14.738600 2.421700
14.760100 2.545700
14.781500 2.675900
14.803000 2.776000
14.824500 2.776200
14.846000 2.842400
14.867400 2.909600
14.888900 3.011100
14.910400 3.104600
14.931900 3.198600
14.953300 3.286000
14.974800 3.368600
14.996300 3.461600
15.017700 3.641200
15.039200 3.749600
15.060700 3.800600
15.082200 3.804400
15.103600 3.692700
15.125100 3.577700
15.146600 3.460700
15.168100 3.338300
15.189500 3.089600
15.211000 2.981000
15.232500 2.897300
15.254000 2.831300
15.275400 2.750100
15.296900 2.716900
15.318400 2.687400
15.339900 2.659700
15.361300 2.634300
15.382800 2.602500
15.404300 2.577800
15.425800 2.547800
15.447200 2.492700
15.468700 2.404100
15.490200 2.336300
15.511700 2.279300
15.533100 2.239800
15.554600 2.167100
15.576100 2.091800
15.597600 2.031600
15.619000 1.998300
15.640500 1.966800
15.662000 1.932200
15.683500 1.911000
15.704900 1.894300
15.726400 1.858400
15.747900 1.789700
15.769400 1.668600
15.790800 1.555600
15.812300 1.479800
15.833800 1.446400
15.855300 1.429000
15.876700 1.412800
15.898200 1.383400
15.919700 1.349100
15.941200 1.314000
15.962600 1.283600
15.984100 1.253700
16.005600 1.224500
16.027100 1.187100
16.048500 1.206700
16.070000 1.171900
16.091500 1.130900
16.113000 1.079200
16.134400 1.017100
16.155900 0.943600
16.177400 0.866600
16.198900 0.745500
16.220300 0.707000
16.241800 0.673000
16.263300 0.647000
16.284700 0.629000
16.306200 0.617600
16.327700 0.598300
16.349200 0.544000
16.370600 0.380800
16.392100 0.328200
16.413600 0.325400
16.435100 0.276600
16.456500 0.222200
16.478000 0.181800
16.499500 0.044000
16.521000 0.037900
16.542400 0.032400
16.563900 0.027200
16.585400 0.022500
16.606900 0.018300
16.628300 0.014500
16.649800 0.011100
16.671300 0.008200
16.692800 0.005700
16.714200 0.003700
16.735700 0.002100
16.757200 0.001000
16.778700 0.000300
16.800100 0.000000
16.821600 0.000000
16.843100 0.000000
16.864600 0.000000
16.886000 0.000000
16.907500 0.000000
16.929000 0.000000
16.950500 0.000000
16.971900 0.000000
16.993400 0.000000
17.014900 0.000000
17.036400 0.000000
17.057800 0.000000
17.079300 0.000000
17.100800 0.000000
17.122300 0.000000
17.143700 0.000000
17.165200 0.000000
17.186700 0.000000
17.208200 0.000000
17.229600 0.000000
17.251100 0.000000
17.272600 0.000000
17.294100 0.000000
17.315500 0.000000
17.337000 0.000000
17.358500 0.000000
17.380000 0.000000
17.401400 0.000000
17.422900 0.000000
17.444400 0.000000
17.465900 0.000000
17.487300 0.000000
17.508800 0.000000
17.530300 0.000000
17.551800 0.000000
17.573200 0.000000
17.594700 0.000000
17.616200 0.000000
17.637600 0.000000
17.659100 0.000000
17.680600 0.000000
17.702100 0.000000
17.723500 0.000000
17.745000 0.000000
17.766500 0.000000
17.788000 0.000000
17.809400 0.000000
17.830900 0.000000
17.852400 0.000000
17.873900 0.000000
17.895300 0.000000
17.916800 0.000000
17.938300 0.000000
17.959800 0.000000
17.981200 0.000000
18.002700 0.000000
18.024200 0.000000
18.045700 0.000000
18.067100 0.000000
18.088600 0.000000
18.110100 0.000000
18.131600 0.000000
18.153000 0.000000
18.174500 0.000000
18.196000 0.000000
18.217500 0.000000
18.238900 0.000000
18.260400 0.000000
18.281900 0.000000
18.303400 0.000000
18.324800 0.000000
18.346300 0.000000
18.367800 0.000000
18.389300 0.000000
18.410700 0.000000
18.432200 0.000000
18.453700 0.000000
18.475200 0.000000
18.496600 0.000000
18.518100 0.000000
18.539600 0.000000
18.561100 0.000000
18.582500 0.000000
18.604000 0.000000
18.625500 0.000000
18.647000 0.000000
18.668400 0.000000
18.689900 0.000000
18.711400 0.000000
18.732900 0.000000
18.754300 0.000000
e
