set title 'mp-1186444 - Density of States'
set xlabel 'Energy (eV)'
set ylabel 'DOS (states/eV)'
set grid
set xrange [-10:10]
set yrange [0:5.270]
set xzeroaxis lt -1
set terminal png size 800,600
set output 'mp-1186444_dos_gnuplot.png'
plot '-' using 1:2 with lines title 'DOS'
-12.406500 0.000000
-12.385200 0.000000
-12.363900 0.000000
-12.342500 0.000000
-12.321200 0.000000
-12.299900 0.000000
-12.278500 0.000000
-12.257200 0.000000
-12.235900 0.000000
-12.214500 0.000000
-12.193200 0.000000
-12.171900 0.000000
-12.150500 0.000000
-12.129200 0.000000
-12.107900 0.000000
-12.086500 0.000000
-12.065200 0.000000
-12.043900 0.000000
-12.022500 0.000000
-12.001200 0.000000
-11.979900 0.000000
-11.958500 0.000000
-11.937200 0.000000
-11.915900 0.000000
-11.894600 0.000000
-11.873200 0.000000
-11.851900 0.000000
-11.830600 0.000000
-11.809200 0.000000
-11.787900 0.000000
-11.766600 0.000000
-11.745200 0.000000
-11.723900 0.000000
-11.702600 0.000000
-11.681200 0.000000
-11.659900 0.000000
-11.638600 0.000000
-11.617200 0.000000
-11.595900 0.000000
-11.574600 0.000000
-11.553200 0.000000
-11.531900 0.000000
-11.510600 0.000000
-11.489300 0.000000
-11.467900 0.000000
-11.446600 0.000000
-11.425300 0.000000
-11.403900 0.000000
-11.382600 0.000000
-11.361300 0.000000
-11.339900 0.000000
-11.318600 0.000000
-11.297300 0.000000
-11.275900 0.000000
-11.254600 0.000000
-11.233300 0.000000
-11.211900 0.000000
-11.190600 0.000000
-11.169300 0.000000
-11.147900 0.000000
-11.126600 0.000000
-11.105300 0.000000
-11.083900 0.000000
-11.062600 0.000000
-11.041300 0.000000
-11.020000 0.000000
-10.998600 0.000000
-10.977300 0.000000
-10.956000 0.000000
-10.934600 0.000000
-10.913300 0.000000
-10.892000 0.000000
-10.870600 0.000000
-10.849300 0.000000
-10.828000 0.000000
-10.806600 0.000000
-10.785300 0.000000
-10.764000 0.000000
-10.742600 0.000000
-10.721300 0.000000
-10.700000 0.000000
-10.678600 0.000000
-10.657300 0.000000
-10.636000 0.000000
-10.614700 0.000000
-10.593300 0.000000
-10.572000 0.000000
-10.550700 0.000000
-10.529300 0.000000
-10.508000 0.000000
-10.486700 0.000000
-10.465300 0.452900
-10.444000 15.768000
-10.422700 32.925600
-10.401300 50.452900
-10.380000 78.714500
-10.358700 176.158400
-10.337300 162.933600
-10.316000 170.089700
-10.294700 171.553800
-10.273300 85.070400
-10.252000 93.415200
-10.230700 81.267700
-10.209400 123.487800
-10.188000 123.024600
-10.166700 133.344800
-10.145400 121.738400
-10.124000 140.509200
-10.102700 105.075100
-10.081400 0.000000
-10.060000 0.000000
-10.038700 0.000000
-10.017400 0.000000
-9.996000 0.000000
-9.974700 0.000000
-9.953400 0.000000
-9.932000 0.000000
-9.910700 0.000000
-9.889400 0.000000
-9.868000 0.000000
-9.846700 0.000000
-9.825400 0.000000
-9.804000 0.000000
-9.782700 0.000000
-9.761400 0.000000
-9.740100 0.000000
-9.718700 0.000000
-9.697400 0.000000
-9.676100 0.000000
-9.654700 0.000000
-9.633400 0.000000
-9.612100 0.000000
-9.590700 0.000000
-9.569400 0.000000
-9.548100 0.000000
-9.526700 0.000000
-9.505400 0.000000
-9.484100 0.000000
-9.462700 0.000000
-9.441400 0.000000
-9.420100 0.000000
-9.398700 0.000000
-9.377400 0.000000
-9.356100 0.000000
-9.334800 0.000000
-9.313400 0.000000
-9.292100 0.000000
-9.270800 0.000000
-9.249400 0.000000
-9.228100 0.000000
-9.206800 0.000000
-9.185400 0.000000
-9.164100 0.000000
-9.142800 0.000000
-9.121400 0.000000
-9.100100 0.000000
-9.078800 0.000000
-9.057400 0.000000
-9.036100 0.000000
-9.014800 0.000000
-8.993400 0.000000
-8.972100 0.000000
-8.950800 0.000000
-8.929400 0.000000
-8.908100 0.000000
-8.886800 0.000000
-8.865500 0.000000
-8.844100 0.000000
-8.822800 0.000000
-8.801500 0.000000
-8.780100 0.000000
-8.758800 0.000000
-8.737500 0.000000
-8.716100 0.000000
-8.694800 0.000000
-8.673500 0.000000
-8.652100 0.000000
-8.630800 0.000000
-8.609500 0.000000
-8.588100 0.000000
-8.566800 0.000000
-8.545500 0.000000
-8.524100 0.000000
-8.502800 0.000000
-8.481500 0.000000
-8.460200 0.000000
-8.438800 0.000000
-8.417500 0.000000
-8.396200 0.000000
-8.374800 0.000000
-8.353500 0.000000
-8.332200 0.000000
-8.310800 0.000000
-8.289500 0.000000
-8.268200 0.000000
-8.246800 0.000000
-8.225500 0.000000
-8.204200 0.000000
-8.182800 0.000000
-8.161500 0.000000
-8.140200 0.000000
-8.118800 0.000000
-8.097500 0.000000
-8.076200 0.000000
-8.054900 0.000000
-8.033500 0.000000
-8.012200 0.000000
-7.990900 0.000000
-7.969500 0.000000
-7.948200 0.000000
-7.926900 0.000000
-7.905500 0.000000
-7.884200 0.000000
-7.862900 0.000000
-7.841500 0.000000
-7.820200 0.000000
-7.798900 0.000000
-7.777500 0.000000
-7.756200 0.000000
-7.734900 0.000000
-7.713500 0.000000
-7.692200 0.000000
-7.670900 0.000000
-7.649500 0.000000
-7.628200 0.000000
-7.606900 0.000000
-7.585600 0.000000
-7.564200 0.000000
-7.542900 0.000000
-7.521600 0.000000
-7.500200 0.000000
-7.478900 0.000000
-7.457600 0.000000
-7.436200 0.000000
-7.414900 0.000000
-7.393600 0.000000
-7.372200 0.000000
-7.350900 0.000000
-7.329600 0.000000
-7.308200 0.000000
-7.286900 0.000000
-7.265600 0.000000
-7.244200 0.000000
-7.222900 0.000000
-7.201600 0.000000
-7.180300 0.000000
-7.158900 0.000000
-7.137600 0.000000
-7.116300 0.000000
-7.094900 0.000000
-7.073600 0.000000
-7.052300 0.000000
-7.030900 0.000000
-7.009600 0.000000
-6.988300 0.000000
-6.966900 0.000000
-6.945600 0.000000
-6.924300 0.000000
-6.902900 0.000000
-6.881600 0.000000
-6.860300 0.000000
-6.838900 0.000000
-6.817600 0.000000
-6.796300 0.000000
-6.774900 0.000000
-6.753600 0.000000
-6.732300 0.000000
-6.711000 0.000000
-6.689600 0.000000
-6.668300 0.000000
-6.647000 0.000000
-6.625600 0.000000
-6.604300 0.000000
-6.583000 0.000000
-6.561600 0.000000
-6.540300 0.000000
-6.519000 0.000000
-6.497600 0.000000
-6.476300 0.000000
-6.455000 0.000000
-6.433600 0.000000
-6.412300 0.000000
-6.391000 0.000000
-6.369600 0.000000
-6.348300 0.000000
-6.327000 0.000000
-6.305700 0.000000
-6.284300 0.000000
-6.263000 0.000000
-6.241700 0.000000
-6.220300 0.000000
-6.199000 0.000000
-6.177700 0.000000
-6.156300 0.000000
-6.135000 0.000000
-6.113700 0.000000
-6.092300 0.000000
-6.071000 0.000000
-6.049700 0.000000
-6.028300 0.000000
-6.007000 0.000000
-5.985700 0.000000
-5.964300 0.000000
-5.943000 0.000000
-5.921700 0.000000
-5.900400 0.000000
-5.879000 0.000000
-5.857700 0.000000
-5.836400 0.000000
-5.815000 0.000000
-5.793700 0.000000
-5.772400 0.000000
-5.751000 0.000000
-5.729700 0.000000
-5.708400 0.000000
-5.687000 0.000000
-5.665700 0.000000
-5.644400 0.000000
-5.623000 0.000000
-5.601700 0.000000
-5.580400 0.000000
-5.559000 0.000000
-5.537700 0.000000
-5.516400 0.000000
-5.495000 0.000000
-5.473700 0.000000
-5.452400 0.000000
-5.431100 0.000000
-5.409700 0.000000
-5.388400 0.000000
-5.367100 0.000000
-5.345700 0.000000
-5.324400 0.000000
-5.303100 0.000000
-5.281700 0.000000
-5.260400 0.000000
-5.239100 0.000000
-5.217700 0.000000
-5.196400 0.000000
-5.175100 0.000000
-5.153700 0.000000
-5.132400 0.000000
-5.111100 0.000000
-5.089700 0.000000
-5.068400 0.000000
-5.047100 0.000000
-5.025800 0.000000
-5.004400 0.000000
-4.983100 0.000000
-4.961800 0.000000
-4.940400 0.000000
-4.919100 0.000000
-4.897800 0.000000
-4.876400 0.000000
-4.855100 0.000000
-4.833800 0.000000
-4.812400 0.000000
-4.791100 0.000000
-4.769800 0.000000
-4.748400 0.000000
-4.727100 0.000000
-4.705800 0.000000
-4.684400 0.000000
-4.663100 0.000000
-4.641800 0.000000
-4.620400 0.003000
-4.599100 0.030100
-4.577800 0.085600
-4.556500 0.169300
-4.535100 0.234100
-4.513800 0.261600
-4.492500 0.272600
-4.471100 0.275300
-4.449800 0.302200
-4.428500 0.329900
-4.407100 0.358300
-4.385800 0.387600
-4.364500 0.415900
-4.343100 0.439700
-4.321800 0.457200
-4.300500 0.466900
-4.279100 0.473000
-4.257800 0.479100
-4.236500 0.492700
-4.215100 0.508400
-4.193800 0.524200
-4.172500 0.539900
-4.151200 0.555700
-4.129800 0.571400
-4.108500 0.587100
-4.087200 0.602800
-4.065800 0.619100
-4.044500 0.634000
-4.023200 0.645500
-4.001800 0.656600
-3.980500 0.667100
-3.959200 0.679400
-3.937800 0.690100
-3.916500 0.699000
-3.895200 0.707500
-3.873800 0.717400
-3.852500 0.727600
-3.831200 0.738100
-3.809800 0.748800
-3.788500 0.759600
-3.767200 0.770300
-3.745900 0.781800
-3.724500 0.793500
-3.703200 0.805400
-3.681900 0.817700
-3.660500 0.830300
-3.639200 0.843100
-3.617900 0.855100
-3.596500 0.865800
-3.575200 0.875100
-3.553900 0.883600
-3.532500 0.892600
-3.511200 0.902300
-3.489900 0.912200
-3.468500 0.919300
-3.447200 0.925300
-3.425900 0.930300
-3.404500 0.941000
-3.383200 0.950900
-3.361900 0.959800
-3.340500 0.968700
-3.319200 0.977800
-3.297900 0.987000
-3.276600 0.996600
-3.255200 1.006300
-3.233900 1.016600
-3.212600 1.027200
-3.191200 1.037900
-3.169900 1.048700
-3.148600 1.059400
-3.127200 1.070000
-3.105900 1.080600
-3.084600 1.091300
-3.063200 1.100400
-3.041900 1.109300
-3.020600 1.117800
-2.999200 1.126900
-2.977900 1.136400
-2.956600 1.146000
-2.935200 1.155900
-2.913900 1.166100
-2.892600 1.176200
-2.871300 1.186500
-2.849900 1.196700
-2.828600 1.206600
-2.807300 1.216000
-2.785900 1.225800
-2.764600 1.235900
-2.743300 1.246000
-2.721900 1.256200
-2.700600 1.266400
-2.679300 1.276600
-2.657900 1.286900
-2.636600 1.297200
-2.615300 1.307600
-2.593900 1.318100
-2.572600 1.328700
-2.551300 1.339600
-2.529900 1.350600
-2.508600 1.362100
-2.487300 1.373900
-2.465900 1.386000
-2.444600 1.397800
-2.423300 1.409400
-2.402000 1.421000
-2.380600 1.432700
-2.359300 1.444700
-2.338000 1.457000
-2.316600 1.469500
-2.295300 1.482200
-2.274000 1.495000
-2.252600 1.507900
-2.231300 1.520900
-2.210000 1.534000
-2.188600 1.547300
-2.167300 1.560900
-2.146000 1.575100
-2.124600 1.590000
-2.103300 1.605200
-2.082000 1.620400
-2.060600 1.635900
-2.039300 1.651500
-2.018000 1.667600
-1.996700 1.684500
-1.975300 1.701900
-1.954000 1.719600
-1.932700 1.737600
-1.911300 1.756000
-1.890000 1.774600
-1.868700 1.793500
-1.847300 1.812900
-1.826000 1.833100
-1.804700 1.854300
-1.783300 1.876100
-1.762000 1.899100
-1.740700 1.923800
-1.719300 1.949800
-1.698000 1.976500
-1.676700 2.003900
-1.655300 2.032300
-1.634000 2.063100
-1.612700 2.096700
-1.591400 2.132700
-1.570000 2.170300
-1.548700 2.209600
-1.527400 2.252500
-1.506000 2.302500
-1.484700 2.383500
-1.463400 2.580300
-1.442000 2.734100
-1.420700 2.765800
-1.399400 2.766700
-1.378000 2.750200
-1.356700 2.731900
-1.335400 2.741200
-1.314000 2.766800
-1.292700 2.780600
-1.271400 2.777200
-1.250000 2.780400
-1.228700 2.785700
-1.207400 2.784000
-1.186000 2.769000
-1.164700 2.780300
-1.143400 2.844800
-1.122100 2.938200
-1.100700 2.975600
-1.079400 2.934100
-1.058100 2.898400
-1.036700 2.881400
-1.015400 2.858100
-0.994100 2.826600
-0.972700 2.787200
-0.951400 2.741800
-0.930100 2.688800
-0.908700 2.606000
-0.887400 2.609200
-0.866100 2.557900
-0.844700 2.521900
-0.823400 2.503000
-0.802100 2.508300
-0.780700 2.528400
-0.759400 2.541700
-0.738100 2.636700
-0.716800 2.710400
-0.695400 2.739600
-0.674100 2.756500
-0.652800 2.762600
-0.631400 2.904700
-0.610100 2.749400
-0.588800 2.717600
-0.567400 2.678900
-0.546100 2.685700
-0.524800 2.699200
-0.503400 2.733700
-0.482100 2.770500
-0.460800 2.767800
-0.439400 2.553500
-0.418100 2.609400
-0.396800 2.662500
-0.375400 2.716800
-0.354100 2.784100
-0.332800 2.921300
-0.311400 3.075400
-0.290100 3.752300
-0.268800 3.397000
-0.247500 3.343400
-0.226100 3.558500
-0.204800 3.672900
-0.183500 3.677500
-0.162100 3.761300
-0.140800 3.976400
-0.119500 4.394000
-0.098100 4.759200
-0.076800 4.791200
-0.055500 4.078000
-0.034100 3.207800
-0.012800 2.485600
0.008500 1.897100
0.029900 1.200800
0.051200 0.696800
0.072500 0.313800
0.093900 0.051900
0.115200 0.000000
0.136500 0.000000
0.157800 0.000000
0.179200 0.000000
0.200500 0.000000
0.221800 0.000000
0.243200 0.000000
0.264500 0.000000
0.285800 0.000000
0.307200 0.000000
0.328500 0.000000
0.349800 0.000000
0.371200 0.000000
0.392500 0.000000
0.413800 0.000000
0.435200 0.000000
0.456500 0.000000
0.477800 0.000000
0.499200 0.000000
0.520500 0.000000
0.541800 0.000000
0.563100 0.000000
0.584500 0.000000
0.605800 0.000000
0.627100 0.000000
0.648500 0.000000
0.669800 0.000000
0.691100 0.000000
0.712500 0.000000
0.733800 0.000000
0.755100 0.000000
0.776500 0.000000
0.797800 0.000000
0.819100 0.000000
0.840500 0.000000
0.861800 0.000000
0.883100 0.000000
0.904500 0.000000
0.925800 0.000000
0.947100 0.000000
0.968500 0.000000
0.989800 0.000000
1.011100 0.000000
1.032400 0.000000
1.053800 0.000000
1.075100 0.000000
1.096400 0.000000
1.117800 0.000000
1.139100 0.000000
1.160400 0.000000
1.181800 0.000000
1.203100 0.000000
1.224400 0.000000
1.245800 0.000000
1.267100 0.000000
1.288400 0.000000
1.309800 0.000000
1.331100 0.000000
1.352400 0.000000
1.373800 0.000000
1.395100 0.000000
1.416400 0.000000
1.437700 0.000000
1.459100 0.000000
1.480400 0.000000
1.501700 0.000000
1.523100 0.000000
1.544400 0.000000
1.565700 0.000000
1.587100 0.000000
1.608400 0.000000
1.629700 0.000000
1.651100 0.000000
1.672400 0.000000
1.693700 0.000000
1.715100 0.000000
1.736400 0.000000
1.757700 0.000000
1.779100 0.000000
1.800400 0.000000
1.821700 0.000000
1.843100 0.000000
1.864400 0.000000
1.885700 0.000000
1.907000 0.000000
1.928400 0.000000
1.949700 0.000000
1.971000 0.000000
1.992400 0.000000
2.013700 0.000000
2.035000 0.000000
2.056400 0.000000
2.077700 0.000000
2.099000 0.000000
2.120400 0.000000
2.141700 0.000000
2.163000 0.000000
2.184400 0.000000
2.205700 0.000000
2.227000 0.000000
2.248400 0.000000
2.269700 0.000000
2.291000 0.000000
2.312300 0.000000
2.333700 0.000000
2.355000 0.000000
2.376300 0.000000
2.397700 0.000000
2.419000 0.000000
2.440300 0.000000
2.461700 0.000000
2.483000 0.000000
2.504300 0.000000
2.525700 0.000000
2.547000 0.000000
2.568300 0.000000
2.589700 0.000000
2.611000 0.000000
2.632300 0.000000
2.653700 0.000000
2.675000 0.000000
2.696300 0.000000
2.717600 0.000000
2.739000 0.000000
2.760300 0.000000
2.781600 0.000000
2.803000 0.000000
2.824300 0.001200
2.845600 0.005600
2.867000 0.013400
2.888300 0.024400
2.909600 0.036400
2.931000 0.044300
2.952300 0.052700
2.973600 0.065800
2.995000 0.086000
3.016300 0.113300
3.037600 0.147600
3.059000 0.189000
3.080300 0.237500
3.101600 0.294300
3.123000 0.373100
3.144300 0.464000
3.165600 0.537100
3.186900 0.591500
3.208300 0.627200
3.229600 0.639000
3.250900 0.657600
3.272300 0.684800
3.293600 0.715600
3.314900 0.749900
3.336300 0.787700
3.357600 0.832400
3.378900 0.895900
3.400300 0.966300
3.421600 1.059800
3.442900 1.206800
3.464300 1.364100
3.485600 1.488200
3.506900 1.578900
3.528300 1.640300
3.549600 1.681000
3.570900 1.707200
3.592200 1.739100
3.613600 1.735800
3.634900 1.709600
3.656200 1.687700
3.677600 1.677100
3.698900 1.686000
3.720200 1.701200
3.741600 1.718000
3.762900 1.736200
3.784200 1.755800
3.805600 1.775500
3.826900 1.796800
3.848200 1.819600
3.869600 1.844600
3.890900 1.872500
3.912200 1.902500
3.933600 1.933300
3.954900 1.962300
3.976200 1.986600
3.997600 2.008700
4.018900 2.040600
4.040200 2.098400
4.061500 2.150000
4.082900 2.184300
4.104200 2.372300
4.125500 2.470900
4.146900 2.473000
4.168200 2.496700
4.189500 2.681300
4.210900 2.804500
4.232200 2.827600
4.253500 2.830400
4.274900 2.960300
4.296200 3.097400
4.317500 3.129100
4.338900 3.120000
4.360200 3.104800
4.381500 3.147100
4.402900 2.788000
4.424200 2.807100
4.445500 2.865900
4.466800 2.937400
4.488200 3.019300
4.509500 3.110400
4.530800 3.140600
4.552200 3.088400
4.573500 3.082600
4.594800 3.033600
4.616200 2.975100
4.637500 2.946300
4.658800 2.998600
4.680200 3.109900
4.701500 3.256000
4.722800 3.437000
4.744200 3.937000
4.765500 3.882400
4.786800 3.834300
4.808200 3.767600
4.829500 3.632300
4.850800 3.461500
4.872100 3.277700
4.893500 3.089700
4.914800 2.952400
4.936100 2.853100
4.957500 2.819000
4.978800 2.795600
5.000100 2.899000
5.021500 2.959000
5.042800 2.669700
5.064100 2.616200
5.085500 2.570200
5.106800 2.523100
5.128100 2.462000
5.149500 2.432200
5.170800 2.404300
5.192100 2.378300
5.213500 2.355600
5.234800 2.326200
5.256100 2.269600
5.277500 2.193900
5.298800 2.190500
5.320100 2.168900
5.341400 2.134200
5.362800 2.100600
5.384100 2.076500
5.405400 2.054600
5.426800 2.035100
5.448100 1.978000
5.469400 1.847100
5.490800 1.805300
5.512100 1.773100
5.533400 1.746600
5.554800 1.725700
5.576100 1.710800
5.597400 1.700500
5.618800 1.693900
5.640100 1.700800
5.661400 1.732000
5.682800 2.227100
5.704100 1.883800
5.725400 1.886600
5.746700 1.885900
5.768100 1.883000
5.789400 1.877400
5.810700 1.869200
5.832100 1.861000
5.853400 1.853100
5.874700 1.846700
5.896100 1.846200
5.917400 1.847300
5.938700 1.849300
5.960100 1.852100
5.981400 1.855300
6.002700 1.858200
6.024100 1.861800
6.045400 1.866000
6.066700 1.870900
6.088100 1.876600
6.109400 1.883500
6.130700 1.884000
6.152100 1.875400
6.173400 1.885100
6.194700 1.905300
6.216000 1.936500
6.237400 2.003500
6.258700 2.157600
6.280000 2.275400
6.301400 2.345100
6.322700 2.368600
6.344000 2.346500
6.365400 2.305200
6.386700 2.256000
6.408000 2.215500
6.429400 2.414400
6.450700 2.264000
6.472000 2.253200
6.493400 2.245000
6.514700 2.237000
6.536000 2.229800
6.557400 2.222000
6.578700 2.215000
6.600000 2.219400
6.621300 2.223500
6.642700 2.224300
6.664000 2.225400
6.685300 2.227400
6.706700 2.236000
6.728000 2.244600
6.749300 2.252900
6.770700 2.244300
6.792000 2.248900
6.813300 2.253600
6.834700 2.255300
6.856000 2.257100
6.877300 2.258900
6.898700 2.260700
6.920000 2.262500
6.941300 2.264500
6.962700 2.267200
6.984000 2.273400
7.005300 2.283900
7.026700 2.297300
7.048000 2.251600
7.069300 2.253100
7.090600 2.270600
7.112000 2.292600
7.133300 2.353100
7.154600 2.405200
7.176000 2.451800
7.197300 2.485900
7.218600 2.481000
7.240000 2.427100
7.261300 2.418100
7.282600 2.418300
7.304000 2.421900
7.325300 2.426700
7.346600 2.430100
7.368000 2.434700
7.389300 2.440600
7.410600 2.447800
7.432000 2.455200
7.453300 2.460500
7.474600 2.461800
7.495900 2.459700
7.517300 2.448400
7.538600 2.432700
7.559900 2.423200
7.581300 2.418200
7.602600 2.439000
7.623900 2.458200
7.645300 2.484500
7.666600 2.445500
7.687900 2.445400
7.709300 2.463800
7.730600 2.484600
7.751900 2.509700
7.773300 2.539600
7.794600 2.559600
7.815900 2.576100
7.837300 2.593500
7.858600 2.667600
7.879900 2.663700
7.901200 2.673100
7.922600 2.689800
7.943900 2.704300
7.965200 2.713100
7.986600 2.704400
8.007900 2.675600
8.029200 2.625100
8.050600 2.554000
8.071900 2.521100
8.093200 2.510000
8.114600 2.494100
8.135900 2.476300
8.157200 2.467700
8.178600 2.463300
8.199900 2.463300
8.221200 2.468800
8.242600 2.477800
8.263900 2.570400
8.285200 2.553000
8.306600 2.530700
8.327900 2.509700
8.349200 2.526700
8.370500 2.512400
8.391900 2.502900
8.413200 2.498100
8.434500 2.503500
8.455900 2.539600
8.477200 2.609100
8.498500 2.674900
8.519900 2.709500
8.541200 2.730900
8.562500 2.753000
8.583900 2.776000
8.605200 2.798800
8.626500 2.821200
8.647900 2.845400
8.669200 2.869500
8.690500 2.892300
8.711900 2.916100
8.733200 2.940700
8.754500 2.954400
8.775800 2.954000
8.797200 2.954600
8.818500 2.961900
8.839800 2.991300
8.861200 3.017300
8.882500 3.110200
8.903800 3.164800
8.925200 3.196100
8.946500 3.218000
8.967800 3.235300
8.989200 3.248600
9.010500 3.254500
9.031800 3.242900
9.053200 3.213000
9.074500 3.165400
9.095800 3.152300
9.117200 3.163000
9.138500 3.175300
9.159800 3.186700
9.181200 3.172100
9.202500 3.157700
9.223800 3.141800
9.245100 3.123100
9.266500 3.102700
9.287800 3.109300
9.309100 3.083000
9.330500 3.082300
9.351800 3.077800
9.373100 3.061600
9.394500 3.033900
9.415800 2.947900
9.437100 2.903700
9.458500 2.865300
9.479800 2.831200
9.501100 2.815400
9.522500 2.859800
9.543800 2.872800
9.565100 2.936400
9.586500 3.227500
9.607800 3.465900
9.629100 3.308000
9.650400 3.049400
9.671800 2.878600
9.693100 2.795100
9.714400 2.751000
9.735800 2.713700
9.757100 2.680600
9.778400 2.649700
9.799800 2.620400
9.821100 2.596500
9.842400 2.584200
9.863800 2.570700
9.885100 2.555000
9.906400 2.540300
9.927800 2.527000
9.949100 2.515100
9.970400 2.504100
9.991800 2.494100
10.013100 2.485800
10.034400 2.481200
10.055700 2.480200
10.077100 2.469300
10.098400 2.479200
10.119700 2.493500
10.141100 2.515900
10.162400 2.557100
10.183700 2.614100
10.205100 2.679700
10.226400 2.751400
10.247700 2.826900
10.269100 2.936600
10.290400 3.191300
10.311700 3.427800
10.333100 3.599500
10.354400 3.631200
10.375700 3.602300
10.397100 3.509400
10.418400 3.322100
10.439700 3.266900
10.461100 3.229200
10.482400 3.195600
10.503700 3.168500
10.525000 3.141100
10.546400 3.114400
10.567700 3.086300
10.589000 3.070700
10.610400 3.063400
10.631700 3.070600
10.653000 3.079000
10.674400 3.089300
10.695700 3.102400
10.717000 3.118100
10.738400 3.136400
10.759700 3.205300
10.781000 3.338500
10.802400 3.482900
10.823700 3.578000
10.845000 3.627800
10.866400 3.691000
10.887700 3.777000
10.909000 3.851200
10.930300 3.907700
10.951700 3.949800
10.973000 3.915800
10.994300 3.725700
11.015700 3.636000
11.037000 3.570800
11.058300 3.507000
11.079700 3.497900
11.101000 3.461800
11.122300 3.337900
11.143700 3.161000
11.165000 3.034900
11.186300 2.961100
11.207700 2.911000
11.229000 2.866600
11.250300 2.821000
11.271700 2.775000
11.293000 2.729400
11.314300 2.685600
11.335700 2.641800
11.357000 2.600900
11.378300 2.562900
11.399600 2.525500
11.421000 2.486400
11.442300 2.444000
11.463600 2.410900
11.485000 2.377400
11.506300 2.346900
11.527600 2.322000
11.549000 2.299200
11.570300 2.279900
11.591600 2.261100
11.613000 2.241700
11.634300 2.222800
11.655600 2.205300
11.677000 2.184600
11.698300 2.161100
11.719600 2.138600
11.741000 2.136700
11.762300 2.123200
11.783600 2.093900
11.804900 2.065100
11.826300 2.037800
11.847600 2.009900
11.868900 1.981100
11.890300 1.950800
11.911600 1.919300
11.932900 1.890500
11.954300 1.859600
11.975600 1.827600
11.996900 1.798100
12.018300 1.770400
12.039600 1.744100
12.060900 1.718900
12.082300 1.709600
12.103600 1.692500
12.124900 1.653600
12.146300 1.614500
12.167600 1.576100
12.188900 1.537900
12.210200 1.498600
12.231600 1.453700
12.252900 1.414500
12.274200 1.383900
12.295600 1.357400
12.316900 1.332500
12.338200 1.309400
12.359600 1.287900
12.380900 1.269900
12.402200 1.255600
12.423600 1.243600
12.444900 1.234200
12.466200 1.227100
12.487600 1.222500
12.508900 1.216600
12.530200 1.206000
12.551600 1.192900
12.572900 1.179000
12.594200 1.162900
12.615600 1.160000
12.636900 1.161700
12.658200 1.163800
12.679500 1.157600
12.700900 1.154000
12.722200 1.155500
12.743500 1.157000
12.764900 1.157500
12.786200 1.157100
12.807500 1.157000
12.828900 1.162000
12.850200 1.169800
12.871500 1.180500
12.892900 1.222800
12.914200 1.259800
12.935500 1.311400
12.956900 1.380700
12.978200 1.466500
12.999500 1.539700
13.020900 1.607900
13.042200 1.642200
13.063500 1.652500
13.084800 1.674900
13.106200 1.709200
13.127500 1.761100
13.148800 1.841900
13.170200 1.919500
13.191500 1.970400
13.212800 2.012900
13.234200 2.122100
13.255500 2.260500
13.276800 2.408800
13.298200 2.463300
13.319500 2.497400
13.340800 2.527800
13.362200 2.554400
13.383500 2.577200
13.404800 2.598700
13.426200 2.627800
13.447500 2.639000
13.468800 2.638900
13.490200 2.634100
13.511500 2.627600
13.532800 2.631300
13.554100 2.637900
13.575500 2.648700
13.596800 2.667700
13.618100 2.687100
13.639500 2.704100
13.660800 2.718900
13.682100 2.753300
13.703500 2.794200
13.724800 2.812200
13.746100 2.767200
13.767500 2.682100
13.788800 2.575200
13.810100 2.485300
13.831500 2.438400
13.852800 2.373300
13.874100 2.342500
13.895500 2.334400
13.916800 2.342500
13.938100 2.353700
13.959400 2.363200
13.980800 2.372400
14.002100 2.382000
14.023400 2.392100
14.044800 2.403400
14.066100 2.421000
14.087400 2.446300
14.108800 2.478100
14.130100 2.515500
14.151400 2.558200
14.172800 2.605600
14.194100 2.982800
14.215400 2.862400
14.236800 2.691800
14.258100 2.541400
14.279400 2.509800
14.300800 2.480600
14.322100 2.448100
14.343400 2.395700
14.364700 2.333200
14.386100 2.290600
14.407400 2.271000
14.428700 2.259900
14.450100 2.256900
14.471400 2.263200
14.492700 2.290900
14.514100 2.325200
14.535400 2.375900
14.556700 2.442200
14.578100 2.493300
14.599400 2.554000
14.620700 2.626100
14.642100 2.709400
14.663400 2.803000
14.684700 2.997100
14.706100 3.125000
14.727400 3.011500
14.748700 2.938100
14.770100 2.931900
14.791400 3.163700
14.812700 3.196400
14.834000 3.153400
14.855400 3.132700
14.876700 3.136000
14.898000 3.124500
14.919400 3.115400
14.940700 3.104400
14.962000 3.086900
14.983400 3.062300
15.004700 3.044100
15.026000 3.038700
15.047400 3.045500
15.068700 3.061400
15.090000 3.083000
15.111400 3.105800
15.132700 3.129400
15.154000 3.153700
15.175400 3.180700
15.196700 3.216300
15.218000 3.257400
15.239300 3.309700
15.260700 3.359300
15.282000 3.437100
15.303300 3.561300
15.324700 3.738000
15.346000 3.958800
15.367300 4.286400
15.388700 4.029200
15.410000 4.101800
15.431300 4.111400
15.452700 4.077100
15.474000 4.011700
15.495300 3.925200
15.516700 3.967900
15.538000 4.026100
15.559300 4.065500
15.580700 4.117600
15.602000 4.167100
15.623300 4.158300
15.644700 4.115400
15.666000 3.957800
15.687300 3.698300
15.708600 3.630300
15.730000 3.602800
15.751300 3.628900
15.772600 3.363300
15.794000 3.317000
15.815300 3.455500
15.836600 3.859300
15.858000 3.547900
15.879300 3.249700
15.900600 3.187900
15.922000 3.199400
15.943300 3.210500
15.964600 3.377300
15.986000 3.649900
16.007300 3.684800
16.028600 3.544400
16.050000 3.271400
16.071300 3.111500
16.092600 2.874400
16.113900 2.818400
16.135300 2.791000
16.156600 2.773500
16.177900 2.764600
16.199300 2.759500
16.220600 2.757800
16.241900 2.759500
16.263300 2.795300
16.284600 2.929400
16.305900 2.934700
16.327300 3.076100
16.348600 3.172800
16.369900 3.075600
16.391300 2.970700
16.412600 2.930900
16.433900 2.903600
16.455300 2.881100
16.476600 2.864600
16.497900 2.863000
16.519200 2.880500
16.540600 2.913200
16.561900 2.959700
16.583200 2.901500
16.604600 2.879100
16.625900 2.842300
16.647200 2.809000
16.668600 2.780400
16.689900 2.759400
16.711200 2.745200
16.732600 2.736100
16.753900 2.735700
16.775200 2.739700
16.796600 2.753200
16.817900 2.804300
16.839200 2.898700
16.860600 3.140400
16.881900 3.209100
16.903200 3.239700
16.924600 3.134600
16.945900 2.926300
16.967200 2.788300
16.988500 2.698800
17.009900 2.651800
17.031200 2.626900
17.052500 2.658000
17.073900 2.851000
17.095200 3.092700
17.116500 2.692500
17.137900 2.264300
17.159200 2.312800
17.180500 2.408500
17.201900 2.500500
17.223200 2.558700
17.244500 2.476500
17.265900 2.370500
17.287200 2.343300
17.308500 2.315500
17.329900 2.240200
17.351200 2.181900
17.372500 2.131200
17.393800 2.107300
17.415200 2.095400
17.436500 2.099900
17.457800 2.126500
17.479200 2.164200
17.500500 2.215900
17.521800 2.305000
17.543200 2.443200
17.564500 2.673200
17.585800 3.422600
17.607200 3.822600
17.628500 3.598400
17.649800 3.527900
17.671200 3.586600
17.692500 3.642200
17.713800 3.706200
17.735200 3.778700
17.756500 3.860800
17.777800 3.975600
17.799200 4.298300
17.820500 4.360800
17.841800 4.292200
17.863100 4.164600
17.884500 4.069500
17.905800 4.160700
17.927100 4.283500
17.948500 4.114100
17.969800 3.980300
17.991100 3.842700
18.012500 3.722900
18.033800 3.638900
18.055100 3.206600
18.076500 3.433800
18.097800 3.652800
18.119100 3.487600
18.140500 3.301900
18.161800 3.336900
18.183100 3.370100
18.204500 3.410700
18.225800 3.410200
18.247100 3.397100
18.268400 3.378200
18.289800 3.353600
18.311100 3.332600
18.332400 3.302200
18.353800 3.256800
18.375100 3.168300
18.396400 3.040900
18.417800 2.968000
18.439100 2.922900
18.460400 2.890200
18.481800 2.993400
18.503100 3.286800
18.524400 3.656200
18.545800 3.972200
18.567100 4.253700
18.588400 4.619600
18.609800 4.919700
18.631100 5.250300
18.652400 5.249900
18.673700 5.232100
18.695100 5.202600
18.716400 5.164600
18.737700 5.357900
18.759100 5.378400
18.780400 5.210500
18.801700 4.585000
18.823100 4.430500
18.844400 4.315300
18.865700 4.189500
18.887100 4.138600
18.908400 4.155000
18.929700 4.147000
18.951100 4.180600
18.972400 4.197700
18.993700 4.301700
19.015100 4.432700
19.036400 4.479200
19.057700 4.156400
19.079100 4.001400
19.100400 3.928500
19.121700 3.869000
19.143000 3.833200
19.164400 3.857000
19.185700 3.944300
19.207000 4.031900
19.228400 4.120900
19.249700 4.216900
19.271000 4.328400
19.292400 4.460800
19.313700 4.628200
19.335000 4.816300
19.356400 4.962500
19.377700 5.048100
19.399000 5.067700
19.420400 5.041600
19.441700 4.976300
19.463000 4.803800
19.484400 4.719200
19.505700 4.657300
19.527000 4.573200
19.548300 4.530800
19.569700 4.488700
19.591000 4.454800
19.612300 4.428700
19.633700 4.421900
19.655000 4.572000
19.676300 4.621100
19.697700 4.487500
19.719000 4.437900
19.740300 4.374900
19.761700 4.395000
19.783000 4.424200
19.804300 4.456200
19.825700 4.472900
19.847000 4.454500
19.868300 4.471100
19.889700 4.467200
19.911000 4.464900
19.932300 4.505100
19.953700 4.535500
19.975000 4.552300
19.996300 4.558800
20.017600 4.598400
20.039000 4.677600
20.060300 4.808200
20.081600 4.868800
20.103000 4.946500
20.124300 4.941100
20.145600 4.909100
20.167000 4.851700
20.188300 4.812100
20.209600 4.856300
20.231000 4.862700
20.252300 4.799600
20.273600 4.726600
20.295000 4.657400
20.316300 4.598900
20.337600 4.550600
20.359000 4.559800
20.380300 4.594500
20.401600 4.583500
20.422900 4.570700
20.444300 4.573400
20.465600 4.596500
20.486900 4.629500
20.508300 4.668500
20.529600 4.706400
20.550900 4.809300
20.572300 4.901700
20.593600 4.940100
20.614900 5.012300
20.636300 5.063400
20.657600 5.098100
20.678900 5.123400
20.700300 5.146900
20.721600 5.159300
20.742900 5.171600
20.764300 5.193200
20.785600 5.290100
20.806900 5.375600
20.828200 5.467800
20.849600 5.432600
20.870900 5.444100
20.892200 5.476800
20.913600 5.225200
20.934900 4.984400
20.956200 4.920100
20.977600 5.218600
20.998900 4.776500
21.020200 4.645000
21.041600 4.576600
21.062900 4.495200
21.084200 4.407600
21.105600 4.360000
21.126900 4.325100
21.148200 4.295700
21.169600 4.263500
21.190900 4.288500
21.212200 4.304500
21.233600 4.349500
21.254900 4.439800
21.276200 4.555900
21.297500 4.672900
21.318900 4.773600
21.340200 4.842600
21.361500 4.915100
21.382900 4.969600
21.404200 4.991400
21.425500 5.027400
21.446900 5.054200
21.468200 5.104400
21.489500 5.119400
21.510900 4.990900
21.532200 4.829400
21.553500 4.736800
21.574900 4.679200
21.596200 4.627400
21.617500 4.580800
21.638900 4.543400
21.660200 4.510700
21.681500 4.476100
21.702800 4.444000
21.724200 4.453700
21.745500 4.456200
21.766800 4.449800
21.788200 4.461000
21.809500 4.477800
21.830800 4.499400
21.852200 4.525700
21.873500 4.402600
21.894800 4.397200
21.916200 4.498900
21.937500 4.532100
21.958800 4.574000
21.980200 4.556000
22.001500 4.547800
22.022800 4.531500
22.044200 4.525000
22.065500 4.549300
22.086800 4.583300
22.108200 4.618500
22.129500 4.654300
22.150800 4.629900
22.172100 4.646500
22.193500 4.669700
22.214800 4.729000
22.236100 4.730700
22.257500 4.742900
22.278800 4.767000
22.300100 4.785700
22.321500 4.791000
22.342800 4.801800
22.364100 4.816500
22.385500 4.844000
22.406800 4.876800
22.428100 4.886800
22.449500 4.906400
22.470800 4.924200
22.492100 5.019400
22.513500 5.186000
22.534800 5.215600
22.556100 5.220900
22.577400 5.223200
22.598800 5.231400
22.620100 5.232500
22.641400 5.200300
22.662800 5.175800
22.684100 5.168500
22.705400 5.179400
22.726800 5.183900
22.748100 5.167800
22.769400 5.193800
22.790800 5.200700
22.812100 5.208100
22.833400 5.254100
22.854800 5.362100
22.876100 5.475000
22.897400 5.607900
22.918800 5.594900
22.940100 5.475100
22.961400 5.302800
22.982700 5.289200
23.004100 5.220400
23.025400 5.193300
23.046700 5.172100
23.068100 5.156400
23.089400 5.140000
23.110700 5.133600
23.132100 5.162100
23.153400 5.181000
23.174700 5.217200
23.196100 5.250400
23.217400 5.294500
23.238700 5.378500
23.260100 5.555100
23.281400 5.746500
23.302700 6.013500
23.324100 5.839600
23.345400 5.733400
23.366700 5.609900
23.388100 5.470300
23.409400 5.383800
23.430700 5.297100
23.452000 5.230300
23.473400 5.167200
23.494700 5.103500
23.516000 5.071600
23.537400 5.036600
23.558700 4.990300
23.580000 4.947800
23.601400 4.918300
23.622700 4.902200
23.644000 4.897600
23.665400 4.907000
23.686700 4.927900
23.708000 4.945600
23.729400 4.992700
23.750700 5.064300
23.772000 5.173600
23.793400 5.295400
23.814700 5.381900
23.836000 5.309500
23.857300 5.274000
23.878700 5.233500
23.900000 5.271700
23.921300 5.351700
23.942700 5.436500
23.964000 5.493800
23.985300 5.526600
24.006700 5.536800
24.028000 5.625600
24.049300 5.627700
24.070700 5.411700
24.092000 5.338900
24.113300 5.244700
24.134700 5.141700
24.156000 5.045400
24.177300 4.875100
24.198700 4.772700
24.220000 4.750000
24.241300 4.756600
24.262700 4.771200
24.284000 4.787900
24.305300 4.804500
24.326600 4.822200
24.348000 4.853400
24.369300 4.896600
24.390600 4.927600
24.412000 4.938300
24.433300 4.944500
24.454600 4.963900
24.476000 4.995000
24.497300 5.020500
24.518600 5.037500
24.540000 5.049800
24.561300 5.049100
24.582600 5.051200
24.604000 5.016200
24.625300 4.980900
24.646600 4.976200
24.668000 5.018200
24.689300 5.040700
24.710600 5.012300
24.731900 4.967500
24.753300 4.918500
24.774600 4.947400
24.795900 4.969400
24.817300 4.980100
24.838600 4.991600
24.859900 5.000700
24.881300 4.954200
24.902600 4.960300
24.923900 4.960100
24.945300 4.954700
24.966600 4.958400
24.987900 4.978900
25.009300 5.018600
25.030600 5.059400
25.051900 5.067200
25.073300 5.070400
25.094600 5.075600
25.115900 5.039500
25.137300 5.021400
25.158600 5.089200
25.179900 5.060700
25.201200 4.719600
25.222600 4.473700
25.243900 4.321200
25.265200 4.215600
25.286600 4.156500
25.307900 4.119600
25.329200 4.142400
25.350600 4.147200
25.371900 4.133500
25.393200 4.114600
25.414600 4.088600
25.435900 4.088800
25.457200 4.050500
25.478600 4.132800
25.499900 4.150700
25.521200 4.153600
25.542600 4.163900
25.563900 4.183800
25.585200 4.217500
25.606500 4.275400
25.627900 4.667800
25.649200 4.691900
25.670500 4.534300
25.691900 4.349300
25.713200 4.212600
25.734500 4.110500
25.755900 4.033600
25.777200 3.950000
25.798500 3.859900
25.819900 3.792200
25.841200 3.719200
25.862500 3.640800
25.883900 3.557200
25.905200 3.472100
25.926500 3.457800
25.947900 3.495400
25.969200 3.496600
25.990500 3.512300
26.011800 3.593300
26.033200 3.641900
26.054500 3.744000
26.075800 3.878000
26.097200 4.114000
26.118500 4.435500
26.139800 4.782100
26.161200 5.085400
26.182500 5.324300
26.203800 4.948300
26.225200 4.936400
26.246500 4.949800
26.267800 4.847900
26.289200 4.586600
26.310500 4.333100
26.331800 4.018500
26.353200 3.631400
26.374500 3.160100
26.395800 2.816500
26.417200 2.564600
26.438500 2.378500
26.459800 2.247500
26.481100 2.168900
26.502500 2.120900
26.523800 2.101300
26.545100 2.094600
26.566500 2.084700
26.587800 2.215600
26.609100 2.301000
26.630500 2.461700
26.651800 2.644200
26.673100 2.864700
26.694500 3.072800
26.715800 3.171100
26.737100 3.188500
26.758500 3.193600
26.779800 3.188100
26.801100 3.173100
26.822500 3.166100
26.843800 3.175900
26.865100 3.163700
26.886400 3.124600
26.907800 3.059100
26.929100 3.012500
26.950400 3.016400
26.971800 3.096500
26.993100 3.368600
27.014400 2.872200
27.035800 2.197000
27.057100 2.056800
27.078400 2.007700
27.099800 1.948300
27.121100 1.890100
27.142400 1.824000
27.163800 1.736600
27.185100 1.638700
27.206400 1.529600
27.227800 1.413700
27.249100 1.313200
27.270400 1.239600
27.291800 1.180900
27.313100 1.140000
27.334400 1.105100
27.355700 1.056000
27.377100 1.009000
27.398400 0.964000
27.419700 0.921100
27.441100 0.880200
27.462400 0.842000
27.483700 0.809700
27.505100 0.780200
27.526400 0.752300
27.547700 0.726100
27.569100 0.701500
27.590400 0.678300
27.611700 0.686500
27.633100 0.669200
27.654400 0.645300
27.675700 0.613600
27.697100 0.572400
27.718400 0.521100
27.739700 0.450300
27.761000 0.388300
27.782400 0.366200
27.803700 0.343600
27.825000 0.320500
27.846400 0.296700
27.867700 0.272500
27.889000 0.247900
27.910400 0.223200
27.931700 0.198200
27.953000 0.174800
27.974400 0.153900
27.995700 0.133400
28.017000 0.113400
28.038400 0.093800
28.059700 0.074600
28.081000 0.058200
28.102400 0.048000
28.123700 0.039000
28.145000 0.030900
28.166300 0.023700
28.187700 0.017500
28.209000 0.012200
28.230300 0.007900
28.251700 0.004500
28.273000 0.002100
28.294300 0.000600
28.315700 0.000000
28.337000 0.000000
28.358300 0.000000
28.379700 0.000000
28.401000 0.000000
28.422300 0.000000
28.443700 0.000000
28.465000 0.000000
28.486300 0.000000
28.507700 0.000000
28.529000 0.000000
28.550300 0.000000
28.571700 0.000000
28.593000 0.000000
28.614300 0.000000
28.635600 0.000000
28.657000 0.000000
28.678300 0.000000
28.699600 0.000000
28.721000 0.000000
28.742300 0.000000
28.763600 0.000000
28.785000 0.000000
28.806300 0.000000
28.827600 0.000000
28.849000 0.000000
28.870300 0.000000
28.891600 0.000000
28.913000 0.000000
28.934300 0.000000
28.955600 0.000000
28.977000 0.000000
28.998300 0.000000
29.019600 0.000000
29.040900 0.000000
29.062300 0.000000
29.083600 0.000000
29.104900 0.000000
29.126300 0.000000
29.147600 0.000000
29.168900 0.000000
29.190300 0.000000
29.211600 0.000000
29.232900 0.000000
29.254300 0.000000
29.275600 0.000000
29.296900 0.000000
29.318300 0.000000
29.339600 0.000000
29.360900 0.000000
29.382300 0.000000
29.403600 0.000000
29.424900 0.000000
29.446300 0.000000
29.467600 0.000000
29.488900 0.000000
29.510200 0.000000
29.531600 0.000000
29.552900 0.000000
29.574200 0.000000
29.595600 0.000000
29.616900 0.000000
29.638200 0.000000
29.659600 0.000000
29.680900 0.000000
29.702200 0.000000
29.723600 0.000000
29.744900 0.000000
29.766200 0.000000
29.787600 0.000000
29.808900 0.000000
29.830200 0.000000
29.851600 0.000000
29.872900 0.000000
29.894200 0.000000
29.915500 0.000000
29.936900 0.000000
29.958200 0.000000
29.979500 0.000000
30.000900 0.000000
30.022200 0.000000
30.043500 0.000000
30.064900 0.000000
30.086200 0.000000
30.107500 0.000000
30.128900 0.000000
30.150200 0.000000
30.171500 0.000000
30.192900 0.000000
30.214200 0.000000
30.235500 0.000000
30.256900 0.000000
e
