set title 'mp-557993 - Density of States'
set xlabel 'Energy (eV)'
set ylabel 'DOS (states/eV)'
set grid
set xrange [-10:10]
set yrange [0:27.783]
set xzeroaxis lt -1
set terminal png size 800,600
set output 'mp-557993_dos_gnuplot.png'
plot '-' using 1:2 with lines title 'DOS'
-16.146100 0.000000
-16.128400 0.000000
-16.110800 0.000000
-16.093200 0.000000
-16.075600 0.000000
-16.058000 0.000000
-16.040400 0.000000
-16.022700 0.000000
-16.005100 0.000000
-15.987500 0.000000
-15.969900 0.000000
-15.952300 0.000000
-15.934700 0.000000
-15.917000 0.000000
-15.899400 0.000000
-15.881800 0.000000
-15.864200 0.000000
-15.846600 0.000000
-15.829000 0.000000
-15.811300 0.000000
-15.793700 0.000000
-15.776100 0.000000
-15.758500 0.000000
-15.740900 0.000000
-15.723300 0.000000
-15.705600 0.000000
-15.688000 0.000000
-15.670400 0.000000
-15.652800 0.000000
-15.635200 0.000000
-15.617600 0.000000
-15.599900 0.000000
-15.582300 0.000000
-15.564700 0.000000
-15.547100 0.000000
-15.529500 0.000000
-15.511900 0.000000
-15.494200 0.000000
-15.476600 0.000000
-15.459000 0.000000
-15.441400 0.000000
-15.423800 0.000000
-15.406200 0.000000
-15.388500 0.000000
-15.370900 0.000000
-15.353300 0.000000
-15.335700 0.000000
-15.318100 0.000000
-15.300500 0.000000
-15.282800 0.000000
-15.265200 0.000000
-15.247600 0.000000
-15.230000 0.000000
-15.212400 0.000000
-15.194800 0.000000
-15.177100 0.000000
-15.159500 0.000000
-15.141900 0.000000
-15.124300 0.000000
-15.106700 0.000000
-15.089100 0.000000
-15.071400 0.000000
-15.053800 0.000000
-15.036200 0.000000
-15.018600 0.000000
-15.001000 0.000000
-14.983400 0.000000
-14.965700 0.000000
-14.948100 0.000000
-14.930500 0.000000
-14.912900 0.000000
-14.895300 0.000000
-14.877700 0.000000
-14.860000 0.000000
-14.842400 0.000000
-14.824800 0.000000
-14.807200 0.000000
-14.789600 0.000000
-14.772000 0.000000
-14.754300 0.000000
-14.736700 0.000000
-14.719100 0.000000
-14.701500 0.000000
-14.683900 0.000000
-14.666300 0.000000
-14.648600 0.000000
-14.631000 0.000000
-14.613400 0.000000
-14.595800 0.000000
-14.578200 0.000000
-14.560600 0.000000
-14.543000 0.002100
-14.525300 0.302500
-14.507700 0.568000
-14.490100 0.707000
-14.472500 0.888000
-14.454900 1.016800
-14.437300 1.097000
-14.419600 1.203200
-14.402000 1.306500
-14.384400 1.405000
-14.366800 1.500600
-14.349200 1.597900
-14.331600 1.678200
-14.313900 1.760100
-14.296300 1.848700
-14.278700 1.936100
-14.261100 2.024300
-14.243500 2.115100
-14.225900 2.211100
-14.208200 2.310700
-14.190600 2.403500
-14.173000 2.506200
-14.155400 2.615100
-14.137800 2.753200
-14.120200 2.928700
-14.102500 3.103500
-14.084900 3.292900
-14.067300 3.439300
-14.049700 3.600100
-14.032100 3.995600
-14.014500 3.857000
-13.996800 3.925500
-13.979200 3.803200
-13.961600 3.625300
-13.944000 3.497100
-13.926400 3.369100
-13.908800 3.214800
-13.891100 3.239400
-13.873500 3.143900
-13.855900 3.200900
-13.838300 3.256700
-13.820700 3.529800
-13.803100 3.657600
-13.785400 3.677600
-13.767800 3.746800
-13.750200 3.667800
-13.732600 3.601800
-13.715000 3.791400
-13.697400 3.145300
-13.679700 3.058500
-13.662100 3.088100
-13.644500 2.873900
-13.626900 3.292300
-13.609300 3.471900
-13.591700 3.630300
-13.574000 3.942100
-13.556400 4.704800
-13.538800 5.278800
-13.521200 5.201800
-13.503600 5.356300
-13.486000 5.655300
-13.468300 5.582000
-13.450700 5.508900
-13.433100 5.177200
-13.415500 4.595000
-13.397900 4.379000
-13.380300 4.280900
-13.362600 4.328200
-13.345000 4.174400
-13.327400 4.226700
-13.309800 4.399500
-13.292200 4.640200
-13.274600 4.831400
-13.256900 5.961600
-13.239300 7.844800
-13.221700 7.824400
-13.204100 7.588200
-13.186500 7.193100
-13.168900 6.869100
-13.151200 6.551500
-13.133600 6.352500
-13.116000 6.026800
-13.098400 5.538700
-13.080800 5.183900
-13.063200 4.867100
-13.045500 4.590700
-13.027900 4.465500
-13.010300 4.448000
-12.992700 4.591300
-12.975100 4.804900
-12.957500 4.959000
-12.939800 5.163300
-12.922200 5.200300
-12.904600 4.979500
-12.887000 4.926600
-12.869400 4.830500
-12.851800 4.764600
-12.834200 4.501200
-12.816500 4.660700
-12.798900 5.055900
-12.781300 5.733100
-12.763700 7.002000
-12.746100 8.589300
-12.728500 10.614900
-12.710800 12.323100
-12.693200 8.730800
-12.675600 6.935300
-12.658000 5.780600
-12.640400 4.158500
-12.622800 7.404600
-12.605100 9.344700
-12.587500 10.866300
-12.569900 10.076200
-12.552300 10.186200
-12.534700 10.544300
-12.517100 11.283200
-12.499400 11.883500
-12.481800 12.115300
-12.464200 11.304400
-12.446600 10.841400
-12.429000 9.424600
-12.411400 8.403500
-12.393700 7.964700
-12.376100 7.586600
-12.358500 7.529800
-12.340900 7.793100
-12.323300 10.503000
-12.305700 11.959400
-12.288000 11.295300
-12.270400 10.422700
-12.252800 10.031900
-12.235200 10.326900
-12.217600 11.683900
-12.200000 11.527900
-12.182300 11.019600
-12.164700 11.697800
-12.147100 12.191900
-12.129500 13.785700
-12.111900 12.292200
-12.094300 9.977000
-12.076600 10.083500
-12.059000 10.607900
-12.041400 11.781300
-12.023800 10.836400
-12.006200 11.412400
-11.988600 13.647300
-11.970900 15.511700
-11.953300 14.267200
-11.935700 4.993400
-11.918100 4.343000
-11.900500 3.633600
-11.882900 3.411800
-11.865200 3.272400
-11.847600 3.136100
-11.830000 3.140500
-11.812400 3.009500
-11.794800 2.901300
-11.777200 2.773100
-11.759500 2.735100
-11.741900 0.000000
-11.724300 0.000000
-11.706700 0.000000
-11.689100 0.000000
-11.671500 0.000000
-11.653800 0.000000
-11.636200 0.000000
-11.618600 0.000000
-11.601000 0.000000
-11.583400 0.000000
-11.565800 0.000000
-11.548100 0.000000
-11.530500 0.000000
-11.512900 0.000000
-11.495300 0.000000
-11.477700 0.000000
-11.460100 0.000000
-11.442400 0.000000
-11.424800 0.000000
-11.407200 0.000000
-11.389600 0.000000
-11.372000 0.000000
-11.354400 0.000000
-11.336700 0.000000
-11.319100 0.000000
-11.301500 0.000000
-11.283900 0.000000
-11.266300 0.000000
-11.248700 0.000000
-11.231000 0.000000
-11.213400 0.000000
-11.195800 0.000000
-11.178200 0.000000
-11.160600 0.000000
-11.143000 0.000000
-11.125400 0.000000
-11.107700 0.000000
-11.090100 0.000000
-11.072500 0.000000
-11.054900 0.000000
-11.037300 0.000000
-11.019700 0.000000
-11.002000 0.000000
-10.984400 0.000000
-10.966800 0.000000
-10.949200 0.000000
-10.931600 0.000000
-10.914000 0.000000
-10.896300 0.000000
-10.878700 0.000000
-10.861100 0.000000
-10.843500 0.000000
-10.825900 0.000000
-10.808300 0.000000
-10.790600 0.000000
-10.773000 0.000000
-10.755400 0.000000
-10.737800 0.000000
-10.720200 0.000000
-10.702600 0.000000
-10.684900 0.000000
-10.667300 0.000000
-10.649700 0.000000
-10.632100 0.000000
-10.614500 0.000000
-10.596900 0.000000
-10.579200 0.000000
-10.561600 0.000000
-10.544000 0.000000
-10.526400 0.000000
-10.508800 0.000000
-10.491200 0.000000
-10.473500 0.000000
-10.455900 0.000000
-10.438300 0.000000
-10.420700 0.000000
-10.403100 0.000000
-10.385500 0.000000
-10.367800 0.000000
-10.350200 0.000000
-10.332600 0.000000
-10.315000 0.000000
-10.297400 0.000000
-10.279800 0.000000
-10.262100 0.000000
-10.244500 0.000000
-10.226900 0.000000
-10.209300 0.000000
-10.191700 0.000000
-10.174100 0.000000
-10.156400 0.000000
-10.138800 0.000000
-10.121200 0.000000
-10.103600 0.000000
-10.086000 0.000000
-10.068400 0.000000
-10.050700 0.000000
-10.033100 0.000000
-10.015500 0.000000
-9.997900 0.000000
-9.980300 0.000000
-9.962700 0.000000
-9.945000 0.000000
-9.927400 0.000000
-9.909800 0.000000
-9.892200 0.000000
-9.874600 0.000000
-9.857000 0.000000
-9.839300 0.000000
-9.821700 0.000000
-9.804100 0.000000
-9.786500 0.000000
-9.768900 0.000000
-9.751300 0.000000
-9.733600 0.000000
-9.716000 0.000000
-9.698400 0.000000
-9.680800 0.000000
-9.663200 0.000000
-9.645600 0.000000
-9.627900 0.000000
-9.610300 0.000000
-9.592700 0.000000
-9.575100 0.000000
-9.557500 0.000000
-9.539900 0.000000
-9.522200 0.000000
-9.504600 0.000000
-9.487000 0.000000
-9.469400 0.000000
-9.451800 0.000000
-9.434200 0.000000
-9.416600 0.000000
-9.398900 0.000000
-9.381300 0.000000
-9.363700 0.000000
-9.346100 0.000000
-9.328500 0.000000
-9.310900 0.000000
-9.293200 0.000000
-9.275600 0.000000
-9.258000 0.000000
-9.240400 0.000000
-9.222800 0.000000
-9.205200 0.000000
-9.187500 0.000000
-9.169900 0.000000
-9.152300 0.000000
-9.134700 0.000000
-9.117100 0.000000
-9.099500 0.000000
-9.081800 0.000000
-9.064200 0.000000
-9.046600 0.000000
-9.029000 0.000000
-9.011400 0.000000
-8.993800 0.000000
-8.976100 0.000000
-8.958500 0.000000
-8.940900 0.000000
-8.923300 0.000000
-8.905700 0.000000
-8.888100 0.000000
-8.870400 0.000000
-8.852800 0.000000
-8.835200 0.000000
-8.817600 0.000000
-8.800000 0.000000
-8.782400 0.000000
-8.764700 0.000000
-8.747100 0.000000
-8.729500 0.000000
-8.711900 0.000000
-8.694300 0.000000
-8.676700 0.000000
-8.659000 0.000000
-8.641400 0.000000
-8.623800 0.000000
-8.606200 0.000000
-8.588600 0.000000
-8.571000 0.000000
-8.553300 0.000000
-8.535700 0.000000
-8.518100 0.000000
-8.500500 0.000000
-8.482900 0.000000
-8.465300 0.000000
-8.447600 0.000000
-8.430000 0.000000
-8.412400 0.000000
-8.394800 0.000000
-8.377200 0.000000
-8.359600 0.000000
-8.341900 0.000000
-8.324300 0.000000
-8.306700 0.000000
-8.289100 0.000000
-8.271500 0.000000
-8.253900 0.000000
-8.236200 0.000000
-8.218600 0.000000
-8.201000 0.000000
-8.183400 0.000000
-8.165800 0.000000
-8.148200 0.000000
-8.130500 0.000000
-8.112900 0.000000
-8.095300 0.000000
-8.077700 0.000000
-8.060100 0.000000
-8.042500 0.000000
-8.024800 0.000000
-8.007200 0.000000
-7.989600 0.000000
-7.972000 0.000000
-7.954400 0.000000
-7.936800 0.000000
-7.919100 0.000000
-7.901500 0.000000
-7.883900 0.000000
-7.866300 0.000000
-7.848700 0.000000
-7.831100 0.000000
-7.813400 0.000000
-7.795800 0.000000
-7.778200 0.000000
-7.760600 0.000000
-7.743000 0.000000
-7.725400 0.000000
-7.707700 0.000000
-7.690100 0.000000
-7.672500 0.000000
-7.654900 0.000000
-7.637300 0.000000
-7.619700 0.000000
-7.602100 0.000000
-7.584400 0.000000
-7.566800 0.000000
-7.549200 0.000000
-7.531600 0.000000
-7.514000 0.000000
-7.496400 0.000000
-7.478700 0.000000
-7.461100 0.000000
-7.443500 0.000000
-7.425900 0.000000
-7.408300 0.000000
-7.390700 0.000000
-7.373000 0.000000
-7.355400 0.000000
-7.337800 0.000000
-7.320200 0.000000
-7.302600 0.000000
-7.285000 0.000000
-7.267300 0.000000
-7.249700 0.000000
-7.232100 0.000000
-7.214500 0.000000
-7.196900 0.000000
-7.179300 0.000000
-7.161600 0.000000
-7.144000 0.000000
-7.126400 0.000000
-7.108800 0.000000
-7.091200 0.000000
-7.073600 0.000000
-7.055900 0.000000
-7.038300 0.000000
-7.020700 0.000000
-7.003100 0.000000
-6.985500 0.000000
-6.967900 0.000000
-6.950200 0.000000
-6.932600 0.000000
-6.915000 0.000000
-6.897400 0.000000
-6.879800 0.000000
-6.862200 0.000000
-6.844500 0.000000
-6.826900 0.000000
-6.809300 0.000000
-6.791700 0.000000
-6.774100 0.000000
-6.756500 0.000000
-6.738800 0.000000
-6.721200 0.000000
-6.703600 0.000000
-6.686000 0.000000
-6.668400 0.000000
-6.650800 0.000000
-6.633100 0.000000
-6.615500 0.000000
-6.597900 0.000000
-6.580300 0.000000
-6.562700 0.000000
-6.545100 0.000000
-6.527400 0.000000
-6.509800 0.000000
-6.492200 0.000000
-6.474600 0.000000
-6.457000 0.000000
-6.439400 0.000000
-6.421700 0.000000
-6.404100 0.000000
-6.386500 0.000000
-6.368900 0.000000
-6.351300 0.000000
-6.333700 0.000000
-6.316000 0.000000
-6.298400 0.000000
-6.280800 0.000000
-6.263200 0.000000
-6.245600 0.000000
-6.228000 0.000000
-6.210300 0.000000
-6.192700 0.000000
-6.175100 0.031900
-6.157500 0.454900
-6.139900 0.855800
-6.122300 1.091300
-6.104600 1.275900
-6.087000 1.403300
-6.069400 1.541900
-6.051800 1.697200
-6.034200 2.002300
-6.016600 2.065600
-5.998900 2.134400
-5.981300 2.209200
-5.963700 2.247200
-5.946100 2.308200
-5.928500 2.413000
-5.910900 2.552100
-5.893300 3.118000
-5.875600 4.092400
-5.858000 3.915300
-5.840400 3.959400
-5.822800 4.326100
-5.805200 4.431100
-5.787600 4.183500
-5.769900 3.686100
-5.752300 3.414000
-5.734700 3.411300
-5.717100 3.573300
-5.699500 3.802000
-5.681900 4.455500
-5.664200 4.910200
-5.646600 5.223100
-5.629000 5.594300
-5.611400 5.971000
-5.593800 5.975300
-5.576200 6.049300
-5.558500 6.206400
-5.540900 6.300100
-5.523300 6.427100
-5.505700 6.363000
-5.488100 6.169100
-5.470500 6.015700
-5.452800 5.711300
-5.435200 5.427300
-5.417600 5.209900
-5.400000 4.990400
-5.382400 4.877600
-5.364800 4.419600
-5.347100 4.183200
-5.329500 4.153500
-5.311900 4.062600
-5.294300 4.485800
-5.276700 4.579200
-5.259100 4.315500
-5.241400 4.139400
-5.223800 3.684000
-5.206200 3.563400
-5.188600 3.527900
-5.171000 3.528000
-5.153400 3.506700
-5.135700 3.565200
-5.118100 3.477900
-5.100500 3.232200
-5.082900 2.974600
-5.065300 2.771800
-5.047700 2.653900
-5.030000 2.483300
-5.012400 2.436800
-4.994800 2.400800
-4.977200 2.332800
-4.959600 2.243800
-4.942000 2.183100
-4.924300 2.169800
-4.906700 2.137200
-4.889100 2.141800
-4.871500 2.233400
-4.853900 2.339000
-4.836300 2.313300
-4.818600 2.312000
-4.801000 2.319000
-4.783400 2.319400
-4.765800 2.333200
-4.748200 2.357700
-4.730600 2.406500
-4.712900 2.485500
-4.695300 2.553600
-4.677700 2.635800
-4.660100 2.720000
-4.642500 2.798800
-4.624900 2.922200
-4.607200 2.963900
-4.589600 2.908100
-4.572000 2.857500
-4.554400 2.878500
-4.536800 2.921400
-4.519200 2.950300
-4.501500 3.089900
-4.483900 3.282000
-4.466300 2.137200
-4.448700 1.697800
-4.431100 1.429200
-4.413500 1.268100
-4.395800 1.223400
-4.378200 1.185600
-4.360600 1.269900
-4.343000 1.324000
-4.325400 1.376700
-4.307800 1.460000
-4.290100 1.563800
-4.272500 1.660400
-4.254900 1.542900
-4.237300 1.468500
-4.219700 1.416400
-4.202100 1.389600
-4.184500 1.335500
-4.166800 1.259100
-4.149200 1.206800
-4.131600 1.174500
-4.114000 1.155100
-4.096400 1.160400
-4.078800 1.168300
-4.061100 1.172100
-4.043500 1.180000
-4.025900 1.190600
-4.008300 1.204300
-3.990700 1.221500
-3.973100 1.244100
-3.955400 1.270400
-3.937800 1.286200
-3.920200 1.290500
-3.902600 1.299300
-3.885000 1.338400
-3.867400 1.380800
-3.849700 1.415500
-3.832100 1.439000
-3.814500 1.447200
-3.796900 1.448000
-3.779300 1.448300
-3.761700 1.442200
-3.744000 1.434000
-3.726400 1.419400
-3.708800 1.397200
-3.691200 1.393100
-3.673600 1.391100
-3.656000 1.391700
-3.638300 1.397600
-3.620700 1.410100
-3.603100 1.417200
-3.585500 1.418600
-3.567900 1.409100
-3.550300 1.400100
-3.532600 1.393300
-3.515000 1.393100
-3.497400 1.400000
-3.479800 1.400900
-3.462200 1.431700
-3.444600 1.445900
-3.426900 1.411200
-3.409300 1.348900
-3.391700 1.287900
-3.374100 1.243400
-3.356500 1.217500
-3.338900 1.176200
-3.321200 1.138000
-3.303600 1.108400
-3.286000 1.076800
-3.268400 1.044800
-3.250800 1.013600
-3.233200 0.982800
-3.215500 0.951700
-3.197900 0.922300
-3.180300 0.899200
-3.162700 0.877100
-3.145100 0.855900
-3.127500 0.835600
-3.109800 0.816200
-3.092200 0.797600
-3.074600 0.779200
-3.057000 0.761200
-3.039400 0.743800
-3.021800 0.727300
-3.004100 0.711700
-2.986500 0.696700
-2.968900 0.682300
-2.951300 0.668100
-2.933700 0.654100
-2.916100 0.640100
-2.898400 0.626300
-2.880800 0.612600
-2.863200 0.599000
-2.845600 0.585600
-2.828000 0.572300
-2.810400 0.559400
-2.792700 0.546700
-2.775100 0.534200
-2.757500 0.521800
-2.739900 0.509600
-2.722300 0.498700
-2.704700 0.488000
-2.687000 0.477200
-2.669400 0.466300
-2.651800 0.455400
-2.634200 0.444700
-2.616600 0.434000
-2.599000 0.423500
-2.581300 0.412900
-2.563700 0.402400
-2.546100 0.392100
-2.528500 0.381800
-2.510900 0.371700
-2.493300 0.361500
-2.475700 0.351800
-2.458000 0.342300
-2.440400 0.332900
-2.422800 0.323700
-2.405200 0.314600
-2.387600 0.305600
-2.370000 0.296600
-2.352300 0.287700
-2.334700 0.278600
-2.317100 0.269700
-2.299500 0.261400
-2.281900 0.252400
-2.264300 0.242900
-2.246600 0.234400
-2.229000 0.226000
-2.211400 0.217800
-2.193800 0.209200
-2.176200 0.200300
-2.158600 0.190400
-2.140900 0.179200
-2.123300 0.168400
-2.105700 0.158200
-2.088100 0.148500
-2.070500 0.139600
-2.052900 0.131200
-2.035200 0.123600
-2.017600 0.118100
-2.000000 0.116400
-1.982400 0.113000
-1.964800 0.097800
-1.947200 0.072700
-1.929500 0.052200
-1.911900 0.035000
-1.894300 0.021300
-1.876700 0.011000
-1.859100 0.004000
-1.841500 0.000500
-1.823800 0.000000
-1.806200 0.000000
-1.788600 0.000000
-1.771000 0.000000
-1.753400 0.000000
-1.735800 0.000000
-1.718100 0.000000
-1.700500 0.000000
-1.682900 0.000000
-1.665300 0.000000
-1.647700 0.000000
-1.630100 0.000000
-1.612400 0.000000
-1.594800 0.000000
-1.577200 0.000000
-1.559600 0.000000
-1.542000 0.000000
-1.524400 0.000000
-1.506700 0.000000
-1.489100 0.000000
-1.471500 0.000000
-1.453900 0.000000
-1.436300 0.000000
-1.418700 0.000000
-1.401000 0.000000
-1.383400 0.000000
-1.365800 0.000000
-1.348200 0.000000
-1.330600 0.000000
-1.313000 0.000000
-1.295300 0.000000
-1.277700 0.000000
-1.260100 0.000000
-1.242500 0.000000
-1.224900 0.073500
-1.207300 0.181500
-1.189600 0.240700
-1.172000 0.298200
-1.154400 0.372400
-1.136800 0.450000
-1.119200 0.524300
-1.101600 0.574500
-1.083900 0.660500
-1.066300 0.754600
-1.048700 0.846000
-1.031100 0.967100
-1.013500 1.139200
-0.995900 1.300400
-0.978200 1.441500
-0.960600 1.603700
-0.943000 1.738500
-0.925400 1.858900
-0.907800 1.968400
-0.890200 2.098700
-0.872500 2.347100
-0.854900 3.324900
-0.837300 4.155300
-0.819700 4.440600
-0.802100 4.802800
-0.784500 5.416200
-0.766900 5.479600
-0.749200 5.754600
-0.731600 6.041500
-0.714000 6.220900
-0.696400 6.366400
-0.678800 5.209500
-0.661200 4.771700
-0.643500 4.606100
-0.625900 4.580600
-0.608300 4.629400
-0.590700 4.703400
-0.573100 4.901000
-0.555500 4.918500
-0.537800 5.386800
-0.520200 4.701700
-0.502600 4.798700
-0.485000 4.712300
-0.467400 4.711300
-0.449800 5.057000
-0.432100 5.951100
-0.414500 6.409400
-0.396900 6.975500
-0.379300 8.604400
-0.361700 8.633300
-0.344100 8.458800
-0.326400 8.212100
-0.308800 8.218300
-0.291200 8.489700
-0.273600 8.246200
-0.256000 7.825200
-0.238400 6.386900
-0.220700 5.118500
-0.203100 4.782900
-0.185500 5.008700
-0.167900 5.780200
-0.150300 6.621900
-0.132700 7.495900
-0.115000 7.653900
-0.097400 7.705700
-0.079800 7.353900
-0.062200 7.337600
-0.044600 8.818200
-0.027000 9.542300
-0.009300 9.050300
0.008300 8.928000
0.025900 8.917000
0.043500 8.559600
0.061100 8.151200
0.078700 7.652900
0.096400 7.550500
0.114000 7.505100
0.131600 7.538700
0.149200 7.639500
0.166800 7.964700
0.184400 7.693100
0.202100 7.878200
0.219700 8.355500
0.237300 8.625100
0.254900 7.591000
0.272500 7.097800
0.290100 6.910000
0.307800 6.896600
0.325400 7.299000
0.343000 7.239000
0.360600 7.056400
0.378200 6.417300
0.395800 6.137100
0.413500 5.925600
0.431100 6.256500
0.448700 7.092600
0.466300 8.231500
0.483900 9.925000
0.501500 9.753600
0.519200 9.303200
0.536800 5.805400
0.554400 3.309500
0.572000 2.956800
0.589600 3.648200
0.607200 5.319400
0.624900 6.999800
0.642500 8.419800
0.660100 8.504100
0.677700 7.909400
0.695300 7.160600
0.712900 6.637700
0.730600 6.301200
0.748200 5.436100
0.765800 5.135600
0.783400 5.341300
0.801000 5.208600
0.818600 5.066700
0.836300 4.796000
0.853900 4.173500
0.871500 3.545300
0.889100 3.151700
0.906700 2.963800
0.924300 2.958900
0.941900 3.129500
0.959600 3.327500
0.977200 3.502700
0.994800 4.006300
1.012400 4.821400
1.030000 6.323000
1.047600 7.781100
1.065300 9.048500
1.082900 9.854600
1.100500 9.881700
1.118100 8.708700
1.135700 8.167200
1.153300 7.781100
1.171000 7.714600
1.188600 8.279800
1.206200 8.618500
1.223800 9.020000
1.241400 9.375200
1.259000 8.978300
1.276700 8.717100
1.294300 8.133100
1.311900 7.429800
1.329500 6.964200
1.347100 6.095100
1.364700 5.486800
1.382400 5.020300
1.400000 4.706000
1.417600 4.704700
1.435200 5.122700
1.452800 5.912000
1.470400 6.113700
1.488100 6.498000
1.505700 6.465700
1.523300 5.883600
1.540900 5.661200
1.558500 5.523000
1.576100 5.473700
1.593800 5.719800
1.611400 6.207200
1.629000 6.735700
1.646600 6.744000
1.664200 6.762800
1.681800 6.613100
1.699500 6.965800
1.717100 8.446600
1.734700 8.844400
1.752300 9.487700
1.769900 10.580300
1.787500 11.282800
1.805200 10.624600
1.822800 10.322700
1.840400 8.953200
1.858000 8.027300
1.875600 7.393400
1.893200 6.895000
1.910900 6.698600
1.928500 6.964200
1.946100 6.952500
1.963700 7.049700
1.981300 7.207700
1.998900 7.282000
2.016600 7.328900
2.034200 6.911700
2.051800 6.589000
2.069400 6.457200
2.087000 6.271400
2.104600 5.679400
2.122300 5.422200
2.139900 5.396600
2.157500 5.559000
2.175100 5.893800
2.192700 6.245400
2.210300 6.799500
2.228000 7.395900
2.245600 8.161600
2.263200 8.573800
2.280800 8.624000
2.298400 8.205700
2.316000 7.980700
2.333700 7.707800
2.351300 7.315500
2.368900 6.906100
2.386500 6.869200
2.404100 7.131000
2.421700 6.929800
2.439400 6.840100
2.457000 7.359200
2.474600 9.068100
2.492200 9.949900
2.509800 10.432300
2.527400 11.878700
2.545100 12.285000
2.562700 13.061600
2.580300 12.655300
2.597900 11.160800
2.615500 11.215800
2.633100 14.082000
2.650700 13.187400
2.668400 13.434500
2.686000 14.898000
2.703600 17.135300
2.721200 15.729100
2.738800 13.404800
2.756400 11.006200
2.774100 11.491700
2.791700 15.591400
2.809300 16.774700
2.826900 17.632300
2.844500 19.205300
2.862100 20.029500
2.879800 16.661700
2.897400 18.506100
2.915000 21.031800
2.932600 20.630400
2.950200 17.092100
2.967800 15.681500
2.985500 17.239200
3.003100 18.794300
3.020700 17.514400
3.038300 14.551200
3.055900 13.771300
3.073500 13.409400
3.091200 12.085200
3.108800 15.555000
3.126400 20.729100
3.144000 24.698200
3.161600 21.374700
3.179200 15.530600
3.196900 15.496600
3.214500 15.883600
3.232100 17.380400
3.249700 25.257400
3.267300 23.054600
3.284900 20.431900
3.302600 21.282600
3.320200 22.293700
3.337800 20.096000
3.355400 21.519100
3.373000 18.747500
3.390600 13.693300
3.408300 12.277300
3.425900 12.024900
3.443500 11.589700
3.461100 12.426500
3.478700 13.836500
3.496300 17.734300
3.514000 24.794500
3.531600 23.111200
3.549200 20.323500
3.566800 14.532900
3.584400 12.845900
3.602000 13.336700
3.619700 11.862000
3.637300 8.241300
3.654900 8.065300
3.672500 8.847600
3.690100 7.524000
3.707700 7.381100
3.725400 8.248900
3.743000 9.973300
3.760600 10.378600
3.778200 10.949200
3.795800 11.679000
3.813400 11.652300
3.831100 11.441600
3.848700 10.393300
3.866300 7.622900
3.883900 3.375900
3.901500 0.812200
3.919100 0.000000
3.936800 0.000000
3.954400 0.000000
3.972000 0.000000
3.989600 0.000000
4.007200 0.000000
4.024800 0.000000
4.042500 0.000000
4.060100 0.000000
4.077700 0.000000
4.095300 0.000000
4.112900 0.000000
4.130500 0.000000
4.148200 0.000000
4.165800 0.000000
4.183400 0.000000
4.201000 0.000000
4.218600 0.000000
4.236200 0.000000
4.253900 0.000000
4.271500 0.000000
4.289100 0.000000
4.306700 0.000000
4.324300 0.000000
4.341900 0.000000
4.359500 0.000000
4.377200 0.000000
4.394800 0.000000
4.412400 0.000000
4.430000 0.000000
4.447600 0.000000
4.465200 0.000000
4.482900 0.000000
4.500500 0.000000
4.518100 0.000000
4.535700 0.000000
4.553300 0.000000
4.570900 0.000000
4.588600 0.000000
4.606200 0.000000
4.623800 0.000000
4.641400 0.000000
4.659000 0.000000
4.676600 0.000000
4.694300 0.000000
4.711900 0.000000
4.729500 0.000000
4.747100 0.000000
4.764700 0.000000
4.782300 0.000000
4.800000 0.000000
4.817600 0.000000
4.835200 0.000000
4.852800 0.000000
4.870400 0.000000
4.888000 0.000000
4.905700 0.000000
4.923300 0.000000
4.940900 0.013500
4.958500 0.139300
4.976100 0.298100
4.993700 0.418200
5.011400 0.542400
5.029000 0.606200
5.046600 0.719300
5.064200 0.848000
5.081800 0.986600
5.099400 1.110600
5.117100 1.203100
5.134700 1.263700
5.152300 1.336600
5.169900 1.417100
5.187500 1.508700
5.205100 1.617300
5.222800 1.767500
5.240400 1.947600
5.258000 2.159300
5.275600 2.404100
5.293200 2.511700
5.310800 2.491300
5.328500 2.576000
5.346100 2.749700
5.363700 3.013500
5.381300 3.257900
5.398900 3.975000
5.416500 4.393200
5.434200 4.464600
5.451800 4.504900
5.469400 4.204400
5.487000 4.076900
5.504600 3.957800
5.522200 3.780500
5.539900 3.605000
5.557500 3.410600
5.575100 3.349000
5.592700 3.370700
5.610300 3.348700
5.627900 3.265600
5.645600 2.793300
5.663200 2.483100
5.680800 2.278200
5.698400 2.150200
5.716000 2.095500
5.733600 2.089300
5.751300 2.098600
5.768900 2.102500
5.786500 2.118900
5.804100 2.163900
5.821700 2.271100
5.839300 2.410500
5.857000 2.539400
5.874600 2.631800
5.892200 2.602600
5.909800 2.768500
5.927400 2.772200
5.945000 2.792200
5.962700 2.849200
5.980300 2.768900
5.997900 2.728700
6.015500 2.729300
6.033100 2.733200
6.050700 2.752400
6.068300 2.765400
6.086000 2.825400
6.103600 2.737900
6.121200 2.887200
6.138800 2.969300
6.156400 2.995800
6.174000 3.061700
6.191700 3.169400
6.209300 3.410400
6.226900 3.751200
6.244500 3.658500
6.262100 3.274200
6.279700 3.159700
6.297400 3.070800
6.315000 2.661800
6.332600 2.220700
6.350200 1.771500
6.367800 1.616100
6.385400 1.522500
6.403100 1.446300
6.420700 1.386900
6.438300 1.364300
6.455900 1.304200
6.473500 1.236900
6.491100 1.164600
6.508800 1.086600
6.526400 0.999700
6.544000 0.921300
6.561600 0.862800
6.579200 0.815000
6.596800 0.767000
6.614500 0.716800
6.632100 0.667700
6.649700 0.627000
6.667300 0.585700
6.684900 0.548700
6.702500 0.514700
6.720200 0.479500
6.737800 0.444400
6.755400 0.413300
6.773000 0.385400
6.790600 0.356300
6.808200 0.325300
6.825900 0.292500
6.843500 0.270700
6.861100 0.242000
6.878700 0.213900
6.896300 0.186300
6.913900 0.160500
6.931600 0.128000
6.949200 0.086000
6.966800 0.040500
6.984400 0.005600
7.002000 0.000000
7.019600 0.000000
7.037300 0.000000
7.054900 0.000000
7.072500 0.000000
7.090100 0.000000
7.107700 0.000000
7.125300 0.000000
7.143000 0.000000
7.160600 0.000000
7.178200 0.000000
7.195800 0.000000
7.213400 0.000000
7.231000 0.000000
7.248700 0.000000
7.266300 0.000000
7.283900 0.000000
7.301500 0.000000
7.319100 0.000000
7.336700 0.000000
7.354400 0.000000
7.372000 0.000000
7.389600 0.000000
7.407200 0.000000
7.424800 0.000000
7.442400 0.000000
7.460100 0.000000
7.477700 0.000000
7.495300 0.000000
7.512900 0.000000
7.530500 0.000000
7.548100 0.000000
7.565800 0.000000
7.583400 0.000000
7.601000 0.000000
7.618600 0.000000
7.636200 0.000000
7.653800 0.000000
7.671500 0.000000
7.689100 0.000000
7.706700 0.000000
7.724300 0.000000
7.741900 0.000000
7.759500 0.000000
7.777100 0.000000
7.794800 0.000000
7.812400 0.000000
7.830000 0.000000
7.847600 0.000000
7.865200 0.000000
7.882800 0.000000
7.900500 0.000000
7.918100 0.000000
7.935700 0.377700
7.953300 1.289800
7.970900 1.406600
7.988500 1.667200
8.006200 1.675100
8.023800 2.451500
8.041400 3.028100
8.059000 2.527600
8.076600 2.539900
8.094200 2.617500
8.111900 2.653200
8.129500 2.715000
8.147100 2.806500
8.164700 2.933700
8.182300 3.028500
8.199900 3.146800
8.217600 3.294200
8.235200 3.470600
8.252800 3.701300
8.270400 3.950100
8.288000 4.373400
8.305600 5.074000
8.323300 5.326000
8.340900 5.454400
8.358500 5.824400
8.376100 5.942400
8.393700 5.271300
8.411300 4.519300
8.429000 4.047200
8.446600 3.682800
8.464200 3.610600
8.481800 3.720200
8.499400 3.885800
8.517000 4.099800
8.534700 3.952200
8.552300 3.526400
8.569900 3.337200
8.587500 3.211700
8.605100 3.109900
8.622700 3.076400
8.640400 3.195200
8.658000 3.345100
8.675600 3.585300
8.693200 3.910100
8.710800 4.205200
8.728400 4.403600
8.746100 4.699100
8.763700 5.371700
8.781300 6.097700
8.798900 7.068700
8.816500 7.444400
8.834100 7.200300
8.851800 6.795200
8.869400 7.079600
8.887000 5.897900
8.904600 4.964100
8.922200 4.562700
8.939800 4.256700
8.957500 4.045800
8.975100 3.387500
8.992700 2.342100
9.010300 2.323700
9.027900 3.106900
9.045500 4.078100
9.063200 5.653600
9.080800 7.187200
9.098400 7.862500
9.116000 8.496200
9.133600 9.016700
9.151200 8.542000
9.168900 7.578900
9.186500 6.750500
9.204100 5.494100
9.221700 5.239900
9.239300 4.972600
9.256900 4.975400
9.274600 5.072000
9.292200 6.191300
9.309800 6.800400
9.327400 6.415000
9.345000 6.457900
9.362600 6.620400
9.380300 7.108200
9.397900 7.368700
9.415500 7.668800
9.433100 5.891300
9.450700 3.638200
9.468300 2.963400
9.485900 3.035700
9.503600 3.180200
9.521200 3.086600
9.538800 2.870800
9.556400 2.743900
9.574000 2.785000
9.591600 2.391000
9.609300 2.376400
9.626900 2.372500
9.644500 2.372700
9.662100 2.398800
9.679700 2.464900
9.697300 2.514900
9.715000 2.571300
9.732600 2.617000
9.750200 2.687300
9.767800 2.700900
9.785400 2.729600
9.803000 2.781200
9.820700 2.829800
9.838300 2.869500
9.855900 2.856500
9.873500 2.925400
9.891100 3.067100
9.908700 3.089200
9.926400 3.171000
9.944000 3.279000
9.961600 3.418300
9.979200 3.521600
9.996800 3.602600
10.014400 3.707600
10.032100 3.741900
10.049700 3.726700
10.067300 3.749600
10.084900 3.691400
10.102500 3.841700
10.120100 3.849500
10.137800 4.170800
10.155400 4.475100
10.173000 4.914200
10.190600 5.172600
10.208200 5.093400
10.225800 5.340800
10.243500 4.862500
10.261100 4.407400
10.278700 3.773300
10.296300 3.566300
10.313900 3.248200
10.331500 3.251000
10.349200 3.428000
10.366800 3.688300
10.384400 3.829400
10.402000 4.024300
10.419600 4.344000
10.437200 4.773700
10.454900 5.202500
10.472500 5.624300
10.490100 6.087700
10.507700 6.537100
10.525300 6.704400
10.542900 6.958700
10.560600 6.452600
10.578200 6.278300
10.595800 6.080300
10.613400 5.346500
10.631000 4.972700
10.648600 4.791800
10.666300 4.762500
10.683900 5.019500
10.701500 4.250000
10.719100 3.785600
10.736700 3.177300
10.754300 3.049200
10.772000 3.188000
10.789600 3.473800
10.807200 4.153700
10.824800 5.134600
10.842400 5.843700
10.860000 6.186700
10.877700 6.190200
10.895300 6.025500
10.912900 5.584400
10.930500 5.391800
10.948100 5.321700
10.965700 5.164600
10.983400 5.101400
11.001000 5.069300
11.018600 5.517200
11.036200 5.888400
11.053800 5.445800
11.071400 5.469500
11.089100 5.731600
11.106700 6.096300
11.124300 6.569500
11.141900 6.466500
11.159500 6.054900
11.177100 5.716400
11.194700 5.519600
11.212400 5.421000
11.230000 5.297800
11.247600 5.198400
11.265200 5.029300
11.282800 4.927600
11.300400 4.852900
11.318100 4.685500
11.335700 4.746400
11.353300 3.824100
11.370900 3.655000
11.388500 3.835900
11.406100 3.687000
11.423800 3.564600
11.441400 3.404200
11.459000 3.771300
11.476600 3.914000
11.494200 3.707900
11.511800 3.265500
11.529500 2.980600
11.547100 2.798100
11.564700 2.736500
11.582300 2.776000
11.599900 2.580300
11.617500 2.455900
11.635200 2.291400
11.652800 2.219700
11.670400 2.278000
11.688000 2.051000
11.705600 1.885000
11.723200 2.000000
11.740900 2.174100
11.758500 2.366300
11.776100 2.633700
11.793700 2.923900
11.811300 2.978500
11.828900 3.014100
11.846600 2.976300
11.864200 2.818900
11.881800 3.002300
11.899400 2.761000
11.917000 2.628100
11.934600 2.675800
11.952300 2.789800
11.969900 2.902400
11.987500 3.214900
12.005100 3.328100
12.022700 3.545100
12.040300 3.766500
12.058000 4.000700
12.075600 4.271600
12.093200 4.511600
12.110800 4.854100
12.128400 5.328300
12.146000 5.691800
12.163700 5.990500
12.181300 6.216500
12.198900 6.556700
12.216500 7.169900
12.234100 7.069800
12.251700 7.089900
12.269400 6.920700
12.287000 6.680500
12.304600 6.655400
12.322200 7.260300
12.339800 7.112800
12.357400 7.995200
12.375100 7.521900
12.392700 7.277100
12.410300 5.418700
12.427900 4.534900
12.445500 3.920800
12.463100 3.859400
12.480800 3.549000
12.498400 3.313500
12.516000 2.537200
12.533600 0.812300
12.551200 0.000000
12.568800 0.000000
12.586500 0.000000
12.604100 0.000000
12.621700 0.000000
12.639300 0.000000
12.656900 0.000000
12.674500 0.000000
12.692200 0.000000
12.709800 0.000000
12.727400 0.000000
12.745000 0.000000
12.762600 0.000000
12.780200 0.000000
12.797900 0.000000
12.815500 0.000000
12.833100 0.072000
12.850700 0.372300
12.868300 1.028100
12.885900 1.740800
12.903500 3.456700
12.921200 4.163400
12.938800 4.968300
12.956400 4.887200
12.974000 4.762100
12.991600 4.661100
13.009200 4.822600
13.026900 5.141600
13.044500 5.272600
13.062100 5.093000
13.079700 4.842600
13.097300 5.081400
13.114900 5.740500
13.132600 5.535600
13.150200 4.888000
13.167800 4.064600
13.185400 3.859000
13.203000 3.525800
13.220600 3.220300
13.238300 3.016400
13.255900 2.917000
13.273500 3.036600
13.291100 2.915000
13.308700 2.664400
13.326300 2.452200
13.344000 2.499800
13.361600 2.197100
13.379200 2.116800
13.396800 2.119900
13.414400 2.372000
13.432000 2.597400
13.449700 2.903500
13.467300 3.360000
13.484900 3.406300
13.502500 3.639000
13.520100 4.422300
13.537700 4.994600
13.555400 5.823700
13.573000 5.418700
13.590600 4.632700
13.608200 3.897600
13.625800 3.694800
13.643400 3.383300
13.661100 3.211600
13.678700 3.076600
13.696300 2.968100
13.713900 2.932200
13.731500 2.737500
13.749100 2.600900
13.766800 2.500600
13.784400 2.432400
13.802000 2.373200
13.819600 2.254100
13.837200 2.151900
13.854800 2.074300
13.872500 2.067300
13.890100 2.117300
13.907700 2.051100
13.925300 1.758600
13.942900 1.601500
13.960500 1.472800
13.978200 1.365800
13.995800 1.240100
14.013400 1.154200
14.031000 1.080200
14.048600 1.025300
14.066200 0.990600
14.083900 0.979800
14.101500 0.942400
14.119100 0.885400
14.136700 0.899600
14.154300 1.312600
14.171900 0.573500
14.189600 0.493200
14.207200 0.935900
14.224800 1.247300
14.242400 1.474500
14.260000 1.761400
14.277600 2.158200
14.295300 2.741600
14.312900 3.095600
14.330500 3.313300
14.348100 3.657000
14.365700 3.818800
14.383300 4.450400
14.401000 4.380300
14.418600 4.203800
14.436200 4.233500
14.453800 4.289400
14.471400 4.406400
14.489000 4.523000
14.506700 4.482900
14.524300 4.473500
14.541900 4.488300
14.559500 4.619100
14.577100 4.678800
14.594700 4.112400
14.612300 3.520100
14.630000 3.523600
14.647600 3.533100
14.665200 3.586100
14.682800 3.758400
14.700400 4.054500
14.718000 4.426600
14.735700 4.672000
14.753300 4.790600
14.770900 5.156500
14.788500 5.478700
14.806100 5.837400
14.823700 6.118600
14.841400 6.430300
14.859000 6.716300
14.876600 7.138700
14.894200 7.549100
14.911800 7.748200
14.929400 7.830700
14.947100 6.991000
14.964700 6.437600
14.982300 6.368400
14.999900 6.600600
15.017500 6.595300
15.035100 6.378300
15.052800 6.065500
15.070400 4.654300
15.088000 4.061800
15.105600 3.992600
15.123200 4.127100
15.140800 3.872100
15.158500 3.697200
15.176100 3.505700
15.193700 3.438900
15.211300 3.373700
15.228900 3.241600
15.246500 3.119800
15.264200 2.933600
15.281800 2.928900
15.299400 2.911200
15.317000 2.859100
15.334600 2.843600
15.352200 2.891600
15.369900 3.079100
15.387500 3.357300
15.405100 3.559200
15.422700 3.697600
15.440300 3.847500
15.457900 3.924600
15.475600 4.005400
15.493200 4.122200
15.510800 4.286700
15.528400 4.602900
15.546000 4.545500
15.563600 4.257400
15.581300 4.261400
15.598900 4.328600
15.616500 4.524400
15.634100 4.962200
15.651700 5.609900
15.669300 5.765500
15.687000 6.031400
15.704600 5.879500
15.722200 5.431500
15.739800 4.730900
15.757400 4.920400
15.775000 5.726100
15.792700 5.960800
15.810300 6.263100
15.827900 6.431500
15.845500 6.358400
15.863100 6.082900
15.880700 5.203900
15.898400 4.639600
15.916000 4.513500
15.933600 4.332400
15.951200 4.411000
15.968800 4.855400
15.986400 4.752300
16.004100 4.738400
16.021700 4.457200
16.039300 3.993200
16.056900 4.199700
16.074500 5.162800
16.092100 6.335300
16.109800 7.979000
16.127400 9.224200
16.145000 11.187300
16.162600 11.170200
16.180200 10.632700
16.197800 10.061600
16.215500 8.347600
16.233100 6.652100
16.250700 5.387000
16.268300 5.389200
16.285900 5.301100
16.303500 5.292500
16.321100 5.136600
16.338800 5.113800
16.356400 5.190800
16.374000 5.355000
16.391600 5.654800
16.409200 5.845100
16.426800 6.244300
16.444500 6.439400
16.462100 6.988200
16.479700 7.011500
16.497300 6.751400
16.514900 6.709200
16.532500 6.560200
16.550200 6.830100
16.567800 7.773600
16.585400 6.706800
16.603000 5.833700
16.620600 5.886100
16.638200 6.044700
16.655900 6.208900
16.673500 6.250200
16.691100 6.032600
16.708700 5.579200
16.726300 5.119700
16.743900 5.030700
16.761600 5.001200
16.779200 5.009200
16.796800 5.091800
16.814400 5.010900
16.832000 5.004600
16.849600 4.901800
16.867300 4.749600
16.884900 4.593700
16.902500 4.744400
16.920100 4.896200
16.937700 4.976600
16.955300 4.947100
16.973000 5.244900
16.990600 5.518200
17.008200 6.138200
17.025800 6.263500
17.043400 6.373200
17.061000 6.839100
17.078700 6.941900
17.096300 7.048900
17.113900 6.824100
17.131500 6.318100
17.149100 5.720400
17.166700 5.689900
17.184400 5.898400
17.202000 5.664300
17.219600 4.559600
17.237200 3.739700
17.254800 2.947000
17.272400 2.775000
17.290100 2.610900
17.307700 2.209700
17.325300 1.755400
17.342900 1.396600
17.360500 0.990900
17.378100 0.712100
17.395800 0.470500
17.413400 0.245700
17.431000 0.121300
17.448600 0.051400
17.466200 0.013300
17.483800 0.000100
17.501500 0.000000
17.519100 0.000000
17.536700 0.000000
17.554300 0.000000
17.571900 0.000000
17.589500 0.000000
17.607200 0.000000
17.624800 0.000000
17.642400 0.000000
17.660000 0.000000
17.677600 0.000000
17.695200 0.000000
17.712900 0.000000
17.730500 0.000000
17.748100 0.000000
17.765700 0.000000
17.783300 0.000000
17.800900 0.000000
17.818600 0.000000
17.836200 0.000000
17.853800 0.000000
17.871400 0.000000
17.889000 0.000000
17.906600 0.000000
17.924300 0.000000
17.941900 0.000000
17.959500 0.000000
17.977100 0.000000
17.994700 0.000000
18.012300 0.000000
18.029900 0.000000
18.047600 0.000000
18.065200 0.000000
18.082800 0.000000
18.100400 0.000000
18.118000 0.000000
18.135600 0.000000
18.153300 0.000000
18.170900 0.000000
18.188500 0.000000
18.206100 0.000000
18.223700 0.000000
18.241300 0.000000
18.259000 0.000000
18.276600 0.000000
18.294200 0.000000
18.311800 0.000000
18.329400 0.000000
18.347000 0.000000
18.364700 0.000000
18.382300 0.000000
18.399900 0.000000
18.417500 0.000000
18.435100 0.000000
18.452700 0.000000
18.470400 0.000000
18.488000 0.000000
18.505600 0.000000
18.523200 0.000000
18.540800 0.000000
18.558400 0.000000
18.576100 0.000000
18.593700 0.000000
18.611300 0.000000
18.628900 0.000000
18.646500 0.000000
18.664100 0.000000
18.681800 0.000000
18.699400 0.000000
18.717000 0.000000
18.734600 0.000000
18.752200 0.000000
18.769800 0.000000
18.787500 0.000000
18.805100 0.000000
18.822700 0.000000
18.840300 0.000000
18.857900 0.000000
18.875500 0.000000
18.893200 0.000000
18.910800 0.000000
18.928400 0.000000
18.946000 0.000000
18.963600 0.000000
18.981200 0.000000
18.998900 0.000000
19.016500 0.000000
19.034100 0.000000
19.051700 0.000000
19.069300 0.000000
19.086900 0.000000
e
