set title 'mp-861891 - Density of States'
set xlabel 'Energy (eV)'
set ylabel 'DOS (states/eV)'
set grid
set xrange [-10:10]
set yrange [0:38.947]
set xzeroaxis lt -1
set terminal png size 800,600
set output 'mp-861891_dos_gnuplot.png'
plot '-' using 1:2 with lines title 'DOS'
-17.973900 0.000000
-17.957800 0.000000
-17.941600 0.000000
-17.925400 0.000000
-17.909200 0.000000
-17.893000 0.000000
-17.876800 0.000000
-17.860700 0.000000
-17.844500 0.000000
-17.828300 0.000000
-17.812100 0.000000
-17.795900 0.000000
-17.779700 0.000000
-17.763500 0.000000
-17.747400 0.000000
-17.731200 0.000000
-17.715000 0.000000
-17.698800 0.000000
-17.682600 0.000000
-17.666400 0.000000
-17.650200 0.000000
-17.634100 0.000000
-17.617900 0.000000
-17.601700 0.000000
-17.585500 0.000000
-17.569300 0.000000
-17.553100 0.000000
-17.537000 0.000000
-17.520800 0.000000
-17.504600 0.000000
-17.488400 0.000000
-17.472200 0.000000
-17.456000 0.000000
-17.439800 0.000000
-17.423700 0.000000
-17.407500 0.000000
-17.391300 0.000000
-17.375100 0.000000
-17.358900 0.000000
-17.342700 0.000000
-17.326500 0.000000
-17.310400 0.000000
-17.294200 0.000000
-17.278000 0.000000
-17.261800 0.000000
-17.245600 0.000000
-17.229400 0.000000
-17.213300 0.000000
-17.197100 0.000000
-17.180900 0.000000
-17.164700 0.000000
-17.148500 0.000000
-17.132300 0.000000
-17.116100 0.000000
-17.100000 0.000000
-17.083800 0.000000
-17.067600 0.000000
-17.051400 0.000000
-17.035200 0.000000
-17.019000 0.000000
-17.002800 0.000000
-16.986700 0.000000
-16.970500 0.000000
-16.954300 0.000000
-16.938100 0.000000
-16.921900 0.000000
-16.905700 0.000000
-16.889600 0.000000
-16.873400 0.000000
-16.857200 0.000000
-16.841000 0.000000
-16.824800 0.000000
-16.808600 0.000000
-16.792400 0.000000
-16.776300 0.000000
-16.760100 0.000000
-16.743900 0.000000
-16.727700 0.000000
-16.711500 0.000000
-16.695300 0.000000
-16.679200 0.000000
-16.663000 0.000000
-16.646800 0.000000
-16.630600 0.000000
-16.614400 0.000000
-16.598200 0.000000
-16.582000 0.000000
-16.565900 0.000000
-16.549700 0.000000
-16.533500 0.000000
-16.517300 0.000000
-16.501100 0.004200
-16.484900 0.597600
-16.468700 3.311900
-16.452600 3.933800
-16.436400 5.769100
-16.420200 7.607500
-16.404000 7.886800
-16.387800 7.887100
-16.371600 7.887300
-16.355500 7.884900
-16.339300 7.495500
-16.323100 5.729700
-16.306900 5.389600
-16.290700 4.063400
-16.274500 3.027200
-16.258300 2.885900
-16.242200 2.886000
-16.226000 2.886000
-16.209800 2.886000
-16.193600 2.886000
-16.177400 2.886000
-16.161200 2.886100
-16.145000 2.886100
-16.128900 2.886100
-16.112700 2.886100
-16.096500 2.886200
-16.080300 2.886200
-16.064100 2.886200
-16.047900 2.886200
-16.031800 2.886200
-16.015600 2.886300
-15.999400 2.886300
-15.983200 2.886300
-15.967000 2.886300
-15.950800 2.881600
-15.934600 2.805500
-15.918500 2.673900
-15.902300 2.638500
-15.886100 2.515000
-15.869900 2.495300
-15.853700 2.495300
-15.837500 2.495400
-15.821300 2.495400
-15.805200 2.495500
-15.789000 2.495500
-15.772800 2.495500
-15.756600 2.495600
-15.740400 2.495600
-15.724200 2.495700
-15.708100 2.495700
-15.691900 2.495700
-15.675700 2.495800
-15.659500 2.495800
-15.643300 2.495900
-15.627100 2.495900
-15.610900 2.496000
-15.594800 2.496000
-15.578600 2.496000
-15.562400 2.496100
-15.546200 2.496100
-15.530000 2.496200
-15.513800 2.496200
-15.497600 2.496300
-15.481500 2.496300
-15.465300 48.911100
-15.449100 45.718700
-15.432900 16.616600
-15.416700 16.616600
-15.400500 16.616600
-15.384400 6.981600
-15.368200 6.981600
-15.352000 6.981600
-15.335800 6.981600
-15.319600 6.981700
-15.303400 6.981700
-15.287200 6.981700
-15.271100 6.981700
-15.254900 6.981700
-15.238700 6.981700
-15.222500 8.073800
-15.206300 8.073800
-15.190100 8.073800
-15.173900 8.073800
-15.157800 8.073800
-15.141600 8.073800
-15.125400 8.073900
-15.109200 8.073900
-15.093000 8.073900
-15.076800 0.000000
-15.060700 0.000000
-15.044500 0.000000
-15.028300 0.000000
-15.012100 0.000000
-14.995900 0.000000
-14.979700 0.000000
-14.963500 0.000000
-14.947400 0.000000
-14.931200 0.000000
-14.915000 0.000000
-14.898800 0.000000
-14.882600 0.000000
-14.866400 0.000000
-14.850300 0.000000
-14.834100 0.000000
-14.817900 0.000000
-14.801700 0.000000
-14.785500 0.000000
-14.769300 0.000000
-14.753100 0.000000
-14.737000 0.000000
-14.720800 0.000000
-14.704600 0.000000
-14.688400 0.000000
-14.672200 0.000000
-14.656000 0.000000
-14.639800 0.000000
-14.623700 0.000000
-14.607500 0.000000
-14.591300 0.000000
-14.575100 0.000000
-14.558900 0.000000
-14.542700 0.000000
-14.526600 0.000000
-14.510400 0.000000
-14.494200 0.000000
-14.478000 0.000000
-14.461800 0.000000
-14.445600 0.000000
-14.429400 0.000000
-14.413300 0.000000
-14.397100 0.000000
-14.380900 0.000000
-14.364700 0.000000
-14.348500 0.000000
-14.332300 0.000000
-14.316100 0.000000
-14.300000 0.000000
-14.283800 0.000000
-14.267600 0.000000
-14.251400 0.000000
-14.235200 0.000000
-14.219000 0.000000
-14.202900 0.000000
-14.186700 0.000000
-14.170500 0.000000
-14.154300 0.000000
-14.138100 0.000000
-14.121900 0.000000
-14.105700 0.000000
-14.089600 0.000000
-14.073400 0.000000
-14.057200 0.000000
-14.041000 0.000000
-14.024800 0.000000
-14.008600 0.000000
-13.992400 0.000000
-13.976300 0.000000
-13.960100 0.000000
-13.943900 0.000000
-13.927700 0.000000
-13.911500 0.000000
-13.895300 0.000000
-13.879200 0.000000
-13.863000 0.000000
-13.846800 0.000000
-13.830600 0.000000
-13.814400 0.000000
-13.798200 0.000000
-13.782000 0.000000
-13.765900 0.000000
-13.749700 0.000000
-13.733500 0.000000
-13.717300 0.000000
-13.701100 0.000000
-13.684900 0.000000
-13.668700 0.000000
-13.652600 0.000000
-13.636400 0.000000
-13.620200 0.000000
-13.604000 0.000000
-13.587800 0.000000
-13.571600 0.000000
-13.555500 0.000000
-13.539300 0.000000
-13.523100 0.000000
-13.506900 0.000000
-13.490700 0.000000
-13.474500 0.000000
-13.458300 0.000000
-13.442200 0.000000
-13.426000 0.000000
-13.409800 0.000000
-13.393600 0.000000
-13.377400 0.000000
-13.361200 0.000000
-13.345000 0.000000
-13.328900 3.983600
-13.312700 1.060100
-13.296500 25.527900
-13.280300 3.268500
-13.264100 2.071200
-13.247900 2.071200
-13.231800 2.071100
-13.215600 2.071100
-13.199400 2.071000
-13.183200 2.071000
-13.167000 2.071000
-13.150800 2.070900
-13.134600 2.070900
-13.118500 2.070800
-13.102300 2.070800
-13.086100 2.070800
-13.069900 2.070700
-13.053700 2.070700
-13.037500 2.070700
-13.021400 2.070600
-13.005200 2.070600
-12.989000 2.070500
-12.972800 2.070500
-12.956600 2.070500
-12.940400 2.070400
-12.924200 2.070400
-12.908100 2.070300
-12.891900 2.070300
-12.875700 2.070300
-12.859500 2.070200
-12.843300 2.070200
-12.827100 2.070200
-12.810900 2.070100
-12.794800 2.084200
-12.778600 2.148100
-12.762400 2.237600
-12.746200 2.237500
-12.730000 2.330700
-12.713800 2.407800
-12.697700 2.424600
-12.681500 2.424500
-12.665300 2.424500
-12.649100 2.424500
-12.632900 2.424400
-12.616700 2.424400
-12.600500 2.424300
-12.584400 2.424300
-12.568200 2.424200
-12.552000 2.424200
-12.535800 2.424100
-12.519600 2.424100
-12.503400 2.424000
-12.487200 2.424000
-12.471100 2.423900
-12.454900 2.423900
-12.438700 2.423900
-12.422500 2.423800
-12.406300 2.423800
-12.390100 2.423700
-12.374000 2.423700
-12.357800 2.423600
-12.341600 2.480200
-12.325400 2.787300
-12.309200 3.829200
-12.293000 4.770400
-12.276800 4.769700
-12.260700 5.297000
-12.244500 6.577700
-12.228300 6.946500
-12.212100 7.061700
-12.195900 7.060600
-12.179700 6.912700
-12.163500 6.403200
-12.147400 4.737400
-12.131200 3.489200
-12.115000 3.488500
-12.098800 2.822700
-12.082600 0.839500
-12.066400 0.254400
-12.050300 0.008600
-12.034100 0.000000
-12.017900 0.000000
-12.001700 0.000000
-11.985500 0.000000
-11.969300 0.000000
-11.953100 0.000000
-11.937000 0.000000
-11.920800 0.000000
-11.904600 0.000000
-11.888400 0.000000
-11.872200 0.000000
-11.856000 0.000000
-11.839800 0.000000
-11.823700 0.000000
-11.807500 0.000000
-11.791300 0.000000
-11.775100 0.000000
-11.758900 0.000000
-11.742700 0.000000
-11.726600 0.000000
-11.710400 0.000000
-11.694200 0.000000
-11.678000 0.000000
-11.661800 0.000000
-11.645600 0.000000
-11.629400 0.000000
-11.613300 0.000000
-11.597100 0.000000
-11.580900 0.000000
-11.564700 0.000000
-11.548500 0.000000
-11.532300 0.000000
-11.516100 0.000000
-11.500000 0.000000
-11.483800 0.000000
-11.467600 0.000000
-11.451400 0.000000
-11.435200 0.000000
-11.419000 0.000000
-11.402900 0.000000
-11.386700 0.000000
-11.370500 0.000000
-11.354300 0.000000
-11.338100 0.000000
-11.321900 0.000000
-11.305700 0.000000
-11.289600 0.000000
-11.273400 0.000000
-11.257200 0.000000
-11.241000 0.000000
-11.224800 0.000000
-11.208600 0.000000
-11.192500 0.000000
-11.176300 0.000000
-11.160100 0.000000
-11.143900 0.000000
-11.127700 0.000000
-11.111500 0.000000
-11.095300 0.000000
-11.079200 0.000000
-11.063000 0.000000
-11.046800 0.000000
-11.030600 0.000000
-11.014400 0.000000
-10.998200 0.000000
-10.982000 0.000000
-10.965900 0.000000
-10.949700 0.000000
-10.933500 0.000000
-10.917300 0.000000
-10.901100 0.000000
-10.884900 0.000000
-10.868800 0.000000
-10.852600 0.000000
-10.836400 0.000000
-10.820200 0.000000
-10.804000 0.000000
-10.787800 0.000000
-10.771600 0.000000
-10.755500 0.000000
-10.739300 0.000000
-10.723100 0.000000
-10.706900 0.000000
-10.690700 0.000000
-10.674500 0.000000
-10.658300 0.000000
-10.642200 0.000000
-10.626000 0.000000
-10.609800 0.000000
-10.593600 0.000000
-10.577400 0.000000
-10.561200 0.000000
-10.545100 0.000000
-10.528900 0.000000
-10.512700 0.000000
-10.496500 0.000000
-10.480300 0.000000
-10.464100 0.000000
-10.447900 0.000000
-10.431800 0.000000
-10.415600 0.000000
-10.399400 0.000000
-10.383200 0.000000
-10.367000 0.000000
-10.350800 0.000000
-10.334600 0.000000
-10.318500 0.000000
-10.302300 0.000000
-10.286100 0.000000
-10.269900 0.000000
-10.253700 0.000000
-10.237500 0.000000
-10.221400 0.000000
-10.205200 0.000000
-10.189000 0.000000
-10.172800 0.000000
-10.156600 0.000000
-10.140400 0.000000
-10.124200 0.000000
-10.108100 0.000000
-10.091900 0.000000
-10.075700 0.000000
-10.059500 0.000000
-10.043300 0.000000
-10.027100 0.000000
-10.010900 0.000000
-9.994800 0.000000
-9.978600 0.000000
-9.962400 0.000000
-9.946200 0.000000
-9.930000 0.000000
-9.913800 0.000000
-9.897700 0.000000
-9.881500 0.000000
-9.865300 0.000000
-9.849100 0.000000
-9.832900 0.000000
-9.816700 0.000000
-9.800500 0.000000
-9.784400 0.000000
-9.768200 0.000000
-9.752000 0.000000
-9.735800 0.000000
-9.719600 0.000000
-9.703400 0.000000
-9.687200 0.000000
-9.671100 0.000000
-9.654900 0.000000
-9.638700 0.000000
-9.622500 0.000000
-9.606300 0.000000
-9.590100 0.000000
-9.574000 0.000000
-9.557800 0.000000
-9.541600 0.000000
-9.525400 0.000000
-9.509200 0.000000
-9.493000 0.000000
-9.476800 0.000000
-9.460700 0.000000
-9.444500 0.000000
-9.428300 0.000000
-9.412100 0.000000
-9.395900 0.000000
-9.379700 0.000000
-9.363600 0.000000
-9.347400 0.000000
-9.331200 0.000000
-9.315000 0.000000
-9.298800 0.000000
-9.282600 0.000000
-9.266400 0.000000
-9.250300 0.000000
-9.234100 0.000000
-9.217900 0.000000
-9.201700 0.000000
-9.185500 0.000000
-9.169300 0.000000
-9.153100 0.000000
-9.137000 0.000000
-9.120800 0.000000
-9.104600 0.000000
-9.088400 0.000000
-9.072200 0.000000
-9.056000 0.000000
-9.039900 0.000000
-9.023700 0.000000
-9.007500 0.000000
-8.991300 0.000000
-8.975100 0.000000
-8.958900 0.000000
-8.942700 0.000000
-8.926600 0.000000
-8.910400 0.000000
-8.894200 0.000000
-8.878000 0.000000
-8.861800 0.000000
-8.845600 0.000000
-8.829400 0.000000
-8.813300 0.000000
-8.797100 0.000000
-8.780900 0.000000
-8.764700 0.000000
-8.748500 0.000000
-8.732300 0.000000
-8.716200 0.000000
-8.700000 0.000000
-8.683800 0.000000
-8.667600 0.000000
-8.651400 0.000000
-8.635200 0.000000
-8.619000 0.000000
-8.602900 0.000000
-8.586700 0.000000
-8.570500 0.000000
-8.554300 0.000000
-8.538100 0.000000
-8.521900 0.000000
-8.505700 0.000000
-8.489600 0.000000
-8.473400 0.000000
-8.457200 0.000000
-8.441000 0.000000
-8.424800 0.000000
-8.408600 0.000000
-8.392500 0.000000
-8.376300 0.000000
-8.360100 0.000000
-8.343900 0.000000
-8.327700 0.000000
-8.311500 0.000000
-8.295300 0.000000
-8.279200 0.000000
-8.263000 0.000000
-8.246800 0.000000
-8.230600 0.000000
-8.214400 0.000000
-8.198200 0.000000
-8.182000 0.000000
-8.165900 0.000000
-8.149700 0.000000
-8.133500 0.000000
-8.117300 0.000000
-8.101100 0.000000
-8.084900 0.000000
-8.068800 0.000000
-8.052600 0.000000
-8.036400 0.000000
-8.020200 0.000000
-8.004000 0.000000
-7.987800 0.000000
-7.971600 0.000000
-7.955500 0.000000
-7.939300 0.000000
-7.923100 0.000000
-7.906900 0.000000
-7.890700 0.000000
-7.874500 0.000000
-7.858400 0.000000
-7.842200 0.000000
-7.826000 0.000000
-7.809800 0.000000
-7.793600 0.000000
-7.777400 0.000000
-7.761200 0.000000
-7.745100 0.000000
-7.728900 0.000000
-7.712700 0.000000
-7.696500 0.000000
-7.680300 0.000000
-7.664100 0.000000
-7.647900 0.000000
-7.631800 0.000000
-7.615600 0.000000
-7.599400 0.000000
-7.583200 0.000000
-7.567000 0.000000
-7.550800 0.000000
-7.534700 0.000000
-7.518500 0.000000
-7.502300 0.000000
-7.486100 0.000000
-7.469900 0.000000
-7.453700 0.000000
-7.437500 0.000000
-7.421400 0.000000
-7.405200 0.000000
-7.389000 0.000000
-7.372800 0.000000
-7.356600 0.000000
-7.340400 0.000000
-7.324200 0.000000
-7.308100 0.000000
-7.291900 0.000000
-7.275700 0.000000
-7.259500 0.000000
-7.243300 0.000000
-7.227100 0.000000
-7.211000 0.000000
-7.194800 0.000000
-7.178600 0.000000
-7.162400 0.000000
-7.146200 0.000000
-7.130000 0.000000
-7.113800 0.000000
-7.097700 0.000000
-7.081500 0.000000
-7.065300 0.000000
-7.049100 0.000000
-7.032900 0.000000
-7.016700 0.000000
-7.000500 0.000000
-6.984400 0.000000
-6.968200 0.000000
-6.952000 0.000000
-6.935800 0.000000
-6.919600 0.000000
-6.903400 0.000000
-6.887300 0.000000
-6.871100 0.000000
-6.854900 0.000000
-6.838700 0.000000
-6.822500 0.000000
-6.806300 0.000000
-6.790100 0.000000
-6.774000 0.000000
-6.757800 0.000000
-6.741600 0.000000
-6.725400 0.000000
-6.709200 0.000000
-6.693000 0.000000
-6.676800 0.000000
-6.660700 0.000000
-6.644500 0.000000
-6.628300 0.000000
-6.612100 0.000000
-6.595900 0.000000
-6.579700 0.000000
-6.563600 0.000000
-6.547400 0.000000
-6.531200 0.000000
-6.515000 0.000000
-6.498800 0.000000
-6.482600 0.000000
-6.466400 0.000000
-6.450300 0.000000
-6.434100 0.000000
-6.417900 0.000000
-6.401700 0.000000
-6.385500 0.000000
-6.369300 0.000000
-6.353100 0.000000
-6.337000 0.000000
-6.320800 0.000000
-6.304600 0.000000
-6.288400 0.000000
-6.272200 0.000000
-6.256000 0.000000
-6.239900 0.000000
-6.223700 0.000000
-6.207500 0.000000
-6.191300 2.359300
-6.175100 2.359200
-6.158900 2.359200
-6.142700 2.359100
-6.126600 2.359100
-6.110400 2.359100
-6.094200 2.359000
-6.078000 2.359000
-6.061800 2.358900
-6.045600 2.358900
-6.029500 2.358900
-6.013300 2.358800
-5.997100 2.358800
-5.980900 2.358800
-5.964700 2.358700
-5.948500 2.358700
-5.932300 2.358700
-5.916200 3.791100
-5.900000 10.651400
-5.883800 5.277600
-5.867600 5.277500
-5.851400 5.277500
-5.835200 5.277400
-5.819000 5.277400
-5.802900 5.277400
-5.786700 5.277400
-5.770500 5.277300
-5.754300 5.277300
-5.738100 5.277300
-5.721900 4.896700
-5.705800 4.867100
-5.689600 4.606400
-5.673400 4.580600
-5.657200 4.580600
-5.641000 4.580600
-5.624800 4.580600
-5.608600 4.580700
-5.592500 4.580700
-5.576300 4.580700
-5.560100 4.580700
-5.543900 4.580800
-5.527700 4.580800
-5.511500 3.117800
-5.495300 3.117800
-5.479200 3.117800
-5.463000 3.117700
-5.446800 3.117700
-5.430600 3.117600
-5.414400 3.117600
-5.398200 3.117600
-5.382100 3.117500
-5.365900 3.117500
-5.349700 3.117500
-5.333500 3.117400
-5.317300 3.117400
-5.301100 3.117400
-5.284900 3.117400
-5.268800 3.117300
-5.252600 3.117300
-5.236400 3.117300
-5.220200 3.117300
-5.204000 3.117200
-5.187800 3.117200
-5.171600 3.117200
-5.155500 3.117200
-5.139300 3.117200
-5.123100 3.117100
-5.106900 3.117100
-5.090700 3.117100
-5.074500 3.117100
-5.058400 3.117100
-5.042200 3.441800
-5.026000 3.603800
-5.009800 3.861300
-4.993600 4.008800
-4.977400 4.035100
-4.961200 4.032300
-4.945100 4.029600
-4.928900 4.027200
-4.912700 4.024900
-4.896500 4.022800
-4.880300 4.021000
-4.864100 4.019300
-4.847900 4.017800
-4.831800 4.016500
-4.815600 4.015500
-4.799400 4.014600
-4.783200 4.013900
-4.767000 4.038800
-4.750800 4.315400
-4.734700 4.605700
-4.718500 5.116600
-4.702300 5.205000
-4.686100 5.205400
-4.669900 5.206000
-4.653700 5.185500
-4.637500 4.856500
-4.621400 4.627200
-4.605200 4.385400
-4.589000 4.130800
-4.572800 3.863600
-4.556600 3.583700
-4.540400 3.065100
-4.524200 2.647100
-4.508100 2.647200
-4.491900 2.647400
-4.475700 2.647500
-4.459500 2.647700
-4.443300 2.647900
-4.427100 2.648200
-4.411000 2.648400
-4.394800 2.648700
-4.378600 2.649000
-4.362400 2.649300
-4.346200 2.649600
-4.330000 2.434700
-4.313800 1.302900
-4.297700 1.303000
-4.281500 0.203800
-4.265300 0.000000
-4.249100 0.000000
-4.232900 0.000000
-4.216700 0.000000
-4.200600 0.000000
-4.184400 0.000000
-4.168200 0.000000
-4.152000 0.000000
-4.135800 0.000000
-4.119600 0.000000
-4.103400 0.000000
-4.087300 0.000000
-4.071100 0.000000
-4.054900 0.000000
-4.038700 0.000000
-4.022500 2.092600
-4.006300 2.916800
-3.990100 3.576300
-3.974000 4.252000
-3.957800 4.944100
-3.941600 5.652400
-3.925400 6.377000
-3.909200 7.117900
-3.893000 7.621300
-3.876900 8.187000
-3.860700 15.212300
-3.844500 6.485900
-3.828300 5.038200
-3.812100 4.189500
-3.795900 3.934700
-3.779700 3.909800
-3.763600 3.888500
-3.747400 3.870900
-3.731200 3.856900
-3.715000 3.846600
-3.698800 3.839900
-3.682600 3.671200
-3.666400 3.610000
-3.650300 3.518400
-3.634100 3.427800
-3.617900 3.338400
-3.601700 3.250200
-3.585500 3.163000
-3.569300 3.077100
-3.553200 2.992200
-3.537000 2.908500
-3.520800 2.826000
-3.504600 2.663800
-3.488400 2.613000
-3.472200 2.614100
-3.456000 2.615100
-3.439900 2.616100
-3.423700 2.617100
-3.407500 2.618100
-3.391300 2.619100
-3.375100 2.620100
-3.358900 2.621100
-3.342700 2.622100
-3.326600 2.623100
-3.310400 2.624100
-3.294200 2.625100
-3.278000 2.626100
-3.261800 2.627100
-3.245600 2.628100
-3.229500 2.629000
-3.213300 3.752800
-3.197100 4.569500
-3.180900 4.609200
-3.164700 4.641100
-3.148500 4.730500
-3.132300 4.890700
-3.116200 8.432700
-3.100000 17.245600
-3.083800 16.420900
-3.067600 19.728500
-3.051400 21.818900
-3.035200 20.630500
-3.019000 20.042700
-3.002900 20.086400
-2.986700 26.100800
-2.970500 22.402700
-2.954300 24.711800
-2.938100 3.707200
-2.921900 3.562900
-2.905800 4.431600
-2.889600 5.181100
-2.873400 5.811600
-2.857200 6.323000
-2.841000 7.227100
-2.824800 7.254300
-2.808600 7.431300
-2.792500 7.766200
-2.776300 7.817100
-2.760100 8.093600
-2.743900 35.406800
-2.727700 18.950400
-2.711500 13.687600
-2.695300 12.342800
-2.679200 11.835700
-2.663000 12.105000
-2.646800 11.341000
-2.630600 11.753600
-2.614400 12.022800
-2.598200 12.218100
-2.582100 12.372700
-2.565900 10.296900
-2.549700 8.700900
-2.533500 7.785900
-2.517300 7.060900
-2.501100 13.066300
-2.484900 11.973400
-2.468800 7.121200
-2.452600 6.913400
-2.436400 30.339000
-2.420200 15.665100
-2.404000 12.970200
-2.387800 12.998900
-2.371700 13.028100
-2.355500 11.105800
-2.339300 8.577900
-2.323100 7.421300
-2.306900 7.387400
-2.290700 7.385900
-2.274500 7.384700
-2.258400 7.383900
-2.242200 7.383500
-2.226000 7.383400
-2.209800 7.383700
-2.193600 7.384300
-2.177400 7.385300
-2.161200 7.386700
-2.145100 7.211400
-2.128900 5.813700
-2.112700 3.662000
-2.096500 0.153600
-2.080300 0.000000
-2.064100 0.000000
-2.048000 0.000000
-2.031800 0.000000
-2.015600 0.000000
-1.999400 0.000000
-1.983200 0.000000
-1.967000 0.000000
-1.950800 0.000000
-1.934700 0.000000
-1.918500 0.000000
-1.902300 0.000000
-1.886100 0.000000
-1.869900 0.000000
-1.853700 0.000000
-1.837500 0.000000
-1.821400 0.000000
-1.805200 0.000000
-1.789000 0.000000
-1.772800 0.000000
-1.756600 0.000000
-1.740400 0.000000
-1.724300 0.000000
-1.708100 0.000000
-1.691900 0.000000
-1.675700 0.000000
-1.659500 0.000000
-1.643300 0.000000
-1.627100 0.000000
-1.611000 0.000000
-1.594800 0.000000
-1.578600 0.000000
-1.562400 0.000000
-1.546200 4.626400
-1.530000 4.626200
-1.513800 4.613500
-1.497700 4.588200
-1.481500 4.550300
-1.465300 4.499900
-1.449100 4.437000
-1.432900 2.204100
-1.416700 2.204200
-1.400600 2.204300
-1.384400 2.204400
-1.368200 2.204600
-1.352000 2.204900
-1.335800 2.205200
-1.319600 2.205500
-1.303400 2.205900
-1.287300 2.206300
-1.271100 2.206700
-1.254900 2.207200
-1.238700 2.207800
-1.222500 2.208300
-1.206300 2.209000
-1.190100 2.209600
-1.174000 2.210300
-1.157800 2.211100
-1.141600 2.211900
-1.125400 2.212700
-1.109200 2.213600
-1.093000 2.214500
-1.076900 2.215500
-1.060700 2.216500
-1.044500 2.217500
-1.028300 2.218600
-1.012100 2.219700
-0.995900 2.717200
-0.979700 3.040500
-0.963600 3.053400
-0.947400 3.052800
-0.931200 3.052300
-0.915000 3.051800
-0.898800 3.051400
-0.882600 3.051000
-0.866400 3.050800
-0.850300 3.050600
-0.834100 3.050500
-0.817900 3.050400
-0.801700 3.050400
-0.785500 3.050500
-0.769300 3.050700
-0.753200 3.050900
-0.737000 3.051200
-0.720800 3.051600
-0.704600 3.052100
-0.688400 3.052600
-0.672200 3.053200
-0.656000 3.053900
-0.639900 3.055700
-0.623700 7.071500
-0.607500 12.253400
-0.591300 12.071900
-0.575100 11.993800
-0.558900 11.457800
-0.542800 8.769600
-0.526600 6.120500
-0.510400 2.490200
-0.494200 0.000000
-0.478000 0.000000
-0.461800 0.000000
-0.445600 0.000000
-0.429500 0.000000
-0.413300 0.000000
-0.397100 0.000000
-0.380900 0.000000
-0.364700 0.000000
-0.348500 0.000000
-0.332300 0.000000
-0.316200 0.000000
-0.300000 0.000000
-0.283800 0.000000
-0.267600 0.000000
-0.251400 0.000000
-0.235200 0.000000
-0.219100 0.000000
-0.202900 0.000000
-0.186700 0.000000
-0.170500 0.000000
-0.154300 0.000000
-0.138100 0.000000
-0.121900 0.000000
-0.105800 0.000000
-0.089600 0.000000
-0.073400 0.000000
-0.057200 0.000000
-0.041000 0.000000
-0.024800 0.000000
-0.008600 0.000000
0.007500 0.000000
0.023700 0.000000
0.039900 0.000000
0.056100 0.000000
0.072300 0.000000
0.088500 0.000000
0.104600 0.000000
0.120800 0.000000
0.137000 0.000000
0.153200 0.000000
0.169400 0.000000
0.185600 0.000000
0.201800 0.000000
0.217900 0.000000
0.234100 0.000000
0.250300 0.000000
0.266500 0.000000
0.282700 0.000000
0.298900 0.000000
0.315100 0.000000
0.331200 0.000000
0.347400 0.000000
0.363600 0.000000
0.379800 0.000000
0.396000 0.501300
0.412200 1.316600
0.428300 1.723800
0.444500 2.109000
0.460700 2.472300
0.476900 2.813500
0.493100 3.289800
0.509300 3.395400
0.525500 3.414900
0.541600 3.409500
0.557800 3.406600
0.574000 3.406200
0.590200 3.408300
0.606400 3.412900
0.622600 3.419900
0.638800 3.429400
0.654900 3.432800
0.671100 3.424000
0.687300 3.402900
0.703500 3.369700
0.719700 3.324200
0.735900 3.266500
0.752000 3.162300
0.768200 3.162200
0.784400 3.162500
0.800600 3.163400
0.816800 3.052700
0.833000 2.951000
0.849200 2.947800
0.865300 2.946500
0.881500 2.948400
0.897700 3.268000
0.913900 4.808200
0.930100 5.882900
0.946300 5.881600
0.962400 8.557600
0.978600 9.185200
0.994800 9.256500
1.011000 9.249100
1.027200 9.243500
1.043400 9.239700
1.059600 9.237700
1.075700 9.237500
1.091900 9.308200
1.108100 7.710600
1.124300 6.869000
1.140500 6.157200
1.156700 5.640400
1.172900 5.637600
1.189000 5.637600
1.205200 5.638400
1.221400 6.213800
1.237600 6.883600
1.253800 7.630300
1.270000 7.647900
1.286100 7.646400
1.302300 7.649600
1.318500 7.657800
1.334700 7.670700
1.350900 7.688500
1.367100 7.711200
1.383300 25.395600
1.399400 25.533900
1.415600 2.312500
1.431800 2.312600
1.448000 2.312800
1.464200 2.313000
1.480400 2.313200
1.496600 2.313400
1.512700 2.313600
1.528900 2.313800
1.545100 2.314000
1.561300 2.314300
1.577500 2.347200
1.593700 3.397100
1.609800 9.940600
1.626000 12.539700
1.642200 11.722000
1.658400 10.988700
1.674600 9.861200
1.690800 8.835500
1.707000 8.201400
1.723100 7.637400
1.739300 4.571400
1.755500 4.651600
1.771700 7.640900
1.787900 6.844300
1.804100 0.000000
1.820300 0.000000
1.836400 0.000000
1.852600 0.000000
1.868800 0.000000
1.885000 0.000000
1.901200 0.000000
1.917400 0.000000
1.933500 0.000000
1.949700 0.000000
1.965900 0.000000
1.982100 0.000000
1.998300 0.000000
2.014500 0.000000
2.030700 0.000000
2.046800 0.000000
2.063000 0.000000
2.079200 0.000000
2.095400 0.000000
2.111600 0.000000
2.127800 0.000000
2.144000 0.000000
2.160100 0.000000
2.176300 0.000000
2.192500 0.000000
2.208700 0.000000
2.224900 0.000000
2.241100 0.000000
2.257200 0.000000
2.273400 0.000000
2.289600 0.000000
2.305800 0.000000
2.322000 0.000000
2.338200 0.000000
2.354400 0.000000
2.370500 0.000000
2.386700 0.000000
2.402900 0.000000
2.419100 0.000000
2.435300 0.000000
2.451500 0.000000
2.467700 0.000000
2.483800 0.000000
2.500000 0.000000
2.516200 0.000000
2.532400 0.000000
2.548600 0.000000
2.564800 0.000000
2.580900 0.000000
2.597100 0.000000
2.613300 0.000000
2.629500 0.000000
2.645700 0.000000
2.661900 0.000000
2.678100 0.000000
2.694200 0.000000
2.710400 0.000000
2.726600 0.000000
2.742800 0.000000
2.759000 0.000000
2.775200 0.000000
2.791300 0.000000
2.807500 0.000000
2.823700 0.000000
2.839900 0.000000
2.856100 0.000000
2.872300 0.000000
2.888500 0.000000
2.904600 0.000000
2.920800 0.000000
2.937000 0.000000
2.953200 0.000000
2.969400 0.000000
2.985600 0.000000
3.001800 0.000000
3.017900 0.000000
3.034100 0.000000
3.050300 0.000000
3.066500 0.000000
3.082700 0.000000
3.098900 0.000000
3.115000 0.000000
3.131200 0.000000
3.147400 0.000000
3.163600 0.000000
3.179800 0.000000
3.196000 0.000000
3.212200 0.000000
3.228300 0.000000
3.244500 0.000000
3.260700 0.000000
3.276900 0.000000
3.293100 0.000000
3.309300 0.000000
3.325500 0.000000
3.341600 0.000000
3.357800 0.000000
3.374000 0.000000
3.390200 0.000000
3.406400 0.000000
3.422600 0.000000
3.438700 0.000000
3.454900 0.000000
3.471100 0.000000
3.487300 0.000000
3.503500 0.000000
3.519700 0.000000
3.535900 0.000000
3.552000 0.000000
3.568200 0.000000
3.584400 0.000000
3.600600 0.000000
3.616800 0.000000
3.633000 0.000000
3.649200 0.000000
3.665300 0.000000
3.681500 0.000000
3.697700 0.000000
3.713900 0.000000
3.730100 0.000000
3.746300 0.000000
3.762400 0.000000
3.778600 0.000000
3.794800 0.000000
3.811000 0.000000
3.827200 0.000000
3.843400 0.000000
3.859600 0.000000
3.875700 0.000000
3.891900 0.000000
3.908100 0.000000
3.924300 0.000000
3.940500 0.000000
3.956700 0.000000
3.972900 0.000000
3.989000 0.000000
4.005200 0.000000
4.021400 0.000000
4.037600 0.000000
4.053800 0.000000
4.070000 0.000000
4.086100 0.000000
4.102300 0.000000
4.118500 0.000000
4.134700 0.000000
4.150900 0.000000
4.167100 0.000100
4.183300 0.001100
4.199400 0.003200
4.215600 0.006500
4.231800 0.010800
4.248000 0.016300
4.264200 0.022800
4.280400 0.030500
4.296600 0.039300
4.312700 0.049200
4.328900 0.060200
4.345100 0.072300
4.361300 0.085500
4.377500 0.099800
4.393700 0.115300
4.409800 0.131800
4.426000 0.149500
4.442200 0.168200
4.458400 0.188100
4.474600 0.209100
4.490800 0.231200
4.507000 0.254400
4.523100 0.278700
4.539300 0.304100
4.555500 0.330800
4.571700 0.361600
4.587900 0.398000
4.604100 0.439800
4.620200 0.487200
4.636400 0.609600
4.652600 0.740100
4.668800 0.863400
4.685000 0.979600
4.701200 1.088600
4.717400 1.190400
4.733500 1.285100
4.749700 1.372600
4.765900 1.452900
4.782100 1.526100
4.798300 1.592100
4.814500 1.651000
4.830700 1.702700
4.846800 1.720500
4.863000 1.723400
4.879200 1.724200
4.895400 1.999300
4.911600 1.918700
4.927800 1.841300
4.943900 1.766800
4.960100 1.695500
4.976300 1.627200
4.992500 1.562000
5.008700 1.499900
5.024900 1.440800
5.041100 1.384800
5.057200 1.331900
5.073400 1.282100
5.089600 1.235300
5.105800 1.049800
5.122000 1.053000
5.138200 1.056100
5.154400 1.059300
5.170500 1.062400
5.186700 1.065500
5.202900 1.068600
5.219100 1.071600
5.235300 1.074700
5.251500 1.077700
5.267600 1.080700
5.283800 1.083700
5.300000 1.086700
5.316200 1.089600
5.332400 1.092500
5.348600 1.092600
5.364800 1.087700
5.380900 1.078300
5.397100 1.068700
5.413300 1.059500
5.429500 1.050900
5.445700 1.042700
5.461900 1.035100
5.478100 1.027900
5.494200 1.290500
5.510400 1.916900
5.526600 2.738300
5.542800 3.719500
5.559000 4.150700
5.575200 4.039500
5.591300 3.935600
5.607500 3.868600
5.623700 3.830800
5.639900 3.822100
5.656100 3.680700
5.672300 3.859000
5.688500 3.804700
5.704600 3.786900
5.720800 3.805600
5.737000 3.860800
5.753200 4.001200
5.769400 4.353100
5.785600 4.642600
5.801800 4.941100
5.817900 5.230100
5.834100 5.404200
5.850300 5.383100
5.866500 5.333000
5.882700 5.080700
5.898900 5.103100
5.915000 5.124000
5.931200 5.143500
5.947400 5.161600
5.963600 6.578400
5.979800 9.918400
5.996000 9.259500
6.012200 9.204500
6.028300 8.904000
6.044500 8.604000
6.060700 8.304900
6.076900 7.848100
6.093100 5.485600
6.109300 5.314700
6.125500 5.145600
6.141600 4.978200
6.157800 4.782900
6.174000 4.557500
6.190200 4.332800
6.206400 4.108800
6.222600 3.956000
6.238700 4.077800
6.254900 4.110900
6.271100 4.173400
6.287300 3.666000
6.303500 5.204300
6.319700 5.533700
6.335900 5.912200
6.352000 6.325900
6.368200 6.763900
6.384400 7.532700
6.400600 8.043300
6.416800 6.479000
6.433000 6.496200
6.449100 6.404800
6.465300 6.508800
6.481500 6.649800
6.497700 6.817700
6.513900 7.013400
6.530100 6.858400
6.546300 6.151400
6.562400 5.691400
6.578600 6.473800
6.594800 7.504000
6.611000 8.558000
6.627200 11.608200
6.643400 13.713700
6.659600 14.139500
6.675700 13.380100
6.691900 11.885700
6.708100 9.348300
6.724300 5.191600
6.740500 5.483100
6.756700 6.084300
6.772800 5.760100
6.789000 5.698300
6.805200 5.639000
6.821400 5.582500
6.837600 5.528600
6.853800 5.477300
6.870000 5.428600
6.886100 5.382700
6.902300 5.340000
6.918500 5.348500
6.934700 5.358600
6.950900 5.369600
6.967100 4.397200
6.983300 4.365900
6.999400 4.318300
7.015600 4.286100
7.031800 4.387200
7.048000 4.565100
7.064200 4.789100
7.080400 5.059100
7.096500 5.297900
7.112700 5.421400
7.128900 5.443500
7.145100 6.054100
7.161300 5.959900
7.177500 6.170400
7.193700 6.486400
7.209800 6.834600
7.226000 7.182700
7.242200 7.481700
7.258400 7.727700
7.274600 9.370400
7.290800 8.488700
7.307000 0.548000
7.323100 0.592400
7.339300 0.637400
7.355500 1.497400
7.371700 1.635300
7.387900 1.779300
7.404100 1.929500
7.420200 2.085700
7.436400 4.445200
7.452600 13.921100
7.468800 3.916600
7.485000 3.907500
7.501200 3.884300
7.517400 3.847000
7.533500 4.561700
7.549700 4.650000
7.565900 4.734400
7.582100 4.814800
7.598300 4.893900
7.614500 4.984200
7.630700 5.087100
7.646800 5.202700
7.663000 5.330900
7.679200 5.175900
7.695400 5.252600
7.711600 5.338000
7.727800 5.432000
7.743900 5.534800
7.760100 5.646200
7.776300 5.766200
7.792500 10.264300
7.808700 10.665400
7.824900 9.508900
7.841100 8.461100
7.857200 7.845800
7.873400 7.779500
7.889600 8.004800
7.905800 7.807500
7.922000 7.813300
7.938200 7.971100
7.954400 16.379700
7.970500 7.786500
7.986700 7.402100
8.002900 7.205900
8.019100 7.041000
8.035300 6.907500
8.051500 6.717000
8.067600 6.416100
8.083800 5.833100
8.100000 5.748100
8.116200 5.675400
8.132400 6.798300
8.148600 7.072300
8.164800 7.380900
8.180900 7.505700
8.197100 8.027200
8.213300 7.530400
8.229500 7.690100
8.245700 7.843800
8.261900 7.991400
8.278000 8.056200
8.294200 8.048700
8.310400 7.942700
8.326600 7.802100
8.342800 7.250200
8.359000 6.262200
8.375200 5.493300
8.391300 5.183700
8.407500 4.875200
8.423700 4.563000
8.439900 4.246900
8.456100 3.928200
8.472300 3.672200
8.488500 3.413800
8.504600 3.153100
8.520800 2.890000
8.537000 2.661700
8.553200 2.567300
8.569400 2.785300
8.585600 2.753900
8.601700 2.749400
8.617900 2.749000
8.634100 2.751500
8.650300 2.790200
8.666500 2.869200
8.682700 2.952200
8.698900 3.039300
8.715000 3.130500
8.731200 3.225700
8.747400 3.215000
8.763600 3.341800
8.779800 4.016900
8.796000 4.144400
8.812200 4.273700
8.828300 4.404700
8.844500 4.537400
8.860700 4.671800
8.876900 4.306000
8.893100 4.450400
8.909300 4.607100
8.925400 4.776000
8.941600 4.957200
8.957800 5.150600
8.974000 5.354400
8.990200 5.549200
9.006400 5.729800
9.022600 5.896100
9.038700 6.048100
9.054900 6.185800
9.071100 6.299000
9.087300 5.661300
9.103500 5.420400
9.119700 8.169600
9.135900 8.274400
9.152000 8.378300
9.168200 8.481300
9.184400 8.583400
9.200600 5.668800
9.216800 4.536300
9.233000 4.243100
9.249100 3.947500
9.265300 3.694900
9.281500 3.705700
9.297700 3.721000
9.313900 3.740900
9.330100 3.765300
9.346300 3.794400
9.362400 3.925900
9.378600 4.073700
9.394800 4.227900
9.411000 4.382800
9.427200 4.535400
9.443400 4.685800
9.459600 4.833900
9.475700 4.846800
9.491900 5.020400
9.508100 5.189300
9.524300 5.351600
9.540500 5.501100
9.556700 5.652700
9.572800 5.784000
9.589000 5.899500
9.605200 6.010800
9.621400 6.118100
9.637600 6.061800
9.653800 6.112400
9.670000 6.158900
9.686100 6.201200
9.702300 6.239300
9.718500 6.273300
9.734700 6.303000
9.750900 6.342600
9.767100 6.447500
9.783200 6.454200
9.799400 6.607200
9.815600 6.763700
9.831800 6.918300
9.848000 6.638000
9.864200 6.180000
9.880400 6.266800
9.896500 6.226700
9.912700 6.535300
9.928900 5.972700
9.945100 7.073400
9.961300 6.445900
9.977500 5.462800
9.993700 5.401800
10.009800 5.402100
10.026000 5.477400
10.042200 4.609400
10.058400 3.524300
10.074600 3.465400
10.090800 3.448200
10.106900 3.473300
10.123100 3.523100
10.139300 3.579600
10.155500 3.643400
10.171700 3.092700
10.187900 3.379300
10.204100 4.326700
10.220200 4.924800
10.236400 5.512000
10.252600 6.088300
10.268800 6.653900
10.285000 7.208600
10.301200 7.752500
10.317400 8.285600
10.333500 9.197800
10.349700 8.584000
10.365900 8.018000
10.382100 8.170500
10.398300 7.654300
10.414500 7.370200
10.430600 6.627800
10.446800 6.664500
10.463000 6.680000
10.479200 7.974000
10.495400 7.655600
10.511600 7.383200
10.527800 8.100200
10.543900 7.108500
10.560100 7.004600
10.576300 6.905700
10.592500 6.798900
10.608700 6.682800
10.624900 6.557300
10.641100 6.422500
10.657200 6.281700
10.673400 6.137100
10.689600 5.988400
10.705800 5.835800
10.722000 5.703200
10.738200 5.588300
10.754300 5.487200
10.770500 5.728300
10.786700 5.913500
10.802900 6.140000
10.819100 6.379400
10.835300 6.632600
10.851500 7.297000
10.867600 7.727700
10.883800 8.989000
10.900000 9.397800
10.916200 9.844300
10.932400 9.613600
10.948600 8.857500
10.964800 9.456700
10.980900 9.718000
10.997100 9.991900
11.013300 10.024800
11.029500 10.028800
11.045700 9.771200
11.061900 10.107000
11.078000 10.016100
11.094200 9.648400
11.110400 9.609400
11.126600 8.466600
11.142800 7.016900
11.159000 6.502200
11.175200 6.977400
11.191300 6.921900
11.207500 6.322900
11.223700 7.999500
11.239900 8.038900
11.256100 8.224900
11.272300 8.150700
11.288500 8.143800
11.304600 7.739700
11.320800 7.902700
11.337000 7.862700
11.353200 7.900500
11.369400 8.573700
11.385600 8.582300
11.401700 8.600200
11.417900 8.629900
11.434100 8.673400
11.450300 8.141900
11.466500 7.850300
11.482700 7.684900
11.498900 7.551000
11.515000 7.526100
11.531200 7.532500
11.547400 6.619300
11.563600 7.180000
11.579800 7.664900
11.596000 8.074600
11.612100 8.430400
11.628300 8.743300
11.644500 9.438500
11.660700 9.363000
11.676900 9.284800
11.693100 9.203900
11.709300 9.120200
11.725400 9.018000
11.741600 8.874300
11.757800 8.728500
11.774000 6.172000
11.790200 6.225700
11.806400 6.231900
11.822600 6.192100
11.838700 5.444400
11.854900 5.012200
11.871100 4.585200
11.887300 4.163400
11.903500 4.268100
11.919700 4.418900
11.935800 4.553100
11.952000 5.630200
11.968200 7.092200
11.984400 13.756900
12.000600 8.925000
12.016800 8.869500
12.033000 8.849600
12.049100 8.869900
12.065300 9.041900
12.081500 9.235800
12.097700 9.429400
12.113900 9.635800
12.130100 9.992500
12.146300 10.368100
12.162400 10.760300
12.178600 13.298600
12.194800 12.834900
12.211000 10.457900
12.227200 9.998400
12.243400 9.435600
12.259500 7.169400
12.275700 6.376200
12.291900 5.619000
12.308100 4.897500
12.324300 4.834300
12.340500 4.919100
12.356700 5.068200
12.372800 5.224700
12.389000 5.380600
12.405200 5.535800
12.421400 5.690300
12.437600 4.834200
12.453800 7.013400
12.470000 8.788900
12.486100 9.224700
12.502300 8.919600
12.518500 9.292400
12.534700 9.121400
12.550900 8.966400
12.567100 8.827500
12.583200 8.704600
12.599400 8.596800
12.615600 8.409900
12.631800 7.498000
12.648000 6.933600
12.664200 5.629100
12.680400 5.073000
12.696500 4.534300
12.712700 4.012900
12.728900 3.509000
12.745100 3.266000
12.761300 3.088700
12.777500 2.912600
12.793700 2.737800
12.809800 2.564300
12.826000 2.392000
12.842200 3.161700
12.858400 2.651200
12.874600 2.137200
12.890800 0.088300
12.906900 0.023800
12.923100 0.000200
12.939300 0.000000
12.955500 0.000000
12.971700 0.000000
12.987900 0.000000
13.004100 0.000000
13.020200 0.000000
13.036400 0.000000
13.052600 0.000000
13.068800 0.000000
13.085000 0.000000
13.101200 0.000000
13.117400 0.000000
13.133500 0.000000
13.149700 0.000000
13.165900 0.000000
13.182100 0.000000
13.198300 0.000000
13.214500 0.000000
13.230600 0.000000
13.246800 0.000000
13.263000 0.000000
13.279200 0.000000
13.295400 0.000000
13.311600 0.000000
13.327800 0.000000
13.343900 0.000000
13.360100 0.000000
13.376300 0.000000
13.392500 0.000000
13.408700 0.000000
13.424900 0.000000
13.441000 0.000000
13.457200 0.000000
13.473400 0.000000
13.489600 0.000000
13.505800 0.000000
13.522000 0.000000
13.538200 0.000000
13.554300 0.000000
13.570500 0.000000
13.586700 0.000000
13.602900 0.000000
13.619100 0.000000
13.635300 0.000000
13.651500 0.000000
13.667600 0.000000
13.683800 0.000000
13.700000 0.000000
13.716200 0.000000
13.732400 0.000000
13.748600 0.000000
13.764700 0.000000
13.780900 0.000000
13.797100 0.000000
13.813300 0.000000
13.829500 0.000000
13.845700 0.000000
13.861900 0.000000
13.878000 0.000000
13.894200 0.000000
13.910400 0.000000
13.926600 0.000000
13.942800 0.000000
13.959000 0.000000
13.975200 0.000000
13.991300 0.000000
14.007500 0.000000
14.023700 0.000000
14.039900 0.000000
14.056100 0.000000
14.072300 0.000000
14.088400 0.000000
14.104600 0.000000
14.120800 0.000000
14.137000 0.000000
14.153200 0.000000
14.169400 0.000000
14.185600 0.000000
14.201700 0.000000
14.217900 0.000000
14.234100 0.000000
14.250300 0.000000
14.266500 0.000000
14.282700 0.000000
14.298900 0.000000
14.315000 0.000000
14.331200 0.000000
14.347400 0.000000
14.363600 0.000000
14.379800 0.000000
14.396000 0.000000
e
