set title 'mp-1077107 - Density of States'
set xlabel 'Energy (eV)'
set ylabel 'DOS (states/eV)'
set grid
set xrange [-10:10]
set yrange [0:71.830]
set xzeroaxis lt -1
set terminal png size 800,600
set output 'mp-1077107_dos_gnuplot.png'
plot '-' using 1:2 with lines title 'DOS'
-18.621400 0.000000
-18.603500 0.000000
-18.585600 0.000000
-18.567600 0.000000
-18.549700 0.000000
-18.531800 0.000000
-18.513900 0.000000
-18.495900 0.000000
-18.478000 0.000000
-18.460100 0.000000
-18.442200 0.000000
-18.424300 0.000000
-18.406300 0.000000
-18.388400 0.000000
-18.370500 0.000000
-18.352600 0.000000
-18.334600 0.000000
-18.316700 0.000000
-18.298800 0.000000
-18.280900 0.000000
-18.263000 0.000000
-18.245000 0.000000
-18.227100 0.000000
-18.209200 0.000000
-18.191300 0.000000
-18.173300 0.000000
-18.155400 0.000000
-18.137500 0.000000
-18.119600 0.000000
-18.101600 0.000000
-18.083700 0.000000
-18.065800 0.000000
-18.047900 0.000000
-18.030000 0.000000
-18.012000 0.000000
-17.994100 0.000000
-17.976200 0.000000
-17.958300 0.000000
-17.940300 0.000000
-17.922400 0.000000
-17.904500 0.000000
-17.886600 0.000000
-17.868700 0.000000
-17.850700 0.000000
-17.832800 0.000000
-17.814900 0.000000
-17.797000 0.000000
-17.779000 0.000000
-17.761100 0.000000
-17.743200 0.000000
-17.725300 0.000000
-17.707400 0.000000
-17.689400 0.000000
-17.671500 0.000000
-17.653600 0.000000
-17.635700 0.000000
-17.617700 0.000000
-17.599800 0.000000
-17.581900 0.000000
-17.564000 0.000000
-17.546100 0.000000
-17.528100 0.000000
-17.510200 0.000000
-17.492300 0.000000
-17.474400 0.000000
-17.456400 0.000000
-17.438500 0.000000
-17.420600 0.000000
-17.402700 0.000000
-17.384700 0.000000
-17.366800 0.000000
-17.348900 0.000000
-17.331000 0.000000
-17.313100 0.000000
-17.295100 0.000000
-17.277200 0.000000
-17.259300 0.000000
-17.241400 0.000000
-17.223400 0.000000
-17.205500 0.000000
-17.187600 0.000000
-17.169700 0.000000
-17.151800 0.000000
-17.133800 0.000000
-17.115900 0.000000
-17.098000 0.000000
-17.080100 0.000000
-17.062100 0.000000
-17.044200 0.000000
-17.026300 0.000000
-17.008400 0.000000
-16.990500 0.017900
-16.972500 1.040600
-16.954600 1.479300
-16.936700 1.996900
-16.918800 2.453700
-16.900800 2.913100
-16.882900 3.426600
-16.865000 4.027600
-16.847100 5.161300
-16.829100 5.847000
-16.811200 6.724800
-16.793300 8.116500
-16.775400 10.718300
-16.757500 13.734300
-16.739500 13.944000
-16.721600 10.520700
-16.703700 9.261000
-16.685800 8.918700
-16.667800 6.844300
-16.649900 5.271800
-16.632000 3.969400
-16.614100 5.339500
-16.596200 8.704400
-16.578200 6.609900
-16.560300 6.577000
-16.542400 6.527200
-16.524500 6.442800
-16.506500 6.295400
-16.488600 6.329100
-16.470700 6.439900
-16.452800 6.662900
-16.434900 7.291600
-16.416900 7.748800
-16.399000 7.462600
-16.381100 5.577400
-16.363200 2.622000
-16.345200 3.096500
-16.327300 7.919500
-16.309400 9.286500
-16.291500 9.649200
-16.273600 10.266400
-16.255600 10.268400
-16.237700 10.271900
-16.219800 19.183500
-16.201900 39.863800
-16.183900 0.000000
-16.166000 0.000000
-16.148100 0.000000
-16.130200 0.000000
-16.112200 0.000000
-16.094300 0.000000
-16.076400 0.000000
-16.058500 0.000000
-16.040600 0.000000
-16.022600 0.000000
-16.004700 0.000000
-15.986800 0.000000
-15.968900 0.000000
-15.950900 0.000000
-15.933000 0.000000
-15.915100 0.000000
-15.897200 0.000000
-15.879300 0.000000
-15.861300 0.000000
-15.843400 0.000000
-15.825500 0.000000
-15.807600 0.000000
-15.789600 0.000000
-15.771700 0.000000
-15.753800 0.000000
-15.735900 0.000000
-15.718000 0.000000
-15.700000 0.000000
-15.682100 0.000000
-15.664200 0.000000
-15.646300 0.000000
-15.628300 0.000000
-15.610400 0.000000
-15.592500 0.000000
-15.574600 0.000000
-15.556700 0.000000
-15.538700 0.000000
-15.520800 0.000000
-15.502900 0.000000
-15.485000 0.000000
-15.467000 0.000000
-15.449100 0.000000
-15.431200 0.000000
-15.413300 0.000000
-15.395300 0.000000
-15.377400 0.000000
-15.359500 0.000000
-15.341600 0.000000
-15.323700 0.000000
-15.305700 0.000000
-15.287800 0.000000
-15.269900 0.000000
-15.252000 0.000000
-15.234000 0.000000
-15.216100 0.000000
-15.198200 0.000000
-15.180300 0.000000
-15.162400 0.000000
-15.144400 0.000000
-15.126500 0.000000
-15.108600 0.000000
-15.090700 0.000000
-15.072700 0.000000
-15.054800 0.000000
-15.036900 0.000000
-15.019000 0.000000
-15.001100 0.000000
-14.983100 0.000000
-14.965200 0.000000
-14.947300 0.000000
-14.929400 0.000000
-14.911400 0.000000
-14.893500 0.000000
-14.875600 0.000000
-14.857700 0.000000
-14.839800 0.000000
-14.821800 0.000000
-14.803900 0.000000
-14.786000 0.000000
-14.768100 0.000000
-14.750100 0.000000
-14.732200 0.000000
-14.714300 0.000000
-14.696400 0.000000
-14.678400 0.000000
-14.660500 0.000000
-14.642600 0.000000
-14.624700 0.000000
-14.606800 0.000000
-14.588800 0.000000
-14.570900 0.000000
-14.553000 0.000000
-14.535100 0.000000
-14.517100 0.000000
-14.499200 0.000000
-14.481300 0.000000
-14.463400 0.000000
-14.445500 0.000000
-14.427500 0.000000
-14.409600 0.000000
-14.391700 0.000000
-14.373800 0.000000
-14.355800 0.000000
-14.337900 0.000000
-14.320000 0.000000
-14.302100 0.000000
-14.284200 0.000000
-14.266200 0.000000
-14.248300 0.000000
-14.230400 0.000000
-14.212500 0.000000
-14.194500 0.000000
-14.176600 0.000000
-14.158700 0.000000
-14.140800 0.000000
-14.122900 0.000000
-14.104900 0.000000
-14.087000 0.000000
-14.069100 0.000000
-14.051200 0.000000
-14.033200 0.000000
-14.015300 0.000000
-13.997400 0.000000
-13.979500 0.000000
-13.961500 0.000000
-13.943600 0.000000
-13.925700 0.000000
-13.907800 0.000000
-13.889900 0.000000
-13.871900 0.000000
-13.854000 0.000000
-13.836100 0.000000
-13.818200 0.000000
-13.800200 0.000000
-13.782300 0.000000
-13.764400 0.000000
-13.746500 0.000000
-13.728600 0.000000
-13.710600 0.000000
-13.692700 0.000000
-13.674800 0.000000
-13.656900 0.000000
-13.638900 0.000000
-13.621000 0.000000
-13.603100 0.000000
-13.585200 0.000000
-13.567300 0.000000
-13.549300 0.000000
-13.531400 0.000000
-13.513500 0.000000
-13.495600 0.000000
-13.477600 0.000000
-13.459700 0.000000
-13.441800 0.000000
-13.423900 0.000000
-13.405900 0.000000
-13.388000 0.000000
-13.370100 0.000000
-13.352200 0.000000
-13.334300 0.000000
-13.316300 0.000000
-13.298400 0.000000
-13.280500 0.000000
-13.262600 0.000000
-13.244600 0.000000
-13.226700 0.000000
-13.208800 0.000000
-13.190900 0.000000
-13.173000 0.000000
-13.155000 0.000000
-13.137100 0.000000
-13.119200 0.000000
-13.101300 0.000000
-13.083300 0.000000
-13.065400 0.000000
-13.047500 0.000000
-13.029600 0.000000
-13.011700 0.000000
-12.993700 0.000000
-12.975800 0.000000
-12.957900 0.000000
-12.940000 0.000000
-12.922000 0.000000
-12.904100 0.000000
-12.886200 0.000000
-12.868300 0.000000
-12.850400 0.000000
-12.832400 0.000000
-12.814500 0.000000
-12.796600 0.000000
-12.778700 0.000000
-12.760700 0.000000
-12.742800 0.000000
-12.724900 0.000000
-12.707000 0.000000
-12.689000 0.000000
-12.671100 0.000000
-12.653200 0.000000
-12.635300 0.000000
-12.617400 0.000000
-12.599400 0.000000
-12.581500 0.000000
-12.563600 0.000000
-12.545700 0.000000
-12.527700 0.000000
-12.509800 0.000000
-12.491900 0.000000
-12.474000 0.000000
-12.456100 0.000000
-12.438100 0.000000
-12.420200 0.000000
-12.402300 0.000000
-12.384400 0.000000
-12.366400 0.000000
-12.348500 0.000000
-12.330600 0.000000
-12.312700 0.000000
-12.294800 0.000000
-12.276800 0.000000
-12.258900 0.000000
-12.241000 0.000000
-12.223100 0.000000
-12.205100 0.000000
-12.187200 0.000000
-12.169300 0.000000
-12.151400 0.000000
-12.133500 0.000000
-12.115500 0.000000
-12.097600 0.000000
-12.079700 0.000000
-12.061800 0.000000
-12.043800 0.000000
-12.025900 0.000000
-12.008000 0.000000
-11.990100 0.000000
-11.972100 0.000000
-11.954200 0.000000
-11.936300 0.000000
-11.918400 0.000000
-11.900500 0.000000
-11.882500 0.000000
-11.864600 0.000000
-11.846700 0.000000
-11.828800 0.000000
-11.810800 0.000000
-11.792900 0.000000
-11.775000 0.000000
-11.757100 0.000000
-11.739200 0.000000
-11.721200 0.000000
-11.703300 0.000000
-11.685400 0.000000
-11.667500 0.000000
-11.649500 0.000000
-11.631600 0.000000
-11.613700 0.000000
-11.595800 0.000000
-11.577900 0.000000
-11.559900 0.000000
-11.542000 0.000000
-11.524100 0.000000
-11.506200 0.000000
-11.488200 0.000000
-11.470300 0.000000
-11.452400 0.000000
-11.434500 0.000000
-11.416600 0.000000
-11.398600 0.000000
-11.380700 0.000000
-11.362800 0.000000
-11.344900 0.000000
-11.326900 0.000000
-11.309000 0.000000
-11.291100 0.000000
-11.273200 0.000000
-11.255200 0.000000
-11.237300 0.000000
-11.219400 0.000000
-11.201500 0.000000
-11.183600 0.000000
-11.165600 0.000000
-11.147700 0.000000
-11.129800 0.000000
-11.111900 0.000000
-11.093900 0.000000
-11.076000 0.000000
-11.058100 0.000000
-11.040200 0.000000
-11.022300 0.000000
-11.004300 0.000000
-10.986400 0.000000
-10.968500 0.000000
-10.950600 0.000000
-10.932600 0.000000
-10.914700 0.000000
-10.896800 0.000000
-10.878900 0.000000
-10.861000 0.000000
-10.843000 0.000000
-10.825100 0.000000
-10.807200 0.000000
-10.789300 0.000000
-10.771300 0.000000
-10.753400 0.000000
-10.735500 0.000000
-10.717600 0.000000
-10.699700 0.000000
-10.681700 0.000000
-10.663800 0.000000
-10.645900 0.000000
-10.628000 0.000000
-10.610000 0.000000
-10.592100 0.000000
-10.574200 0.000000
-10.556300 0.000000
-10.538300 0.000000
-10.520400 0.000000
-10.502500 0.000000
-10.484600 0.000000
-10.466700 0.000000
-10.448700 0.000000
-10.430800 0.000000
-10.412900 0.000000
-10.395000 0.000000
-10.377000 0.000000
-10.359100 0.000000
-10.341200 0.000000
-10.323300 0.000000
-10.305400 0.000000
-10.287400 0.000000
-10.269500 0.000000
-10.251600 0.000000
-10.233700 0.000000
-10.215700 0.000000
-10.197800 0.000000
-10.179900 0.000000
-10.162000 0.000000
-10.144100 0.000000
-10.126100 0.000000
-10.108200 0.000000
-10.090300 0.000000
-10.072400 0.000000
-10.054400 0.000000
-10.036500 0.000000
-10.018600 0.000000
-10.000700 0.000000
-9.982700 0.000000
-9.964800 0.000000
-9.946900 0.000000
-9.929000 0.000000
-9.911100 0.000000
-9.893100 0.000000
-9.875200 0.000000
-9.857300 0.000000
-9.839400 0.000000
-9.821400 0.000000
-9.803500 0.000000
-9.785600 0.000000
-9.767700 0.000000
-9.749800 0.000000
-9.731800 0.000000
-9.713900 0.000000
-9.696000 0.000000
-9.678100 0.000000
-9.660100 0.000000
-9.642200 0.000000
-9.624300 0.000000
-9.606400 0.000000
-9.588500 0.000000
-9.570500 0.000000
-9.552600 0.000000
-9.534700 0.000000
-9.516800 0.000000
-9.498800 0.000000
-9.480900 0.000000
-9.463000 0.000000
-9.445100 0.000000
-9.427200 0.000000
-9.409200 0.000000
-9.391300 0.000000
-9.373400 0.000000
-9.355500 0.000000
-9.337500 0.000000
-9.319600 0.000000
-9.301700 0.000000
-9.283800 0.000000
-9.265800 0.000000
-9.247900 0.000000
-9.230000 0.000000
-9.212100 0.000000
-9.194200 0.000000
-9.176200 0.000000
-9.158300 0.000000
-9.140400 0.000000
-9.122500 0.000000
-9.104500 0.000000
-9.086600 0.000000
-9.068700 0.000000
-9.050800 0.000000
-9.032900 0.000000
-9.014900 0.000000
-8.997000 0.000000
-8.979100 0.000000
-8.961200 0.000000
-8.943200 0.000000
-8.925300 0.000000
-8.907400 0.000000
-8.889500 0.000000
-8.871600 0.000000
-8.853600 0.000000
-8.835700 0.000000
-8.817800 0.000000
-8.799900 0.000000
-8.781900 0.000000
-8.764000 0.000000
-8.746100 0.000000
-8.728200 0.000000
-8.710300 0.000000
-8.692300 0.000000
-8.674400 0.000000
-8.656500 0.000000
-8.638600 0.000000
-8.620600 0.000000
-8.602700 0.000000
-8.584800 0.000000
-8.566900 0.000000
-8.548900 0.000000
-8.531000 0.000000
-8.513100 0.000000
-8.495200 0.000000
-8.477300 0.000000
-8.459300 0.000000
-8.441400 0.000000
-8.423500 0.000000
-8.405600 0.000000
-8.387600 0.000000
-8.369700 0.000000
-8.351800 0.000000
-8.333900 0.000000
-8.316000 0.000000
-8.298000 0.000000
-8.280100 0.000000
-8.262200 0.000000
-8.244300 0.000000
-8.226300 0.000000
-8.208400 0.000000
-8.190500 0.000000
-8.172600 0.000000
-8.154700 0.000000
-8.136700 0.000000
-8.118800 0.000000
-8.100900 0.000000
-8.083000 0.000000
-8.065000 0.000000
-8.047100 0.000000
-8.029200 0.000000
-8.011300 0.000000
-7.993400 0.000000
-7.975400 0.000000
-7.957500 0.000000
-7.939600 0.000000
-7.921700 0.000000
-7.903700 0.000000
-7.885800 0.000000
-7.867900 0.000000
-7.850000 0.000000
-7.832000 0.000000
-7.814100 0.000000
-7.796200 0.000000
-7.778300 0.000000
-7.760400 0.000000
-7.742400 0.000000
-7.724500 0.000000
-7.706600 0.000000
-7.688700 0.000000
-7.670700 0.000000
-7.652800 0.000000
-7.634900 0.000000
-7.617000 0.000000
-7.599100 0.000000
-7.581100 0.000000
-7.563200 0.000000
-7.545300 0.000000
-7.527400 0.000000
-7.509400 0.000000
-7.491500 0.000000
-7.473600 0.000000
-7.455700 0.000000
-7.437800 0.000000
-7.419800 0.000000
-7.401900 0.000000
-7.384000 0.000000
-7.366100 0.000000
-7.348100 0.000000
-7.330200 0.000000
-7.312300 0.000000
-7.294400 0.000000
-7.276500 0.000000
-7.258500 0.000000
-7.240600 0.000000
-7.222700 0.000000
-7.204800 0.000000
-7.186800 0.000000
-7.168900 0.000000
-7.151000 0.000000
-7.133100 0.000000
-7.115100 0.000000
-7.097200 0.000000
-7.079300 0.000000
-7.061400 0.000000
-7.043500 0.000000
-7.025500 0.000000
-7.007600 0.000000
-6.989700 0.000000
-6.971800 0.000000
-6.953800 0.000000
-6.935900 0.000000
-6.918000 0.000000
-6.900100 0.000000
-6.882200 0.000000
-6.864200 0.529200
-6.846300 0.784500
-6.828400 1.091200
-6.810500 1.476300
-6.792500 1.990000
-6.774600 2.597600
-6.756700 3.614900
-6.738800 5.556800
-6.720900 8.934100
-6.702900 9.143700
-6.685000 7.077400
-6.667100 6.485900
-6.649200 5.298900
-6.631200 4.393300
-6.613300 4.303700
-6.595400 4.280800
-6.577500 4.218800
-6.559500 4.134600
-6.541600 4.009100
-6.523700 3.794400
-6.505800 3.580500
-6.487900 3.580600
-6.469900 3.580800
-6.452000 3.581000
-6.434100 3.581300
-6.416200 3.581700
-6.398200 3.582100
-6.380300 1.503500
-6.362400 0.287100
-6.344500 1.051500
-6.326600 2.915800
-6.308600 3.393600
-6.290700 3.393500
-6.272800 3.393600
-6.254900 3.393700
-6.236900 3.393800
-6.219000 3.394000
-6.201100 3.394300
-6.183200 3.394600
-6.165300 4.117500
-6.147300 4.264500
-6.129400 4.362800
-6.111500 4.360900
-6.093600 4.359600
-6.075600 4.935300
-6.057700 6.035300
-6.039800 7.409100
-6.021900 7.334500
-6.004000 8.423400
-5.986000 8.248200
-5.968100 7.413900
-5.950200 8.667500
-5.932300 6.165900
-5.914300 4.720400
-5.896400 6.292600
-5.878500 9.534500
-5.860600 14.145400
-5.842600 11.138300
-5.824700 12.458400
-5.806800 11.933300
-5.788900 11.183500
-5.771000 9.813200
-5.753000 8.360900
-5.735100 7.665300
-5.717200 5.765600
-5.699300 5.493400
-5.681300 7.200300
-5.663400 15.794800
-5.645500 10.422500
-5.627600 7.470500
-5.609700 9.305500
-5.591700 11.809800
-5.573800 13.838200
-5.555900 15.733400
-5.538000 14.004300
-5.520000 10.854600
-5.502100 11.203900
-5.484200 12.229800
-5.466300 18.618800
-5.448400 15.205900
-5.430400 13.603400
-5.412500 10.920100
-5.394600 12.712600
-5.376700 13.103400
-5.358700 11.089000
-5.340800 13.821600
-5.322900 13.244600
-5.305000 6.602200
-5.287100 7.032100
-5.269100 8.106100
-5.251200 8.653000
-5.233300 10.580800
-5.215400 12.859300
-5.197400 2.688400
-5.179500 1.750500
-5.161600 2.821500
-5.143700 5.904300
-5.125700 7.383100
-5.107800 23.183800
-5.089900 22.718000
-5.072000 20.229600
-5.054100 17.850000
-5.036100 12.422100
-5.018200 10.798100
-5.000300 11.739600
-4.982400 14.030300
-4.964400 12.570800
-4.946500 14.125100
-4.928600 15.025600
-4.910700 15.159800
-4.892800 16.281800
-4.874800 16.773600
-4.856900 18.269400
-4.839000 23.167900
-4.821100 31.502900
-4.803100 29.894500
-4.785200 27.104100
-4.767300 23.960000
-4.749400 26.331700
-4.731500 32.333500
-4.713500 22.804900
-4.695600 24.250400
-4.677700 24.763100
-4.659800 26.556800
-4.641800 30.496200
-4.623900 28.327300
-4.606000 33.275500
-4.588100 29.784800
-4.570200 29.403500
-4.552200 27.981600
-4.534300 41.462000
-4.516400 65.300400
-4.498500 43.682100
-4.480500 50.257100
-4.462600 17.129200
-4.444700 7.725900
-4.426800 5.867400
-4.408800 4.325700
-4.390900 3.802000
-4.373000 3.486300
-4.355100 3.239700
-4.337200 3.130700
-4.319200 3.598700
-4.301300 3.496500
-4.283400 2.815700
-4.265500 1.046200
-4.247500 0.449500
-4.229600 0.139600
-4.211700 0.000000
-4.193800 0.000000
-4.175900 0.000000
-4.157900 0.000000
-4.140000 0.000000
-4.122100 0.000000
-4.104200 0.000000
-4.086200 0.000000
-4.068300 0.000000
-4.050400 0.000000
-4.032500 0.000000
-4.014600 0.000000
-3.996600 0.000000
-3.978700 0.000000
-3.960800 0.000000
-3.942900 0.000000
-3.924900 0.000000
-3.907000 0.000000
-3.889100 0.000000
-3.871200 0.000000
-3.853300 0.000000
-3.835300 0.000000
-3.817400 0.000000
-3.799500 0.000000
-3.781600 0.000000
-3.763600 0.000000
-3.745700 0.000000
-3.727800 0.000000
-3.709900 0.000000
-3.691900 0.000000
-3.674000 0.000000
-3.656100 0.000000
-3.638200 0.000000
-3.620300 0.000000
-3.602300 0.000000
-3.584400 0.000000
-3.566500 0.000000
-3.548600 0.000000
-3.530600 0.000000
-3.512700 0.000000
-3.494800 0.000000
-3.476900 0.000000
-3.459000 0.000000
-3.441000 0.000000
-3.423100 0.000000
-3.405200 0.000000
-3.387300 0.000000
-3.369300 0.000000
-3.351400 0.000000
-3.333500 0.000000
-3.315600 0.000000
-3.297700 0.000000
-3.279700 0.000000
-3.261800 0.000000
-3.243900 0.000000
-3.226000 0.000000
-3.208000 0.000000
-3.190100 0.000000
-3.172200 0.000000
-3.154300 0.849800
-3.136300 2.790000
-3.118400 4.434100
-3.100500 3.932500
-3.082600 3.634600
-3.064700 3.474700
-3.046700 3.469600
-3.028800 3.533600
-3.010900 3.749000
-2.993000 4.333200
-2.975000 5.888900
-2.957100 6.319300
-2.939200 7.326000
-2.921300 7.838400
-2.903400 7.315600
-2.885400 5.837200
-2.867500 5.172500
-2.849600 5.040200
-2.831700 4.990800
-2.813700 5.032200
-2.795800 5.030200
-2.777900 5.183100
-2.760000 5.723100
-2.742100 6.214900
-2.724100 6.005300
-2.706200 5.814600
-2.688300 5.724800
-2.670400 5.575500
-2.652400 5.245300
-2.634500 5.159200
-2.616600 5.117500
-2.598700 5.066200
-2.580800 5.843900
-2.562800 6.383000
-2.544900 7.296100
-2.527000 7.973200
-2.509100 9.327200
-2.491100 8.152800
-2.473200 7.504800
-2.455300 7.215600
-2.437400 6.907400
-2.419400 7.163900
-2.401500 7.614600
-2.383600 8.469600
-2.365700 10.322600
-2.347800 9.685600
-2.329800 10.286500
-2.311900 6.756400
-2.294000 5.054000
-2.276100 4.828500
-2.258100 4.540300
-2.240200 4.121600
-2.222300 4.029200
-2.204400 3.994700
-2.186500 4.365200
-2.168500 4.356700
-2.150600 4.050900
-2.132700 3.448300
-2.114800 2.715700
-2.096800 2.542700
-2.078900 2.265300
-2.061000 2.190100
-2.043100 2.182400
-2.025200 2.294600
-2.007200 2.939500
-1.989300 3.409300
-1.971400 3.184700
-1.953500 3.287000
-1.935500 3.302500
-1.917600 3.408000
-1.899700 3.393600
-1.881800 3.301500
-1.863900 3.311200
-1.845900 3.360700
-1.828000 3.448000
-1.810100 3.589000
-1.792200 3.624200
-1.774200 3.140200
-1.756300 3.020000
-1.738400 3.019600
-1.720500 3.053300
-1.702500 3.409400
-1.684600 4.222200
-1.666700 4.332200
-1.648800 4.225300
-1.630900 4.655300
-1.612900 5.095200
-1.595000 6.869400
-1.577100 4.864100
-1.559200 4.380400
-1.541200 4.287600
-1.523300 4.415100
-1.505400 4.598700
-1.487500 4.721700
-1.469600 4.870800
-1.451600 5.253600
-1.433700 5.741800
-1.415800 6.074300
-1.397900 6.030000
-1.379900 5.771900
-1.362000 5.705700
-1.344100 5.372200
-1.326200 5.228100
-1.308300 5.039400
-1.290300 5.055500
-1.272400 4.939800
-1.254500 4.687900
-1.236600 4.703100
-1.218600 5.114900
-1.200700 4.979500
-1.182800 5.106700
-1.164900 5.478700
-1.147000 6.484900
-1.129000 10.094200
-1.111100 9.853800
-1.093200 11.527700
-1.075300 10.764100
-1.057300 9.326400
-1.039400 7.556500
-1.021500 6.656500
-1.003600 5.349700
-0.985600 3.781100
-0.967700 3.082300
-0.949800 2.616800
-0.931900 2.234600
-0.914000 2.265300
-0.896000 2.436600
-0.878100 2.752600
-0.860200 3.322400
-0.842300 3.586300
-0.824300 3.602200
-0.806400 3.119500
-0.788500 2.617900
-0.770600 2.031500
-0.752700 1.043900
-0.734700 1.183300
-0.716800 1.430900
-0.698900 1.718900
-0.681000 1.769500
-0.663000 1.953400
-0.645100 2.249000
-0.627200 2.550400
-0.609300 2.658500
-0.591400 2.920800
-0.573400 3.257300
-0.555500 3.680900
-0.537600 4.258800
-0.519700 4.808000
-0.501700 5.532500
-0.483800 6.217800
-0.465900 7.636900
-0.448000 11.162700
-0.430100 9.813600
-0.412100 10.319500
-0.394200 7.094500
-0.376300 6.681200
-0.358400 6.352500
-0.340400 5.731300
-0.322500 6.531200
-0.304600 12.171700
-0.286700 10.194400
-0.268700 9.135600
-0.250800 8.597000
-0.232900 8.660000
-0.215000 8.135700
-0.197100 6.682200
-0.179100 5.626800
-0.161200 5.150600
-0.143300 5.321000
-0.125400 5.562900
-0.107400 5.793700
-0.089500 6.611000
-0.071600 7.518300
-0.053700 9.140500
-0.035800 10.240500
-0.017800 8.846600
0.000100 8.101200
0.018000 8.064100
0.035900 7.640500
0.053900 6.886800
0.071800 5.829800
0.089700 4.992200
0.107600 4.661600
0.125500 4.407100
0.143500 4.527500
0.161400 3.844900
0.179300 3.582700
0.197200 3.438100
0.215200 3.303000
0.233100 3.328500
0.251000 4.225600
0.268900 3.796100
0.286900 1.801700
0.304800 0.009300
0.322700 0.000000
0.340600 0.000000
0.358500 0.000000
0.376500 0.000000
0.394400 0.000000
0.412300 0.000000
0.430200 0.000000
0.448200 0.000000
0.466100 0.000000
0.484000 0.000000
0.501900 0.000000
0.519800 0.000000
0.537800 0.000000
0.555700 0.000000
0.573600 0.000000
0.591500 0.000000
0.609500 0.000000
0.627400 0.000000
0.645300 0.000000
0.663200 0.000000
0.681100 0.000000
0.699100 0.000000
0.717000 0.000000
0.734900 0.000000
0.752800 0.000000
0.770800 0.000000
0.788700 0.000000
0.806600 0.000000
0.824500 0.000000
0.842400 0.000000
0.860400 0.000000
0.878300 0.000000
0.896200 0.000000
0.914100 0.000000
0.932100 0.000000
0.950000 0.000000
0.967900 0.000000
0.985800 0.000000
1.003800 0.000000
1.021700 0.000000
1.039600 0.000000
1.057500 0.000000
1.075400 0.000000
1.093400 0.000000
1.111300 0.000000
1.129200 0.000000
1.147100 0.000000
1.165100 0.000000
1.183000 0.000000
1.200900 0.000000
1.218800 0.000000
1.236700 0.000000
1.254700 0.000000
1.272600 0.000000
1.290500 0.000000
1.308400 0.000000
1.326400 0.000000
1.344300 0.000000
1.362200 0.000000
1.380100 0.000000
1.398000 0.000000
1.416000 0.000000
1.433900 0.000000
1.451800 0.000000
1.469700 0.000000
1.487700 0.000000
1.505600 0.000000
1.523500 0.000000
1.541400 0.000000
1.559300 0.000000
1.577300 0.145100
1.595200 0.287900
1.613100 0.404200
1.631000 0.397200
1.649000 0.384700
1.666900 0.372800
1.684800 0.379400
1.702700 0.400800
1.720700 0.413700
1.738600 0.422700
1.756500 0.429500
1.774400 0.434200
1.792300 0.442400
1.810300 0.438600
1.828200 0.441700
1.846100 0.445600
1.864000 0.450600
1.882000 0.458300
1.899900 0.468100
1.917800 0.477200
1.935700 0.484000
1.953600 0.488500
1.971600 0.492100
1.989500 0.496000
2.007400 0.502000
2.025300 0.509700
2.043300 0.518100
2.061200 0.526800
2.079100 0.601800
2.097000 0.708500
2.114900 0.615100
2.132900 0.619900
2.150800 0.624400
2.168700 0.628000
2.186600 0.614500
2.204600 0.602800
2.222500 0.605700
2.240400 0.608000
2.258300 0.609900
2.276200 0.611500
2.294200 0.612900
2.312100 0.614500
2.330000 0.608000
2.347900 0.608800
2.365900 0.609900
2.383800 0.611100
2.401700 0.612700
2.419600 0.615600
2.437600 0.618500
2.455500 0.672200
2.473400 0.739800
2.491300 0.716200
2.509200 0.732200
2.527200 0.748100
2.545100 0.763500
2.563000 0.780300
2.580900 0.791600
2.598900 0.799600
2.616800 0.808700
2.634700 0.821100
2.652600 0.833100
2.670500 0.846000
2.688500 0.859000
2.706400 0.872000
2.724300 0.885000
2.742200 0.893000
2.760200 0.905800
2.778100 0.923400
2.796000 0.940100
2.813900 0.956500
2.831800 0.973100
2.849800 0.990100
2.867700 1.007100
2.885600 1.023900
2.903500 1.040800
2.921500 1.057800
2.939400 1.072800
2.957300 1.088400
2.975200 1.105300
2.993100 1.122800
3.011100 1.143800
3.029000 1.167100
3.046900 1.189200
3.064800 1.212800
3.082800 1.237500
3.100700 1.262400
3.118600 1.287700
3.136500 1.313100
3.154500 1.338500
3.172400 1.359800
3.190300 1.382400
3.208200 1.408700
3.226100 1.440800
3.244100 1.476800
3.262000 1.516400
3.279900 1.559900
3.297800 1.606500
3.315800 1.654800
3.333700 1.708800
3.351600 1.817100
3.369500 1.919900
3.387400 2.013700
3.405400 1.995400
3.423300 1.970800
3.441200 1.958500
3.459100 1.962900
3.477100 1.969900
3.495000 1.979900
3.512900 1.995800
3.530800 2.015400
3.548700 2.030000
3.566700 2.029800
3.584600 2.036700
3.602500 2.055300
3.620400 2.082000
3.638400 2.121000
3.656300 2.175700
3.674200 2.218300
3.692100 2.074100
3.710000 1.993900
3.728000 1.973200
3.745900 1.971900
3.763800 1.977900
3.781700 1.982900
3.799700 1.984900
3.817600 1.985900
3.835500 1.978300
3.853400 1.980000
3.871400 2.001000
3.889300 2.050200
3.907200 2.106500
3.925100 2.164600
3.943000 2.224400
3.961000 2.279800
3.978900 2.333800
3.996800 2.400100
4.014700 2.490100
4.032700 2.559400
4.050600 2.653100
4.068500 2.850300
4.086400 3.126500
4.104300 3.253200
4.122300 3.321100
4.140200 3.369600
4.158100 3.368200
4.176000 3.295800
4.194000 3.224800
4.211900 3.138500
4.229800 3.007800
4.247700 2.884700
4.265600 2.775800
4.283600 2.712400
4.301500 2.717100
4.319400 2.741700
4.337300 2.723300
4.355300 2.430000
4.373200 2.141900
4.391100 2.083300
4.409000 2.038200
4.427000 2.021800
4.444900 2.058800
4.462800 2.239100
4.480700 2.341300
4.498600 2.326800
4.516600 2.278200
4.534500 2.190700
4.552400 2.137600
4.570300 2.162200
4.588300 2.234100
4.606200 2.322400
4.624100 2.308300
4.642000 2.317400
4.659900 2.339800
4.677900 2.283700
4.695800 2.259300
4.713700 2.182400
4.731600 2.187700
4.749600 2.224200
4.767500 2.247800
4.785400 2.269700
4.803300 2.291500
4.821200 2.339100
4.839200 2.429900
4.857100 2.604000
4.875000 2.692800
4.892900 2.642300
4.910900 2.610700
4.928800 2.553700
4.946700 2.550400
4.964600 2.569400
4.982500 2.572100
5.000500 2.575000
5.018400 2.630600
5.036300 2.673100
5.054200 2.718200
5.072200 2.876500
5.090100 3.068900
5.108000 3.495800
5.125900 3.466200
5.143900 2.966100
5.161800 1.861500
5.179700 1.524400
5.197600 1.312400
5.215500 1.297900
5.233500 1.356600
5.251400 1.596200
5.269300 1.836000
5.287200 2.163600
5.305200 2.203300
5.323100 2.288700
5.341000 2.170000
5.358900 2.172700
5.376800 2.269600
5.394800 2.042000
5.412700 1.575300
5.430600 1.526500
5.448500 1.562600
5.466500 1.602200
5.484400 1.650700
5.502300 1.706600
5.520200 1.783100
5.538100 1.903600
5.556100 2.039000
5.574000 2.601500
5.591900 3.037400
5.609800 1.536400
5.627800 1.497500
5.645700 1.458700
5.663600 1.419800
5.681500 1.381200
5.699400 1.343600
5.717400 1.425400
5.735300 1.668600
5.753200 1.757000
5.771100 1.535100
5.789100 1.478400
5.807000 1.507500
5.824900 1.217500
5.842800 1.143300
5.860800 1.110500
5.878700 1.086700
5.896600 1.044800
5.914500 1.042000
5.932400 1.041700
5.950400 1.061600
5.968300 1.107200
5.986200 1.251100
6.004100 1.718900
6.022100 2.014800
6.040000 2.079300
6.057900 2.215400
6.075800 2.318400
6.093700 2.394200
6.111700 2.508700
6.129600 2.694000
6.147500 3.082600
6.165400 2.949200
6.183400 2.980200
6.201300 2.840700
6.219200 2.797500
6.237100 2.750600
6.255000 2.692000
6.273000 2.505600
6.290900 2.438600
6.308800 2.396500
6.326700 2.379300
6.344700 2.382200
6.362600 2.410900
6.380500 2.459600
6.398400 2.431200
6.416300 2.284400
6.434300 2.211000
6.452200 2.177300
6.470100 2.145200
6.488000 2.237900
6.506000 2.229900
6.523900 2.222300
6.541800 2.226400
6.559700 2.204200
6.577700 2.072900
6.595600 1.937100
6.613500 1.789300
6.631400 1.697600
6.649300 1.629700
6.667300 1.605100
6.685200 1.594500
6.703100 1.591300
6.721000 1.593400
6.739000 1.600200
6.756900 1.613500
6.774800 1.630800
6.792700 1.702100
6.810600 1.938700
6.828600 2.117800
6.846500 2.149000
6.864400 2.098900
6.882300 2.013100
6.900300 1.981700
6.918200 1.958700
6.936100 1.947100
6.954000 1.936700
6.971900 1.929400
6.989900 1.923900
7.007800 1.919500
7.025700 1.916800
7.043600 1.935700
7.061600 2.055600
7.079500 2.216400
7.097400 2.136700
7.115300 2.013100
7.133200 1.996800
7.151200 1.983600
7.169100 2.037100
7.187000 2.084400
7.204900 2.117300
7.222900 2.232900
7.240800 2.244500
7.258700 2.328000
7.276600 2.454900
7.294600 2.623100
7.312500 2.811600
7.330400 3.093200
7.348300 3.441900
7.366200 5.007700
7.384200 5.104700
7.402100 4.484500
7.420000 4.065200
7.437900 3.836600
7.455900 3.773700
7.473800 4.651800
7.491700 4.408600
7.509600 3.826100
7.527500 3.198400
7.545500 2.615100
7.563400 2.599800
7.581300 2.777100
7.599200 2.728900
7.617200 2.674000
7.635100 2.670000
7.653000 2.606600
7.670900 2.666600
7.688800 2.984700
7.706800 3.291400
7.724700 3.401900
7.742600 3.547600
7.760500 3.948600
7.778500 3.828700
7.796400 3.518900
7.814300 3.393700
7.832200 3.220900
7.850200 3.081200
7.868100 3.005400
7.886000 2.870100
7.903900 2.607800
7.921800 2.489700
7.939800 2.427600
7.957700 2.397600
7.975600 2.375800
7.993500 2.340600
8.011500 2.349700
8.029400 2.406500
8.047300 2.552900
8.065200 2.658600
8.083100 2.685500
8.101100 2.685600
8.119000 2.721800
8.136900 2.735800
8.154800 2.682700
8.172800 2.642900
8.190700 2.586500
8.208600 2.570700
8.226500 2.551200
8.244400 2.524800
8.262400 2.621400
8.280300 2.438800
8.298200 2.505100
8.316100 2.314700
8.334100 2.214800
8.352000 2.206500
8.369900 2.210100
8.387800 2.213900
8.405700 2.218700
8.423700 2.222900
8.441600 2.223900
8.459500 2.214400
8.477400 2.211200
8.495400 2.210600
8.513300 2.270800
8.531200 2.353800
8.549100 2.491500
8.567100 2.383200
8.585000 2.296500
8.602900 2.369600
8.620800 2.475600
8.638700 2.528200
8.656700 2.529700
8.674600 2.543300
8.692500 2.560400
8.710400 2.560500
8.728400 2.553600
8.746300 2.539600
8.764200 2.522300
8.782100 2.498000
8.800000 2.489200
8.818000 2.445100
8.835900 2.376600
8.853800 2.320500
8.871700 2.280700
8.889700 2.245600
8.907600 2.228300
8.925500 2.213800
8.943400 2.199000
8.961300 2.183600
8.979300 2.166400
8.997200 2.146500
9.015100 2.125200
9.033000 2.107400
9.051000 2.093800
9.068900 2.080700
9.086800 2.068200
9.104700 2.056000
9.122600 2.044300
9.140600 2.033500
9.158500 2.024100
9.176400 2.016100
9.194300 2.007700
9.212300 1.997700
9.230200 1.986300
9.248100 1.972200
9.266000 1.960800
9.284000 1.943500
9.301900 1.928500
9.319800 1.913900
9.337700 1.886700
9.355600 1.840700
9.373600 1.777000
9.391500 1.737900
9.409400 1.724400
9.427300 1.701400
9.445300 1.674300
9.463200 1.647400
9.481100 1.620700
9.499000 1.601500
9.516900 1.585800
9.534900 1.573200
9.552800 1.560100
9.570700 1.547300
9.588600 1.536000
9.606600 1.525100
9.624500 1.514500
9.642400 1.504300
9.660300 1.495400
9.678200 1.488200
9.696200 1.481300
9.714100 1.474700
9.732000 1.468500
9.749900 1.486600
9.767900 1.475100
9.785800 1.465100
9.803700 1.455800
9.821600 1.447100
9.839500 1.437000
9.857500 1.428200
9.875400 1.420400
9.893300 1.418500
9.911200 1.417700
9.929200 1.417100
9.947100 1.416500
9.965000 1.416000
9.982900 1.415300
10.000900 1.414400
10.018800 1.413200
10.036700 1.516700
10.054600 1.827300
10.072500 2.012900
10.090500 1.878000
10.108400 1.836200
10.126300 1.872300
10.144200 1.909800
10.162200 1.953700
10.180100 2.005800
10.198000 2.059500
10.215900 2.117700
10.233800 2.183800
10.251800 2.233600
10.269700 2.274700
10.287600 2.333800
10.305500 2.421300
10.323500 2.448800
10.341400 2.492300
10.359300 2.536600
10.377200 2.582300
10.395100 2.637100
10.413100 2.702100
10.431000 2.774300
10.448900 2.843900
10.466800 2.914900
10.484800 2.986900
10.502700 3.021900
10.520600 2.908400
10.538500 2.880400
10.556400 2.867200
10.574400 2.895100
10.592300 2.948800
10.610200 3.070600
10.628100 3.095900
10.646100 3.023400
10.664000 2.981600
10.681900 2.949900
10.699800 2.971100
10.717800 3.015100
10.735700 3.046600
10.753600 3.068400
10.771500 3.095400
10.789400 3.063100
10.807400 2.953500
10.825300 2.876400
10.843200 2.795800
10.861100 2.720200
10.879100 2.632100
10.897000 2.540700
10.914900 2.468200
10.932800 2.393800
10.950700 2.314900
10.968700 2.226000
10.986600 2.148100
11.004500 2.066400
11.022400 1.990200
11.040400 1.849800
11.058300 1.656700
11.076200 1.449300
11.094100 1.288200
11.112000 1.207000
11.130000 1.151900
11.147900 1.110000
11.165800 1.071300
11.183700 1.035200
11.201700 0.999100
11.219600 0.971000
11.237500 0.944400
11.255400 0.917100
11.273400 0.888800
11.291300 0.869700
11.309200 0.853700
11.327100 0.837300
11.345000 0.820400
11.363000 0.808900
11.380900 0.790200
11.398800 0.766700
11.416700 0.752400
11.434700 0.740200
11.452600 0.730000
11.470500 0.721900
11.488400 0.715500
11.506300 0.709900
11.524300 0.706100
11.542200 0.705100
11.560100 0.705100
11.578000 0.706400
11.596000 0.710400
11.613900 0.716900
11.631800 0.726900
11.649700 0.750100
11.667600 0.761700
11.685600 0.770000
11.703500 0.779000
11.721400 0.792900
11.739300 0.807200
11.757300 0.823400
11.775200 0.839200
11.793100 0.850100
11.811000 0.860100
11.828900 0.869100
11.846900 0.876000
11.864800 0.882700
11.882700 0.889900
11.900600 0.898600
11.918600 0.909300
11.936500 0.927600
11.954400 0.937200
11.972300 0.953100
11.990300 0.979600
12.008200 1.020800
12.026100 1.063200
12.044000 1.092500
12.061900 1.134700
12.079900 1.204600
12.097800 1.279800
12.115700 1.413900
12.133600 1.583400
12.151600 1.612800
12.169500 1.644800
12.187400 1.693800
12.205300 1.623600
12.223200 1.568700
12.241200 1.574300
12.259100 1.563600
12.277000 1.554000
12.294900 1.539800
12.312900 1.513300
12.330800 1.501700
12.348700 1.490600
12.366600 1.489700
12.384500 1.471100
12.402500 1.476700
12.420400 1.484500
12.438300 1.492500
12.456200 1.500200
12.474200 1.505400
12.492100 1.512800
12.510000 1.521300
12.527900 1.525200
12.545800 1.527000
12.563800 1.529800
12.581700 1.531500
12.599600 1.529400
12.617500 1.604400
12.635500 1.602500
12.653400 1.591700
12.671300 1.603900
12.689200 1.620500
12.707200 1.640300
12.725100 1.676900
12.743000 1.722100
12.760900 1.766300
12.778800 1.802800
12.796800 1.832800
12.814700 1.874300
12.832600 2.060500
12.850500 3.274000
12.868500 2.891800
12.886400 2.524600
12.904300 2.126400
12.922200 2.006400
12.940100 1.946600
12.958100 1.892400
12.976000 1.860000
12.993900 1.894100
13.011800 1.928500
13.029800 1.930700
13.047700 1.973800
13.065600 2.069400
13.083500 2.184300
13.101400 2.342500
13.119400 2.503900
13.137300 2.648400
13.155200 2.793900
13.173100 3.006700
13.191100 3.212400
13.209000 3.355300
13.226900 3.651100
13.244800 3.786000
13.262700 3.880000
13.280700 3.918500
13.298600 3.931800
13.316500 3.842800
13.334400 3.691300
13.352400 3.581300
13.370300 3.465500
13.388200 3.371300
13.406100 3.317800
13.424100 3.255000
13.442000 3.210600
13.459900 3.180000
13.477800 3.084700
13.495700 2.956200
13.513700 2.807600
13.531600 2.649000
13.549500 2.516300
13.567400 2.468500
13.585400 2.336300
13.603300 2.215100
13.621200 2.073600
13.639100 2.017500
13.657000 1.966600
13.675000 1.895200
13.692900 1.826200
13.710800 1.751700
13.728700 1.670300
13.746700 1.614800
13.764600 1.564900
13.782500 1.517800
13.800400 1.487900
13.818300 1.470900
13.836300 1.459700
13.854200 1.459800
13.872100 1.488200
13.890000 1.508400
13.908000 1.523600
13.925900 1.522500
13.943800 1.513900
13.961700 1.478700
13.979600 1.438800
13.997600 1.340700
14.015500 1.329800
14.033400 1.345400
14.051300 1.359800
14.069300 1.377600
14.087200 1.395000
14.105100 1.406600
14.123000 1.425700
14.141000 1.442500
14.158900 1.462100
14.176800 1.486700
14.194700 1.514400
14.212600 1.425300
14.230600 1.400600
14.248500 1.424000
14.266400 1.474600
14.284300 1.555700
14.302300 1.622400
14.320200 1.667900
14.338100 1.701600
14.356000 1.737500
14.373900 1.721500
14.391900 1.742900
14.409800 1.835400
14.427700 1.942400
14.445600 1.845700
14.463600 1.782800
14.481500 1.789000
14.499400 1.828200
14.517300 1.896000
14.535200 1.971100
14.553200 2.041800
14.571100 2.118600
14.589000 2.282600
14.606900 2.449600
14.624900 2.646400
14.642800 2.771800
14.660700 2.831700
14.678600 2.626600
14.696600 2.419800
14.714500 2.404500
14.732400 2.336100
14.750300 2.291200
14.768200 2.207200
14.786200 2.018000
14.804100 1.965900
14.822000 1.937100
14.839900 1.939100
14.857900 1.993800
14.875800 2.136300
14.893700 2.185000
14.911600 1.794700
14.929500 1.597100
14.947500 1.417600
14.965400 1.251200
14.983300 1.106200
15.001200 0.984900
15.019200 0.873200
15.037100 0.767600
15.055000 0.680100
15.072900 0.621100
15.090800 0.590300
15.108800 0.567800
15.126700 0.550800
15.144600 0.531200
15.162500 0.513300
15.180500 0.496800
15.198400 0.481300
15.216300 0.462900
15.234200 0.444700
15.252100 0.439800
15.270100 0.446800
15.288000 0.444500
15.305900 0.435700
15.323800 0.426000
15.341800 0.418200
15.359700 0.412100
15.377600 0.387100
15.395500 0.311400
15.413500 0.254800
15.431400 0.212000
15.449300 0.173200
15.467200 0.139800
15.485100 0.117700
15.503100 0.105900
15.521000 0.094700
15.538900 0.082900
15.556800 0.070400
15.574800 0.057300
15.592700 0.043600
15.610600 0.000000
15.628500 0.000000
15.646400 0.000000
15.664400 0.000000
15.682300 0.000000
15.700200 0.000000
15.718100 0.000000
15.736100 0.000000
15.754000 0.000000
15.771900 0.000000
15.789800 0.000000
15.807700 0.000000
15.825700 0.000000
15.843600 0.000000
15.861500 0.000000
15.879400 0.000000
15.897400 0.000000
15.915300 0.000000
15.933200 0.000000
15.951100 0.000000
15.969000 0.000000
15.987000 0.000000
16.004900 0.000000
16.022800 0.000000
16.040700 0.000000
16.058700 0.000000
16.076600 0.000000
16.094500 0.000000
16.112400 0.000000
16.130400 0.000000
16.148300 0.000000
16.166200 0.000000
16.184100 0.000000
16.202000 0.000000
16.220000 0.000000
16.237900 0.000000
16.255800 0.000000
16.273700 0.000000
16.291700 0.000000
16.309600 0.000000
16.327500 0.000000
16.345400 0.000000
16.363300 0.000000
16.381300 0.000000
16.399200 0.000000
16.417100 0.000000
16.435000 0.000000
16.453000 0.000000
16.470900 0.000000
16.488800 0.000000
16.506700 0.000000
16.524600 0.000000
16.542600 0.000000
16.560500 0.000000
16.578400 0.000000
16.596300 0.000000
16.614300 0.000000
16.632200 0.000000
16.650100 0.000000
16.668000 0.000000
16.685900 0.000000
16.703900 0.000000
16.721800 0.000000
16.739700 0.000000
16.757600 0.000000
16.775600 0.000000
16.793500 0.000000
16.811400 0.000000
16.829300 0.000000
16.847300 0.000000
16.865200 0.000000
16.883100 0.000000
16.901000 0.000000
16.918900 0.000000
16.936900 0.000000
16.954800 0.000000
16.972700 0.000000
16.990600 0.000000
17.008600 0.000000
17.026500 0.000000
17.044400 0.000000
17.062300 0.000000
17.080200 0.000000
17.098200 0.000000
17.116100 0.000000
17.134000 0.000000
17.151900 0.000000
17.169900 0.000000
17.187800 0.000000
17.205700 0.000000
17.223600 0.000000
e
