set title 'mp-1064492 - Density of States'
set xlabel 'Energy (eV)'
set ylabel 'DOS (states/eV)'
set grid
set xrange [-10:10]
set yrange [0:18.907]
set xzeroaxis lt -1
set terminal png size 800,600
set output 'mp-1064492_dos_gnuplot.png'
plot '-' using 1:2 with lines title 'DOS'
-41.969100 0.000000
-41.925600 0.000000
-41.882000 0.000000
-41.838500 0.000000
-41.794900 0.000000
-41.751400 0.000000
-41.707800 0.000000
-41.664200 0.000000
-41.620700 0.000000
-41.577100 0.000000
-41.533600 0.000000
-41.490000 0.000000
-41.446500 0.000000
-41.402900 0.000000
-41.359400 0.000000
-41.315800 0.000000
-41.272300 0.000000
-41.228700 0.000000
-41.185100 0.000000
-41.141600 0.000000
-41.098000 0.000000
-41.054500 0.000000
-41.010900 0.000000
-40.967400 0.000000
-40.923800 0.000000
-40.880300 0.000000
-40.836700 0.000000
-40.793200 0.000000
-40.749600 0.000000
-40.706100 0.000000
-40.662500 0.000000
-40.618900 0.000000
-40.575400 0.000000
-40.531800 0.000000
-40.488300 0.000000
-40.444700 0.000000
-40.401200 0.000000
-40.357600 0.000000
-40.314100 0.000000
-40.270500 0.000000
-40.227000 0.000000
-40.183400 0.000000
-40.139900 0.000000
-40.096300 0.000000
-40.052700 0.000000
-40.009200 0.000000
-39.965600 0.000000
-39.922100 0.000000
-39.878500 0.000000
-39.835000 0.000000
-39.791400 0.000000
-39.747900 0.000000
-39.704300 0.000000
-39.660800 0.000000
-39.617200 0.000000
-39.573700 0.000000
-39.530100 0.000000
-39.486500 0.000000
-39.443000 0.000000
-39.399400 0.000000
-39.355900 0.000000
-39.312300 0.000000
-39.268800 0.000000
-39.225200 0.000000
-39.181700 0.000000
-39.138100 0.000000
-39.094600 0.000000
-39.051000 0.000000
-39.007400 0.000000
-38.963900 0.000000
-38.920300 0.000000
-38.876800 0.000000
-38.833200 0.000000
-38.789700 0.000000
-38.746100 0.000000
-38.702600 0.000000
-38.659000 0.000000
-38.615500 0.000000
-38.571900 0.000000
-38.528400 0.000000
-38.484800 0.000000
-38.441200 0.000000
-38.397700 0.000000
-38.354100 0.000000
-38.310600 0.000000
-38.267000 0.000000
-38.223500 0.000000
-38.179900 0.000000
-38.136400 0.000400
-38.092800 0.028600
-38.049300 0.612700
-38.005700 4.486600
-37.962200 15.982600
-37.918600 32.586700
-37.875000 28.706700
-37.831500 8.622700
-37.787900 0.792300
-37.744400 0.020700
-37.700800 0.000100
-37.657300 0.000000
-37.613700 0.000000
-37.570200 0.000000
-37.526600 0.000000
-37.483100 0.000000
-37.439500 0.000000
-37.396000 0.000000
-37.352400 0.000000
-37.308800 0.000000
-37.265300 0.000000
-37.221700 0.000000
-37.178200 0.000000
-37.134600 0.000000
-37.091100 0.000000
-37.047500 0.000000
-37.004000 0.000000
-36.960400 0.000000
-36.916900 0.000000
-36.873300 0.000000
-36.829700 0.000000
-36.786200 0.000000
-36.742600 0.000000
-36.699100 0.000000
-36.655500 0.000000
-36.612000 0.000000
-36.568400 0.000000
-36.524900 0.000000
-36.481300 0.000000
-36.437800 0.000000
-36.394200 0.000000
-36.350700 0.000000
-36.307100 0.000000
-36.263500 0.000000
-36.220000 0.000000
-36.176400 0.000000
-36.132900 0.000000
-36.089300 0.000000
-36.045800 0.000000
-36.002200 0.000000
-35.958700 0.000000
-35.915100 0.000000
-35.871600 0.000000
-35.828000 0.000000
-35.784500 0.000000
-35.740900 0.000000
-35.697300 0.000000
-35.653800 0.000000
-35.610200 0.000000
-35.566700 0.000000
-35.523100 0.000000
-35.479600 0.000000
-35.436000 0.000000
-35.392500 0.000000
-35.348900 0.000000
-35.305400 0.000000
-35.261800 0.000000
-35.218200 0.000000
-35.174700 0.000000
-35.131100 0.000000
-35.087600 0.000000
-35.044000 0.000000
-35.000500 0.000000
-34.956900 0.000000
-34.913400 0.000000
-34.869800 0.000000
-34.826300 0.000000
-34.782700 0.000000
-34.739200 0.000000
-34.695600 0.000000
-34.652000 0.000000
-34.608500 0.000000
-34.564900 0.000000
-34.521400 0.000000
-34.477800 0.000000
-34.434300 0.000000
-34.390700 0.000000
-34.347200 0.000000
-34.303600 0.000000
-34.260100 0.000000
-34.216500 0.000000
-34.173000 0.000000
-34.129400 0.000000
-34.085800 0.000000
-34.042300 0.000000
-33.998700 0.000000
-33.955200 0.000000
-33.911600 0.000000
-33.868100 0.000000
-33.824500 0.000000
-33.781000 0.000000
-33.737400 0.000000
-33.693900 0.000000
-33.650300 0.000000
-33.606800 0.000000
-33.563200 0.000000
-33.519600 0.000000
-33.476100 0.000000
-33.432500 0.000000
-33.389000 0.000000
-33.345400 0.000000
-33.301900 0.000000
-33.258300 0.000000
-33.214800 0.000000
-33.171200 0.000000
-33.127700 0.000000
-33.084100 0.000000
-33.040500 0.000000
-32.997000 0.000000
-32.953400 0.000000
-32.909900 0.000000
-32.866300 0.000000
-32.822800 0.000000
-32.779200 0.000000
-32.735700 0.000000
-32.692100 0.000000
-32.648600 0.000000
-32.605000 0.000000
-32.561500 0.000000
-32.517900 0.000000
-32.474300 0.000000
-32.430800 0.000000
-32.387200 0.000000
-32.343700 0.000000
-32.300100 0.000000
-32.256600 0.000000
-32.213000 0.000000
-32.169500 0.000000
-32.125900 0.000000
-32.082400 0.000000
-32.038800 0.000000
-31.995300 0.000000
-31.951700 0.000000
-31.908100 0.000000
-31.864600 0.000000
-31.821000 0.000000
-31.777500 0.000000
-31.733900 0.000000
-31.690400 0.000000
-31.646800 0.000000
-31.603300 0.000000
-31.559700 0.000000
-31.516200 0.000000
-31.472600 0.000000
-31.429100 0.000000
-31.385500 0.000000
-31.341900 0.000000
-31.298400 0.000000
-31.254800 0.000000
-31.211300 0.000000
-31.167700 0.000000
-31.124200 0.000000
-31.080600 0.000000
-31.037100 0.000000
-30.993500 0.000000
-30.950000 0.000000
-30.906400 0.000000
-30.862800 0.000000
-30.819300 0.000000
-30.775700 0.000000
-30.732200 0.000000
-30.688600 0.000000
-30.645100 0.000000
-30.601500 0.000000
-30.558000 0.000000
-30.514400 0.000000
-30.470900 0.000000
-30.427300 0.000000
-30.383800 0.000000
-30.340200 0.000000
-30.296600 0.000000
-30.253100 0.000000
-30.209500 0.000000
-30.166000 0.000000
-30.122400 0.000000
-30.078900 0.000000
-30.035300 0.000000
-29.991800 0.000000
-29.948200 0.000000
-29.904700 0.000000
-29.861100 0.000000
-29.817600 0.000000
-29.774000 0.000000
-29.730400 0.000000
-29.686900 0.000000
-29.643300 0.000000
-29.599800 0.000000
-29.556200 0.000000
-29.512700 0.000000
-29.469100 0.000000
-29.425600 0.000000
-29.382000 0.000000
-29.338500 0.000000
-29.294900 0.000000
-29.251400 0.000000
-29.207800 0.000000
-29.164200 0.000000
-29.120700 0.000000
-29.077100 0.000000
-29.033600 0.000000
-28.990000 0.000000
-28.946500 0.000000
-28.902900 0.000000
-28.859400 0.000000
-28.815800 0.000000
-28.772300 0.000000
-28.728700 0.000000
-28.685100 0.000000
-28.641600 0.000000
-28.598000 0.000000
-28.554500 0.000000
-28.510900 0.000000
-28.467400 0.000000
-28.423800 0.000000
-28.380300 0.000000
-28.336700 0.000000
-28.293200 0.000000
-28.249600 0.000000
-28.206100 0.000000
-28.162500 0.000000
-28.118900 0.000000
-28.075400 0.000000
-28.031800 0.000000
-27.988300 0.000000
-27.944700 0.000000
-27.901200 0.000000
-27.857600 0.000000
-27.814100 0.000000
-27.770500 0.000000
-27.727000 0.000000
-27.683400 0.000000
-27.639900 0.000000
-27.596300 0.000000
-27.552700 0.000000
-27.509200 0.000000
-27.465600 0.000000
-27.422100 0.000000
-27.378500 0.000000
-27.335000 0.000000
-27.291400 0.000000
-27.247900 0.000000
-27.204300 0.000000
-27.160800 0.000000
-27.117200 0.000000
-27.073700 0.000000
-27.030100 0.000000
-26.986500 0.000000
-26.943000 0.000000
-26.899400 0.000000
-26.855900 0.000000
-26.812300 0.000000
-26.768800 0.000000
-26.725200 0.000000
-26.681700 0.000000
-26.638100 0.000000
-26.594600 0.000000
-26.551000 0.000000
-26.507400 0.000000
-26.463900 0.000000
-26.420300 0.000000
-26.376800 0.000000
-26.333200 0.000000
-26.289700 0.000000
-26.246100 0.000000
-26.202600 0.000000
-26.159000 0.000000
-26.115500 0.000000
-26.071900 0.000000
-26.028400 0.000000
-25.984800 0.000000
-25.941200 0.000000
-25.897700 0.000000
-25.854100 0.000000
-25.810600 0.000000
-25.767000 0.000000
-25.723500 0.000000
-25.679900 0.000000
-25.636400 0.000000
-25.592800 0.000000
-25.549300 0.000000
-25.505700 0.000000
-25.462200 0.000000
-25.418600 0.000000
-25.375000 0.000000
-25.331500 0.000000
-25.287900 0.000000
-25.244400 0.000000
-25.200800 0.000000
-25.157300 0.000000
-25.113700 0.000000
-25.070200 0.000000
-25.026600 0.000000
-24.983100 0.000000
-24.939500 0.000000
-24.896000 0.000000
-24.852400 0.000000
-24.808800 0.000000
-24.765300 0.000000
-24.721700 0.000000
-24.678200 0.000000
-24.634600 0.000000
-24.591100 0.000000
-24.547500 0.000000
-24.504000 0.000000
-24.460400 0.000000
-24.416900 0.000000
-24.373300 0.000000
-24.329700 0.000000
-24.286200 0.000000
-24.242600 0.000000
-24.199100 0.000000
-24.155500 0.000000
-24.112000 0.000000
-24.068400 0.000000
-24.024900 0.000000
-23.981300 0.000000
-23.937800 0.000000
-23.894200 0.000000
-23.850700 0.000000
-23.807100 0.000000
-23.763500 0.000000
-23.720000 0.000000
-23.676400 0.000000
-23.632900 0.000000
-23.589300 0.000000
-23.545800 0.000000
-23.502200 0.000000
-23.458700 0.000000
-23.415100 0.000000
-23.371600 0.000000
-23.328000 0.000000
-23.284500 0.000000
-23.240900 0.000000
-23.197300 0.000000
-23.153800 0.000000
-23.110200 0.000000
-23.066700 0.000000
-23.023100 0.000000
-22.979600 0.000000
-22.936000 0.000000
-22.892500 0.000000
-22.848900 0.000000
-22.805400 0.000000
-22.761800 0.000000
-22.718300 0.000000
-22.674700 0.000000
-22.631100 0.000000
-22.587600 0.000000
-22.544000 0.000000
-22.500500 0.000000
-22.456900 0.000000
-22.413400 0.000000
-22.369800 0.000000
-22.326300 0.000000
-22.282700 0.000000
-22.239200 0.000000
-22.195600 0.000000
-22.152000 0.000000
-22.108500 0.000000
-22.064900 0.000000
-22.021400 0.000000
-21.977800 0.000000
-21.934300 0.000000
-21.890700 0.000000
-21.847200 0.000000
-21.803600 0.000000
-21.760100 0.000000
-21.716500 0.000000
-21.673000 0.000000
-21.629400 0.000000
-21.585800 0.000000
-21.542300 0.000000
-21.498700 0.000000
-21.455200 0.000000
-21.411600 0.000000
-21.368100 0.000000
-21.324500 0.000000
-21.281000 0.000000
-21.237400 0.000000
-21.193900 0.000000
-21.150300 0.000000
-21.106800 0.000000
-21.063200 0.000000
-21.019600 0.000000
-20.976100 0.000000
-20.932500 0.000000
-20.889000 0.000000
-20.845400 0.000000
-20.801900 0.000000
-20.758300 0.000000
-20.714800 0.000000
-20.671200 0.000000
-20.627700 0.000000
-20.584100 0.000000
-20.540600 0.000000
-20.497000 0.000000
-20.453400 0.000000
-20.409900 0.000000
-20.366300 0.000000
-20.322800 0.000000
-20.279200 0.000000
-20.235700 0.000000
-20.192100 0.000000
-20.148600 0.000000
-20.105000 0.000000
-20.061500 0.000000
-20.017900 0.000000
-19.974300 0.000000
-19.930800 0.000000
-19.887200 0.003900
-19.843700 0.130500
-19.800100 1.094100
-19.756600 2.491600
-19.713000 3.111700
-19.669500 6.706600
-19.625900 9.615700
-19.582400 9.817900
-19.538800 10.384900
-19.495300 12.901500
-19.451700 10.629300
-19.408100 6.325100
-19.364600 4.239300
-19.321000 4.989700
-19.277500 5.748300
-19.233900 5.001600
-19.190400 6.464000
-19.146800 13.470900
-19.103300 23.619000
-19.059700 26.000300
-19.016200 23.161500
-18.972600 18.526400
-18.929100 17.897300
-18.885500 19.159200
-18.841900 14.156800
-18.798400 10.478600
-18.754800 7.345200
-18.711300 1.907700
-18.667700 0.138900
-18.624200 0.002600
-18.580600 0.000000
-18.537100 0.000000
-18.493500 0.000000
-18.450000 0.000000
-18.406400 0.000000
-18.362800 0.000000
-18.319300 0.000000
-18.275700 0.000000
-18.232200 0.000000
-18.188600 0.000000
-18.145100 0.000000
-18.101500 0.000000
-18.058000 0.000000
-18.014400 0.000000
-17.970900 0.000000
-17.927300 0.000000
-17.883800 0.000000
-17.840200 0.000000
-17.796600 0.000000
-17.753100 0.000000
-17.709500 0.000000
-17.666000 0.000000
-17.622400 0.000000
-17.578900 0.000000
-17.535300 0.000000
-17.491800 0.000000
-17.448200 0.000000
-17.404700 0.000000
-17.361100 0.000000
-17.317600 0.000000
-17.274000 0.000000
-17.230400 0.000000
-17.186900 0.000000
-17.143300 0.000000
-17.099800 0.000000
-17.056200 0.000000
-17.012700 0.000000
-16.969100 0.000000
-16.925600 0.000000
-16.882000 0.000000
-16.838500 0.000000
-16.794900 0.000000
-16.751400 0.000000
-16.707800 0.000000
-16.664200 0.000000
-16.620700 0.000000
-16.577100 0.000000
-16.533600 0.000000
-16.490000 0.000000
-16.446500 0.000000
-16.402900 0.000000
-16.359400 0.000000
-16.315800 0.000000
-16.272300 0.000000
-16.228700 0.000000
-16.185100 0.000000
-16.141600 0.000000
-16.098000 0.000000
-16.054500 0.000000
-16.010900 0.000000
-15.967400 0.000000
-15.923800 0.000000
-15.880300 0.000000
-15.836700 0.000000
-15.793200 0.000000
-15.749600 0.000000
-15.706100 0.000000
-15.662500 0.000000
-15.618900 0.000000
-15.575400 0.000000
-15.531800 0.000000
-15.488300 0.002800
-15.444700 0.065100
-15.401200 0.380300
-15.357600 0.587800
-15.314100 0.395600
-15.270500 0.698400
-15.227000 1.287400
-15.183400 1.774900
-15.139900 2.490900
-15.096300 2.837500
-15.052700 4.968800
-15.009200 8.738600
-14.965600 7.843900
-14.922100 7.513000
-14.878500 5.105200
-14.835000 1.577600
-14.791400 3.320200
-14.747900 8.347000
-14.704300 10.010400
-14.660800 10.015800
-14.617200 6.949700
-14.573700 1.739300
-14.530100 0.581700
-14.486500 1.923400
-14.443000 2.063500
-14.399400 0.579300
-14.355900 0.041300
-14.312300 0.000700
-14.268800 0.000000
-14.225200 0.000000
-14.181700 0.000000
-14.138100 0.000000
-14.094600 0.000000
-14.051000 0.000000
-14.007400 0.000000
-13.963900 0.000000
-13.920300 0.000000
-13.876800 0.000000
-13.833200 0.000000
-13.789700 0.000000
-13.746100 0.000000
-13.702600 0.000000
-13.659000 0.000000
-13.615500 0.000000
-13.571900 0.000000
-13.528400 0.000000
-13.484800 0.000000
-13.441200 0.000000
-13.397700 0.000000
-13.354100 0.000000
-13.310600 0.000000
-13.267000 0.000000
-13.223500 0.000000
-13.179900 0.000000
-13.136400 0.000000
-13.092800 0.000000
-13.049300 0.000000
-13.005700 0.000000
-12.962200 0.000000
-12.918600 0.000000
-12.875000 0.000000
-12.831500 0.000000
-12.787900 0.000000
-12.744400 0.000000
-12.700800 0.000000
-12.657300 0.000000
-12.613700 0.000000
-12.570200 0.000000
-12.526600 0.000000
-12.483100 0.000000
-12.439500 0.000000
-12.396000 0.000000
-12.352400 0.000000
-12.308800 0.000000
-12.265300 0.000000
-12.221700 0.000000
-12.178200 0.000000
-12.134600 0.000000
-12.091100 0.000000
-12.047500 0.000000
-12.004000 0.000000
-11.960400 0.000000
-11.916900 0.000000
-11.873300 0.000000
-11.829700 0.000000
-11.786200 0.000000
-11.742600 0.000000
-11.699100 0.000000
-11.655500 0.000000
-11.612000 0.000000
-11.568400 0.000000
-11.524900 0.000000
-11.481300 0.000000
-11.437800 0.000000
-11.394200 0.000000
-11.350700 0.000000
-11.307100 0.000000
-11.263500 0.000000
-11.220000 0.000000
-11.176400 0.000000
-11.132900 0.000000
-11.089300 0.000000
-11.045800 0.000000
-11.002200 0.000000
-10.958700 0.000000
-10.915100 0.000000
-10.871600 0.000000
-10.828000 0.000000
-10.784500 0.000000
-10.740900 0.000000
-10.697300 0.000000
-10.653800 0.000000
-10.610200 0.000000
-10.566700 0.000000
-10.523100 0.000000
-10.479600 0.000000
-10.436000 0.000000
-10.392500 0.000000
-10.348900 0.000000
-10.305400 0.000000
-10.261800 0.000000
-10.218300 0.000000
-10.174700 0.000000
-10.131100 0.000000
-10.087600 0.000000
-10.044000 0.000000
-10.000500 0.000000
-9.956900 0.000000
-9.913400 0.000000
-9.869800 0.000000
-9.826300 0.000000
-9.782700 0.000000
-9.739200 0.000000
-9.695600 0.000000
-9.652000 0.000000
-9.608500 0.000000
-9.564900 0.000000
-9.521400 0.000000
-9.477800 0.000000
-9.434300 0.000000
-9.390700 0.000000
-9.347200 0.000000
-9.303600 0.000000
-9.260100 0.000000
-9.216500 0.000000
-9.173000 0.000000
-9.129400 0.000000
-9.085800 0.000000
-9.042300 0.000000
-8.998700 0.000000
-8.955200 0.000000
-8.911600 0.000000
-8.868100 0.000000
-8.824500 0.000000
-8.781000 0.000000
-8.737400 0.000000
-8.693900 0.000000
-8.650300 0.000000
-8.606800 0.000000
-8.563200 0.000000
-8.519600 0.000000
-8.476100 0.000000
-8.432500 0.000000
-8.389000 0.000000
-8.345400 0.000000
-8.301900 0.000000
-8.258300 0.000000
-8.214800 0.000000
-8.171200 0.000000
-8.127700 0.000000
-8.084100 0.000000
-8.040600 0.000000
-7.997000 0.000000
-7.953400 0.000000
-7.909900 0.000000
-7.866300 0.000000
-7.822800 0.000000
-7.779200 0.000000
-7.735700 0.000000
-7.692100 0.000000
-7.648600 0.000000
-7.605000 0.000000
-7.561500 0.000000
-7.517900 0.000000
-7.474300 0.000000
-7.430800 0.000000
-7.387200 0.000000
-7.343700 0.000000
-7.300100 0.000000
-7.256600 0.000000
-7.213000 0.000000
-7.169500 0.000000
-7.125900 0.000000
-7.082400 0.000000
-7.038800 0.000000
-6.995300 0.000000
-6.951700 0.000000
-6.908100 0.000000
-6.864600 0.000000
-6.821000 0.000000
-6.777500 0.000000
-6.733900 0.000000
-6.690400 0.000000
-6.646800 0.000000
-6.603300 0.000000
-6.559700 0.000000
-6.516200 0.000000
-6.472600 0.000000
-6.429100 0.000000
-6.385500 0.000000
-6.341900 0.000000
-6.298400 0.000000
-6.254800 0.000000
-6.211300 0.000000
-6.167700 0.000000
-6.124200 0.000000
-6.080600 0.000000
-6.037100 0.000000
-5.993500 0.000000
-5.950000 0.000000
-5.906400 0.000000
-5.862900 0.000000
-5.819300 0.000000
-5.775700 0.000000
-5.732200 0.000000
-5.688600 0.000000
-5.645100 0.000000
-5.601500 0.000000
-5.558000 0.000000
-5.514400 0.000000
-5.470900 0.000000
-5.427300 0.000000
-5.383800 0.000000
-5.340200 0.000000
-5.296600 0.000000
-5.253100 0.000000
-5.209500 0.000000
-5.166000 0.000000
-5.122400 0.000000
-5.078900 0.000000
-5.035300 0.000000
-4.991800 0.000000
-4.948200 0.000000
-4.904700 0.000000
-4.861100 0.000000
-4.817600 0.000000
-4.774000 0.000000
-4.730400 0.000000
-4.686900 0.000000
-4.643300 0.000000
-4.599800 0.000000
-4.556200 0.000000
-4.512700 0.000000
-4.469100 0.000000
-4.425600 0.000000
-4.382000 0.000000
-4.338500 0.000000
-4.294900 0.000000
-4.251400 0.000000
-4.207800 0.000000
-4.164200 0.000000
-4.120700 0.000000
-4.077100 0.000000
-4.033600 0.000000
-3.990000 0.000000
-3.946500 0.000000
-3.902900 0.000000
-3.859400 0.000000
-3.815800 0.000000
-3.772300 0.000000
-3.728700 0.000000
-3.685200 0.000000
-3.641600 0.000000
-3.598000 0.000000
-3.554500 0.000000
-3.510900 0.000000
-3.467400 0.000000
-3.423800 0.000000
-3.380300 0.000000
-3.336700 0.000000
-3.293200 0.000000
-3.249600 0.000000
-3.206100 0.000000
-3.162500 0.000000
-3.118900 0.000000
-3.075400 0.000000
-3.031800 0.000000
-2.988300 0.000000
-2.944700 0.000000
-2.901200 0.000000
-2.857600 0.000000
-2.814100 0.000000
-2.770500 0.000000
-2.727000 0.000000
-2.683400 0.000000
-2.639900 0.000000
-2.596300 0.000000
-2.552700 0.000000
-2.509200 0.001100
-2.465600 0.053900
-2.422100 0.672800
-2.378500 2.150300
-2.335000 1.805400
-2.291400 0.396400
-2.247900 0.022100
-2.204300 0.002600
-2.160800 0.116200
-2.117200 1.462700
-2.073700 5.104000
-2.030100 6.011500
-1.986500 5.120200
-1.943000 7.300000
-1.899400 5.745300
-1.855900 5.186400
-1.812300 5.862900
-1.768800 3.221400
-1.725200 0.733200
-1.681700 0.053900
-1.638100 0.054900
-1.594600 0.684100
-1.551000 2.593400
-1.507400 5.624200
-1.463900 10.200900
-1.420300 9.062300
-1.376800 3.282400
-1.333200 0.908500
-1.289700 2.824700
-1.246100 6.683000
-1.202600 9.580100
-1.159000 14.791000
-1.115500 16.322400
-1.071900 12.299100
-1.028400 9.644500
-0.984800 10.663600
-0.941200 11.446200
-0.897700 11.477200
-0.854100 8.651100
-0.810600 6.939200
-0.767000 13.963500
-0.723500 17.188400
-0.679900 9.700200
-0.636400 5.390800
-0.592800 5.800100
-0.549300 2.964800
-0.505700 0.477000
-0.462200 0.626700
-0.418600 2.506400
-0.375000 4.133900
-0.331500 3.745500
-0.287900 1.505600
-0.244400 0.202800
-0.200800 0.012200
-0.157300 0.109600
-0.113700 0.702500
-0.070200 1.167500
-0.026600 0.508800
0.016900 0.057000
0.060500 0.001600
0.104000 0.000000
0.147600 0.000000
0.191200 0.000000
0.234700 0.000000
0.278300 0.000000
0.321800 0.000000
0.365400 0.000000
0.408900 0.000000
0.452500 0.000000
0.496000 0.000000
0.539600 0.000000
0.583100 0.000000
0.626700 0.000000
0.670300 0.000000
0.713800 0.000000
0.757400 0.000000
0.800900 0.000000
0.844500 0.000000
0.888000 0.000000
0.931600 0.000000
0.975100 0.000000
1.018700 0.000000
1.062200 0.000000
1.105800 0.000000
1.149300 0.000000
1.192900 0.000000
1.236500 0.000000
1.280000 0.000000
1.323600 0.000000
1.367100 0.000000
1.410700 0.000000
1.454200 0.000000
1.497800 0.000000
1.541300 0.000000
1.584900 0.000000
1.628400 0.000000
1.672000 0.000000
1.715500 0.000000
1.759100 0.000000
1.802700 0.000000
1.846200 0.000000
1.889800 0.000200
1.933300 0.008300
1.976900 0.079100
2.020400 0.192900
2.064000 0.123300
2.107500 0.020400
2.151100 0.001300
2.194600 0.013200
2.238200 0.100600
2.281700 0.206100
2.325300 0.218200
2.368900 0.378300
2.412400 0.347400
2.456000 0.461900
2.499500 0.789200
2.543100 0.408400
2.586600 0.099800
2.630200 0.176000
2.673700 0.273300
2.717300 0.698800
2.760800 1.309000
2.804400 1.013000
2.848000 0.302200
2.891500 0.244900
2.935100 0.781200
2.978600 0.917100
3.022200 0.491400
3.065700 0.115200
3.109300 0.011600
3.152800 0.079000
3.196400 0.485200
3.239900 0.774000
3.283500 0.325900
3.327000 0.096000
3.370600 0.432100
3.414200 0.784500
3.457700 0.378900
3.501300 0.145100
3.544800 0.539100
3.588400 0.791200
3.631900 0.610400
3.675500 0.877300
3.719000 1.212800
3.762600 2.098800
3.806100 1.771600
3.849700 0.737200
3.893200 0.757900
3.936800 1.265400
3.980400 1.723500
4.023900 0.970200
4.067500 0.293600
4.111000 0.680200
4.154600 0.992600
4.198100 0.581500
4.241700 0.166200
4.285200 0.245200
4.328800 0.722000
4.372300 1.162900
4.415900 1.515900
4.459400 1.418100
4.503000 1.093700
4.546600 1.281700
4.590100 2.772900
4.633700 4.794400
4.677200 4.633400
4.720800 3.281800
4.764300 3.345800
4.807900 3.778200
4.851400 4.673000
4.895000 3.633100
4.938500 1.193200
4.982100 0.683900
5.025700 1.485100
5.069200 1.364300
5.112800 0.871600
5.156300 1.363900
5.199900 1.176400
5.243400 2.074100
5.287000 3.366000
5.330500 2.464900
5.374100 2.326300
5.417600 2.526100
5.461200 3.452400
5.504700 4.778400
5.548300 5.605300
5.591900 4.867600
5.635400 2.119000
5.679000 0.915400
5.722500 2.562800
5.766100 3.114400
5.809600 2.191800
5.853200 1.953000
5.896700 2.284300
5.940300 2.686000
5.983800 3.939300
6.027400 5.368300
6.070900 4.187000
6.114500 2.787500
6.158100 2.975200
6.201600 5.136900
6.245200 5.330500
6.288700 2.672000
6.332300 1.144100
6.375800 1.032900
6.419400 1.872100
6.462900 4.236800
6.506500 4.916200
6.550000 5.201300
6.593600 6.856600
6.637100 9.063500
6.680700 8.294200
6.724300 6.960700
6.767800 6.921900
6.811400 5.269900
6.854900 3.943100
6.898500 4.748000
6.942000 4.662000
6.985600 3.598700
7.029100 2.768200
7.072700 2.537100
7.116200 3.792400
7.159800 4.749600
7.203400 5.318500
7.246900 6.345400
7.290500 6.440600
7.334000 5.459700
7.377600 3.622000
7.421100 3.436000
7.464700 4.976800
7.508200 4.844700
7.551800 2.923200
7.595300 3.166500
7.638900 3.629700
7.682400 2.229300
7.726000 1.929500
7.769600 5.139000
7.813100 7.447500
7.856700 6.914500
7.900200 9.573400
7.943800 13.627000
7.987300 12.579600
8.030900 7.186600
8.074400 5.225800
8.118000 6.509300
8.161500 6.673800
8.205100 7.538000
8.248600 10.339100
8.292200 10.322600
8.335800 8.479900
8.379300 5.803900
8.422900 4.799100
8.466400 5.910100
8.510000 5.415800
8.553500 4.812700
8.597100 3.833200
8.640600 1.423500
8.684200 0.492400
8.727700 0.849600
8.771300 1.457300
8.814800 4.760800
8.858400 8.167000
8.902000 6.413100
8.945500 3.210000
8.989100 1.990300
9.032600 3.031800
9.076200 3.541500
9.119700 3.036600
9.163300 2.577700
9.206800 2.184800
9.250400 3.242300
9.293900 3.710400
9.337500 3.713000
9.381100 5.085500
9.424600 4.735500
9.468200 2.579800
9.511700 3.051700
9.555300 4.077300
9.598800 4.989200
9.642400 5.770800
9.685900 5.934400
9.729500 5.422400
9.773000 3.031900
9.816600 0.842000
9.860100 0.745900
9.903700 2.194300
9.947300 2.386000
9.990800 3.170500
10.034400 5.065200
10.077900 5.262800
10.121500 3.701500
10.165000 2.351600
10.208600 3.506800
10.252100 4.265500
10.295700 4.432000
10.339200 5.643900
10.382800 3.773500
10.426300 1.431900
10.469900 0.990300
10.513500 1.493500
10.557000 3.586200
10.600600 3.764900
10.644100 2.988400
10.687700 3.297300
10.731200 4.531900
10.774800 5.687700
10.818300 3.499300
10.861900 2.419700
10.905400 2.071600
10.949000 1.694900
10.992500 1.830900
11.036100 1.160300
11.079700 0.443700
11.123200 1.090400
11.166800 1.800100
11.210300 1.086100
11.253900 0.723500
11.297400 0.935000
11.341000 1.221600
11.384500 1.685900
11.428100 1.137700
11.471600 0.488100
11.515200 1.705500
11.558800 4.337700
11.602300 4.028700
11.645900 2.542500
11.689400 2.511500
11.733000 2.941200
11.776500 1.970500
11.820100 0.778400
11.863600 0.259300
11.907200 0.323900
11.950700 1.401300
11.994300 3.458200
12.037800 4.401900
12.081400 2.716900
12.125000 1.194400
12.168500 0.601900
12.212100 0.489000
12.255600 1.205900
12.299200 2.243500
12.342700 1.655300
12.386300 1.144500
12.429800 1.387800
12.473400 1.829300
12.516900 1.751600
12.560500 1.971100
12.604000 1.551100
12.647600 2.091200
12.691200 3.131000
12.734700 3.817200
12.778300 3.189600
12.821800 3.565800
12.865400 3.587600
12.908900 1.761200
12.952500 1.618600
12.996000 2.777800
13.039600 4.243200
13.083100 3.498300
13.126700 3.284600
13.170300 3.360800
13.213800 2.186700
13.257400 1.578700
13.300900 2.484600
13.344500 3.751300
13.388000 5.320200
13.431600 4.458800
13.475100 3.167400
13.518700 2.155600
13.562200 1.627800
13.605800 1.648600
13.649300 1.309000
13.692900 0.493900
13.736500 0.065700
13.780000 0.072000
13.823600 0.462100
13.867100 0.916000
13.910700 1.597400
13.954200 3.096900
13.997800 2.302400
14.041300 1.818700
14.084900 2.868400
14.128400 3.485900
14.172000 2.839100
14.215500 2.509100
14.259100 2.057700
14.302700 0.961300
14.346200 1.861900
14.389800 3.686900
14.433300 4.565600
14.476900 5.164500
14.520400 3.480400
14.564000 1.401900
14.607500 0.842400
14.651100 0.834000
14.694600 0.804300
14.738200 1.326300
14.781700 2.333300
14.825300 1.455600
14.868900 0.836800
14.912400 0.925800
14.956000 1.117500
14.999500 2.866700
15.043100 3.750300
15.086600 2.313100
15.130200 2.109700
15.173700 3.610600
15.217300 3.652600
15.260800 1.925300
15.304400 1.916800
15.348000 3.207800
15.391500 2.298100
15.435100 1.182200
15.478600 1.866600
15.522200 2.847500
15.565700 2.610500
15.609300 2.478100
15.652800 2.791800
15.696400 4.222100
15.739900 3.562800
15.783500 2.313200
15.827000 1.938300
15.870600 2.169900
15.914200 3.175200
15.957700 3.188100
16.001300 1.380800
16.044800 0.769600
16.088400 2.485400
16.131900 5.722700
16.175500 6.715900
16.219000 4.357900
16.262600 2.823200
16.306100 2.870700
16.349700 2.975800
16.393200 3.638900
16.436800 5.499300
16.480400 7.428200
16.523900 6.262300
16.567500 4.855300
16.611000 3.294600
16.654600 1.590000
16.698100 1.118200
16.741700 1.563300
16.785200 1.794400
16.828800 1.409600
16.872300 1.506700
16.915900 1.323500
16.959400 1.360100
17.003000 3.036800
17.046600 3.881300
17.090100 2.506400
17.133700 2.284300
17.177200 2.627500
17.220800 2.274400
17.264300 1.523900
17.307900 1.262900
17.351400 2.770200
17.395000 2.812000
17.438500 2.148400
17.482100 2.698600
17.525700 4.014400
17.569200 5.447900
17.612800 4.522600
17.656300 3.687600
17.699900 6.762200
17.743400 8.696500
17.787000 6.474300
17.830500 3.517500
17.874100 2.403500
17.917600 2.138100
17.961200 2.187900
18.004700 1.783800
18.048300 1.412500
18.091900 1.235500
18.135400 1.466400
18.179000 2.539100
18.222500 2.942500
18.266100 2.319700
18.309600 2.708600
18.353200 2.790900
18.396700 3.367800
18.440300 3.683100
18.483800 2.312400
18.527400 0.956900
18.570900 1.877400
18.614500 3.773500
18.658100 3.262800
18.701600 3.150300
18.745200 3.854400
18.788700 2.948100
18.832300 3.731100
18.875800 4.391400
18.919400 2.898500
18.962900 3.409100
19.006500 4.734400
19.050000 4.666300
19.093600 4.823400
19.137100 4.853200
19.180700 3.730600
19.224300 2.484300
19.267800 1.316900
19.311400 1.054900
19.354900 2.438200
19.398500 4.084800
19.442000 3.590100
19.485600 2.477100
19.529100 2.494000
19.572700 3.316200
19.616200 2.736100
19.659800 2.338000
19.703400 1.756400
19.746900 1.950200
19.790500 3.483600
19.834000 4.980100
19.877600 3.931200
19.921100 3.030500
19.964700 3.662000
20.008200 2.936600
20.051800 3.389300
20.095300 2.896900
20.138900 2.090800
20.182400 2.673700
20.226000 2.441500
20.269600 1.614600
20.313100 1.758000
20.356700 2.147600
20.400200 3.658900
20.443800 5.054500
20.487300 6.171700
20.530900 5.185500
20.574400 3.364100
20.618000 1.961800
20.661500 1.816200
20.705100 1.975500
20.748600 1.612500
20.792200 1.855000
20.835800 1.664000
20.879300 1.848200
20.922900 1.929900
20.966400 2.289900
21.010000 2.263700
21.053500 2.742800
21.097100 3.006300
21.140600 2.616900
21.184200 2.541000
21.227700 1.984200
21.271300 1.719300
21.314800 2.234100
21.358400 1.942800
21.402000 1.203900
21.445500 0.929300
21.489100 1.783600
21.532600 2.340500
21.576200 2.223900
21.619700 2.590900
21.663300 3.214900
21.706800 4.052700
21.750400 5.785100
21.793900 5.746000
21.837500 3.698400
21.881100 3.545700
21.924600 3.858300
21.968200 3.533100
22.011700 3.245500
22.055300 2.506400
22.098800 2.544600
22.142400 2.771100
22.185900 3.167900
22.229500 3.311100
22.273000 2.649700
22.316600 1.738300
22.360100 1.159000
22.403700 2.017100
22.447300 4.202900
22.490800 4.167900
22.534400 2.753600
22.577900 2.609600
22.621500 2.497500
22.665000 2.739700
22.708600 2.955300
22.752100 3.206400
22.795700 2.236200
22.839200 1.022100
22.882800 1.361700
22.926300 1.854900
22.969900 3.437500
23.013500 5.626700
23.057000 4.703500
23.100600 2.879700
23.144100 2.317200
23.187700 2.778300
23.231200 2.316800
23.274800 0.928400
23.318300 1.342000
23.361900 2.925400
23.405400 4.151300
23.449000 4.760700
23.492500 5.079800
23.536100 3.519600
23.579700 1.312400
23.623200 0.782200
23.666800 1.075800
23.710300 0.914100
23.753900 1.601000
23.797400 3.029500
23.841000 2.358700
23.884500 1.467300
23.928100 1.799700
23.971600 2.739300
24.015200 3.752300
24.058800 4.335100
24.102300 4.667300
24.145900 6.652000
24.189400 7.679300
24.233000 5.730000
24.276500 3.965700
24.320100 2.871600
24.363600 2.178100
24.407200 2.228300
24.450700 1.979800
24.494300 2.103400
24.537800 2.978700
24.581400 3.881200
24.625000 3.140900
24.668500 2.809900
24.712100 4.403400
24.755600 6.035500
24.799200 4.936800
24.842700 2.573200
24.886300 2.819000
24.929800 3.955900
24.973400 3.727300
25.016900 3.971800
25.060500 4.067000
25.104000 2.888600
25.147600 3.739100
25.191200 4.553500
25.234700 3.167200
25.278300 2.202700
25.321800 3.729000
25.365400 5.191900
25.408900 3.552900
25.452500 2.959600
25.496000 4.876600
25.539600 5.001500
25.583100 3.760800
25.626700 3.927700
25.670200 3.769400
25.713800 2.307400
25.757400 1.525800
25.800900 1.409900
25.844500 2.622500
25.888000 3.053900
25.931600 1.628400
25.975100 1.884800
26.018700 2.508300
26.062200 3.349800
26.105800 6.688800
26.149300 6.970000
26.192900 4.267500
26.236500 4.026100
26.280000 4.474500
26.323600 4.484300
26.367100 4.427800
26.410700 4.947500
26.454200 6.257400
26.497800 4.425900
26.541300 5.428800
26.584900 7.243500
26.628400 6.826600
26.672000 6.634800
26.715500 5.244600
26.759100 3.145600
26.802700 2.534900
26.846200 2.485500
26.889800 2.630300
26.933300 3.122600
26.976900 3.451700
27.020400 3.647000
27.064000 2.972500
27.107500 3.166400
27.151100 3.282000
27.194600 2.658000
27.238200 2.752200
27.281700 2.775900
27.325300 1.858700
27.368900 1.981400
27.412400 1.950100
27.456000 2.551100
27.499500 3.454200
27.543100 4.011400
27.586600 4.779900
27.630200 3.626700
27.673700 2.457200
27.717300 3.788600
27.760800 4.248900
27.804400 3.823800
27.847900 4.742900
27.891500 6.261500
27.935100 5.553600
27.978600 3.532900
28.022200 3.546400
28.065700 4.681300
28.109300 4.382000
28.152800 4.850100
28.196400 4.677600
28.239900 3.601300
28.283500 3.763700
28.327000 3.967900
28.370600 3.438600
28.414200 3.486600
28.457700 4.036900
28.501300 3.373000
28.544800 3.568500
28.588400 4.439700
28.631900 6.712100
28.675500 7.045600
28.719000 5.558000
28.762600 4.789500
28.806100 3.991600
28.849700 2.722400
28.893200 2.887200
28.936800 3.106800
28.980400 2.903600
29.023900 3.520900
29.067500 5.762000
29.111000 7.039300
29.154600 6.641000
29.198100 6.005400
29.241700 6.311500
29.285200 5.745800
29.328800 3.936600
29.372300 3.767400
29.415900 5.223400
29.459400 5.039700
29.503000 4.479200
29.546600 2.841400
29.590100 1.711700
29.633700 2.067000
29.677200 2.707100
29.720800 3.289200
29.764300 4.151200
29.807900 4.371700
29.851400 2.210500
29.895000 2.848800
29.938500 5.848300
29.982100 6.394200
30.025700 4.682700
30.069200 3.426600
30.112800 2.961700
30.156300 2.491800
30.199900 1.560000
30.243400 1.277500
30.287000 1.823500
30.330500 2.654500
30.374100 3.395300
30.417600 4.996900
30.461200 5.749300
30.504700 6.416100
30.548300 7.758200
30.591900 7.064600
30.635400 4.309100
30.679000 2.609700
30.722500 4.105900
30.766100 5.868800
30.809600 4.875900
30.853200 2.440200
30.896700 1.314100
30.940300 2.499700
30.983800 5.121300
31.027400 6.286500
31.070900 6.481200
31.114500 3.959800
31.158100 1.332100
31.201600 1.155300
31.245200 1.928300
31.288700 2.618700
31.332300 3.898400
31.375800 4.422600
31.419400 3.327800
31.462900 3.070600
31.506500 4.534000
31.550000 5.846000
31.593600 5.669600
31.637100 6.356700
31.680700 6.855200
31.724300 4.755900
31.767800 4.320700
31.811400 4.771600
31.854900 4.352200
31.898500 3.900100
31.942000 5.489600
31.985600 7.013800
32.029100 5.226600
32.072700 3.317000
32.116200 3.040700
32.159800 3.354300
32.203400 3.208200
32.246900 3.830200
32.290500 2.867700
32.334000 1.427800
32.377600 1.744000
32.421100 2.656900
32.464700 4.031300
32.508200 5.718200
32.551800 5.297000
32.595300 4.468500
32.638900 5.360200
32.682400 5.261800
32.726000 4.956700
32.769600 3.765200
32.813100 4.327400
32.856700 6.498700
32.900200 6.525200
32.943800 4.588700
32.987300 2.618800
33.030900 2.240800
33.074400 2.033800
33.118000 1.550800
33.161500 1.285800
33.205100 0.825400
33.248600 1.156600
33.292200 2.951200
33.335800 7.145700
33.379300 7.862400
33.422900 3.923300
33.466400 1.543600
33.510000 0.973300
33.553500 2.227400
33.597100 3.341400
33.640600 3.027300
33.684200 3.774200
33.727700 5.773600
33.771300 5.146500
33.814800 2.418100
33.858400 1.093100
33.902000 1.142600
33.945500 3.556800
33.989100 6.043300
34.032600 7.164600
34.076200 5.950600
34.119700 3.709000
34.163300 4.982500
34.206800 5.082900
34.250400 3.966700
34.293900 2.989700
34.337500 2.433100
34.381100 1.683600
34.424600 1.559500
34.468200 3.569600
34.511700 5.696400
34.555300 4.540300
34.598800 2.279700
34.642400 1.193700
34.685900 1.630000
34.729500 3.218600
34.773000 4.050200
34.816600 4.525800
34.860100 4.412900
34.903700 3.997800
34.947300 3.270900
34.990800 3.045100
35.034400 3.129600
35.077900 4.136800
35.121500 6.303200
35.165000 6.280400
35.208600 5.484700
35.252100 3.839600
35.295700 3.188400
35.339200 3.283400
35.382800 4.117900
35.426300 3.632800
35.469900 4.249800
35.513500 5.145400
35.557000 3.883600
35.600600 5.013600
35.644100 5.451900
35.687700 4.273100
35.731200 3.630900
35.774800 2.514800
35.818300 2.379100
35.861900 3.640800
35.905400 4.413300
35.949000 3.737000
35.992500 3.725000
36.036100 4.118100
36.079700 3.383400
36.123200 3.614600
36.166800 2.526400
36.210300 1.295900
36.253900 1.708900
36.297400 3.907200
36.341000 5.002300
36.384500 4.396400
36.428100 4.366500
36.471600 5.224900
36.515200 5.061200
36.558800 4.541500
36.602300 2.539200
36.645900 1.689300
36.689400 4.237600
36.733000 6.647500
36.776500 7.529400
36.820100 8.126100
36.863600 5.280000
36.907200 2.328800
36.950700 2.696100
36.994300 3.864000
37.037800 4.179600
37.081400 4.608700
37.125000 4.268200
37.168500 4.777700
37.212100 5.506000
37.255600 4.079600
37.299200 3.932200
37.342700 5.765800
37.386300 6.211000
37.429800 5.061000
37.473400 3.961400
37.516900 3.563000
37.560500 3.569800
37.604000 3.927600
37.647600 6.364800
37.691200 7.668100
37.734700 5.746900
37.778300 4.553600
37.821800 7.297500
37.865400 7.506600
37.908900 3.783400
37.952500 2.126400
37.996000 3.714900
38.039600 4.556400
38.083100 6.372400
38.126700 7.737600
38.170200 4.971800
38.213800 2.742700
38.257400 2.366800
38.300900 2.967400
38.344500 4.139700
38.388000 4.776000
38.431600 4.420600
38.475100 5.174400
38.518700 4.920300
38.562200 3.196400
38.605800 3.578300
38.649300 5.118300
38.692900 4.592000
38.736500 3.663900
38.780000 3.975800
38.823600 4.881300
38.867100 5.267300
38.910700 5.036700
38.954200 4.543800
38.997800 2.765600
39.041300 2.528300
39.084900 2.978900
39.128400 2.469600
39.172000 4.849200
39.215500 8.048700
39.259100 7.940800
39.302700 6.764300
39.346200 5.012300
39.389800 4.041500
39.433300 5.648200
39.476900 5.399500
39.520400 3.237800
39.564000 2.542800
39.607500 2.346900
39.651100 1.377400
39.694600 0.674900
39.738200 1.081500
39.781700 2.270400
39.825300 2.563600
39.868900 2.685300
39.912400 3.405300
39.956000 3.341500
39.999500 1.735400
40.043100 1.820400
40.086600 3.111600
40.130200 3.471000
40.173700 2.682000
40.217300 1.865900
40.260800 2.872300
40.304400 4.250400
40.347900 2.770600
40.391500 0.802400
40.435100 0.514500
40.478600 1.085200
40.522200 1.655200
40.565700 1.726400
40.609300 1.205900
40.652800 0.903900
40.696400 0.714100
40.739900 0.689200
40.783500 0.852200
40.827000 0.684700
40.870600 0.199500
40.914200 0.201000
40.957700 0.392300
41.001300 0.213700
41.044800 0.032300
41.088400 0.065700
41.131900 0.503000
41.175500 1.103200
41.219000 0.724400
41.262600 0.145000
41.306100 0.008500
41.349700 0.000100
41.393200 0.000000
41.436800 0.000000
41.480400 0.000000
41.523900 0.000000
41.567500 0.000000
41.611000 0.000000
41.654600 0.000000
41.698100 0.000000
41.741700 0.000000
41.785200 0.000000
41.828800 0.000000
41.872300 0.000000
41.915900 0.000000
41.959400 0.000000
42.003000 0.000000
42.046600 0.000000
42.090100 0.000000
42.133700 0.000000
42.177200 0.000000
42.220800 0.000000
42.264300 0.000000
42.307900 0.000000
42.351400 0.000000
42.395000 0.000000
42.438500 0.000000
42.482100 0.000000
42.525600 0.000000
42.569200 0.000000
42.612800 0.000000
42.656300 0.000000
42.699900 0.000000
42.743400 0.000000
42.787000 0.000000
42.830500 0.000000
42.874100 0.000000
42.917600 0.000000
42.961200 0.000000
43.004700 0.000000
43.048300 0.000000
43.091900 0.000000
43.135400 0.000000
43.179000 0.000000
43.222500 0.000000
43.266100 0.000000
43.309600 0.000000
43.353200 0.000000
43.396700 0.000000
43.440300 0.000000
43.483800 0.000000
43.527400 0.000000
43.570900 0.000000
43.614500 0.000000
43.658100 0.000000
43.701600 0.000000
43.745200 0.000000
43.788700 0.000000
43.832300 0.000000
43.875800 0.000000
43.919400 0.000000
43.962900 0.000000
44.006500 0.000000
44.050000 0.000000
44.093600 0.000000
44.137100 0.000000
44.180700 0.000000
44.224300 0.000000
44.267800 0.000000
44.311400 0.000000
44.354900 0.000000
44.398500 0.000000
44.442000 0.000000
44.485600 0.000000
44.529100 0.000000
44.572700 0.000000
44.616200 0.000000
44.659800 0.000000
44.703400 0.000000
44.746900 0.000000
44.790500 0.000000
44.834000 0.000000
44.877600 0.000000
44.921100 0.000000
44.964700 0.000000
45.008200 0.000000
45.051800 0.000000
45.095300 0.000000
45.138900 0.000000
e
