set title 'mp-611224 - Density of States'
set xlabel 'Energy (eV)'
set ylabel 'DOS (states/eV)'
set grid
set xrange [-10:10]
set yrange [0:3.301]
set xzeroaxis lt -1
set terminal png size 800,600
set output 'mp-611224_dos_gnuplot.png'
plot '-' using 1:2 with lines title 'DOS'
-43.609600 0.000000
-43.572100 0.000000
-43.534500 0.000000
-43.497000 0.000000
-43.459500 0.000000
-43.422000 0.000000
-43.384500 0.000000
-43.346900 0.000000
-43.309400 0.000000
-43.271900 0.000000
-43.234400 0.000000
-43.196900 0.000000
-43.159300 0.000000
-43.121800 0.000000
-43.084300 0.000000
-43.046800 0.000000
-43.009300 0.000000
-42.971700 0.000000
-42.934200 0.000000
-42.896700 0.000000
-42.859200 0.000000
-42.821700 0.000000
-42.784100 0.000000
-42.746600 0.000000
-42.709100 0.000000
-42.671600 0.000000
-42.634100 0.000000
-42.596500 0.000000
-42.559000 0.000000
-42.521500 0.000000
-42.484000 0.000000
-42.446500 0.000000
-42.408900 0.000000
-42.371400 0.000000
-42.333900 0.000000
-42.296400 0.000000
-42.258900 0.000000
-42.221300 0.000000
-42.183800 0.000000
-42.146300 0.000000
-42.108800 0.000000
-42.071300 0.000000
-42.033700 0.000000
-41.996200 0.000000
-41.958700 0.000000
-41.921200 0.000000
-41.883700 0.000000
-41.846100 0.000000
-41.808600 0.000000
-41.771100 0.000000
-41.733600 0.000000
-41.696100 0.000000
-41.658500 0.000000
-41.621000 0.000000
-41.583500 0.000000
-41.546000 0.000000
-41.508500 0.000000
-41.470900 0.000000
-41.433400 0.000000
-41.395900 0.000000
-41.358400 0.000000
-41.320900 0.000000
-41.283300 0.000000
-41.245800 0.000000
-41.208300 0.000000
-41.170800 0.000000
-41.133300 0.000000
-41.095700 0.000000
-41.058200 0.000000
-41.020700 0.000000
-40.983200 0.000000
-40.945700 0.000000
-40.908100 0.000000
-40.870600 0.000000
-40.833100 0.000000
-40.795600 0.000000
-40.758100 0.000000
-40.720500 0.000000
-40.683000 0.000000
-40.645500 0.000000
-40.608000 0.000000
-40.570500 0.000000
-40.532900 0.000000
-40.495400 0.000000
-40.457900 0.000000
-40.420400 0.000000
-40.382900 0.000000
-40.345300 0.000000
-40.307800 0.000000
-40.270300 0.000000
-40.232800 0.000000
-40.195300 0.596100
-40.157700 4.442500
-40.120200 5.247900
-40.082700 6.645700
-40.045200 10.540100
-40.007700 19.574000
-39.970100 2.080600
-39.932600 1.237000
-39.895100 0.998500
-39.857600 1.108300
-39.820100 1.186700
-39.782500 1.265500
-39.745000 1.363200
-39.707500 1.463000
-39.670000 1.604900
-39.632500 1.739500
-39.594900 2.026800
-39.557400 2.245000
-39.519900 2.896100
-39.482400 3.454500
-39.444900 3.582700
-39.407300 2.998700
-39.369800 2.606100
-39.332300 2.399700
-39.294800 2.335500
-39.257300 1.104200
-39.219700 0.000000
-39.182200 0.000000
-39.144700 0.000000
-39.107200 0.000000
-39.069700 0.000000
-39.032100 0.000000
-38.994600 0.000000
-38.957100 0.000000
-38.919600 0.000000
-38.882100 0.000000
-38.844500 0.000000
-38.807000 0.000000
-38.769500 0.000000
-38.732000 0.000000
-38.694500 0.000000
-38.656900 0.000000
-38.619400 0.000000
-38.581900 0.000000
-38.544400 0.000000
-38.506900 0.000000
-38.469300 0.000000
-38.431800 0.000000
-38.394300 0.000000
-38.356800 0.000000
-38.319300 0.000000
-38.281700 0.000000
-38.244200 0.000000
-38.206700 0.000000
-38.169200 0.000000
-38.131700 0.000000
-38.094100 0.000000
-38.056600 0.000000
-38.019100 0.000000
-37.981600 0.000000
-37.944100 0.000000
-37.906500 0.000000
-37.869000 0.000000
-37.831500 0.000000
-37.794000 0.000000
-37.756500 0.000000
-37.718900 0.000000
-37.681400 0.000000
-37.643900 0.000000
-37.606400 0.000000
-37.568900 0.000000
-37.531300 0.000000
-37.493800 0.000000
-37.456300 0.000000
-37.418800 0.000000
-37.381300 0.000000
-37.343700 0.000000
-37.306200 0.000000
-37.268700 0.000000
-37.231200 0.000000
-37.193700 0.000000
-37.156100 0.000000
-37.118600 0.000000
-37.081100 0.000000
-37.043600 0.000000
-37.006100 0.000000
-36.968500 0.000000
-36.931000 0.000000
-36.893500 0.000000
-36.856000 0.000000
-36.818500 0.000000
-36.780900 0.000000
-36.743400 0.000000
-36.705900 0.000000
-36.668400 0.000000
-36.630900 0.000000
-36.593300 0.000000
-36.555800 0.000000
-36.518300 0.000000
-36.480800 0.000000
-36.443300 0.000000
-36.405700 0.000000
-36.368200 0.000000
-36.330700 0.000000
-36.293200 0.000000
-36.255700 0.000000
-36.218100 0.000000
-36.180600 0.000000
-36.143100 0.000000
-36.105600 0.000000
-36.068100 0.000000
-36.030500 0.000000
-35.993000 0.000000
-35.955500 0.000000
-35.918000 0.000000
-35.880500 0.000000
-35.842900 0.000000
-35.805400 0.000000
-35.767900 0.000000
-35.730400 0.000000
-35.692900 0.000000
-35.655300 0.000000
-35.617800 0.000000
-35.580300 0.000000
-35.542800 0.000000
-35.505300 0.000000
-35.467700 0.000000
-35.430200 0.000000
-35.392700 0.000000
-35.355200 0.000000
-35.317700 0.000000
-35.280100 0.000000
-35.242600 0.000000
-35.205100 0.000000
-35.167600 0.000000
-35.130100 0.000000
-35.092500 0.000000
-35.055000 0.000000
-35.017500 0.000000
-34.980000 0.000000
-34.942500 0.000000
-34.904900 0.000000
-34.867400 0.000000
-34.829900 0.000000
-34.792400 0.000000
-34.754900 0.000000
-34.717300 0.000000
-34.679800 0.000000
-34.642300 0.000000
-34.604800 0.000000
-34.567300 0.000000
-34.529700 0.000000
-34.492200 0.000000
-34.454700 0.000000
-34.417200 0.000000
-34.379700 0.000000
-34.342100 0.000000
-34.304600 0.000000
-34.267100 0.000000
-34.229600 0.000000
-34.192100 0.000000
-34.154500 0.000000
-34.117000 0.000000
-34.079500 0.000000
-34.042000 0.000000
-34.004500 0.000000
-33.966900 0.000000
-33.929400 0.000000
-33.891900 0.000000
-33.854400 0.000000
-33.816900 0.000000
-33.779300 0.000000
-33.741800 0.000000
-33.704300 0.000000
-33.666800 0.000000
-33.629300 0.000000
-33.591700 0.000000
-33.554200 0.000000
-33.516700 0.000000
-33.479200 0.000000
-33.441700 0.000000
-33.404100 0.000000
-33.366600 0.000000
-33.329100 0.000000
-33.291600 0.000000
-33.254100 0.000000
-33.216500 0.000000
-33.179000 0.000000
-33.141500 0.000000
-33.104000 0.000000
-33.066500 0.000000
-33.028900 0.000000
-32.991400 0.000000
-32.953900 0.000000
-32.916400 0.000000
-32.878900 0.000000
-32.841300 0.000000
-32.803800 0.000000
-32.766300 0.000000
-32.728800 0.000000
-32.691300 0.000000
-32.653700 0.000000
-32.616200 0.000000
-32.578700 0.000000
-32.541200 0.000000
-32.503700 0.000000
-32.466100 0.000000
-32.428600 0.000000
-32.391100 0.000000
-32.353600 0.000000
-32.316100 0.000000
-32.278500 0.000000
-32.241000 0.000000
-32.203500 0.000000
-32.166000 0.000000
-32.128500 0.000000
-32.090900 0.000000
-32.053400 0.000000
-32.015900 0.000000
-31.978400 0.000000
-31.940900 0.000000
-31.903300 0.000000
-31.865800 0.000000
-31.828300 0.000000
-31.790800 0.000000
-31.753300 0.000000
-31.715700 0.000000
-31.678200 0.000000
-31.640700 0.000000
-31.603200 0.000000
-31.565700 0.000000
-31.528100 0.000000
-31.490600 0.000000
-31.453100 0.000000
-31.415600 0.000000
-31.378100 0.000000
-31.340500 0.000000
-31.303000 0.000000
-31.265500 0.000000
-31.228000 0.000000
-31.190500 0.000000
-31.152900 0.000000
-31.115400 0.000000
-31.077900 0.000000
-31.040400 0.000000
-31.002900 0.000000
-30.965300 0.000000
-30.927800 0.000000
-30.890300 0.000000
-30.852800 0.000000
-30.815300 0.000000
-30.777700 0.000000
-30.740200 0.000000
-30.702700 0.000000
-30.665200 0.000000
-30.627700 0.000000
-30.590100 0.000000
-30.552600 0.000000
-30.515100 0.000000
-30.477600 0.000000
-30.440100 0.000000
-30.402500 0.000000
-30.365000 0.000000
-30.327500 0.000000
-30.290000 0.000000
-30.252500 0.000000
-30.214900 0.000000
-30.177400 0.000000
-30.139900 0.000000
-30.102400 0.000000
-30.064900 0.000000
-30.027300 0.000000
-29.989800 0.000000
-29.952300 0.000000
-29.914800 0.000000
-29.877300 0.000000
-29.839700 0.000000
-29.802200 0.000000
-29.764700 0.000000
-29.727200 0.000000
-29.689700 0.000000
-29.652100 0.000000
-29.614600 0.000000
-29.577100 0.000000
-29.539600 0.000000
-29.502100 0.000000
-29.464500 0.000000
-29.427000 0.000000
-29.389500 0.000000
-29.352000 0.000000
-29.314500 0.000000
-29.276900 0.000000
-29.239400 0.000000
-29.201900 0.000000
-29.164400 0.000000
-29.126900 0.000000
-29.089300 0.000000
-29.051800 0.000000
-29.014300 0.000000
-28.976800 0.000000
-28.939300 0.000000
-28.901700 0.000000
-28.864200 0.000000
-28.826700 0.000000
-28.789200 0.000000
-28.751700 0.000000
-28.714100 0.000000
-28.676600 0.000000
-28.639100 0.000000
-28.601600 0.000000
-28.564100 0.000000
-28.526500 0.000000
-28.489000 0.000000
-28.451500 0.000000
-28.414000 0.000000
-28.376500 0.000000
-28.338900 0.000000
-28.301400 0.000000
-28.263900 0.000000
-28.226400 0.000000
-28.188900 0.000000
-28.151300 0.000000
-28.113800 0.000000
-28.076300 0.000000
-28.038800 0.000000
-28.001300 0.000000
-27.963700 0.000000
-27.926200 0.000000
-27.888700 0.000000
-27.851200 0.000000
-27.813700 0.000000
-27.776100 0.000000
-27.738600 0.000000
-27.701100 0.000000
-27.663600 0.000000
-27.626100 0.000000
-27.588500 0.000000
-27.551000 0.000000
-27.513500 0.000000
-27.476000 0.000000
-27.438500 0.000000
-27.400900 0.000000
-27.363400 0.000000
-27.325900 0.000000
-27.288400 0.000000
-27.250900 0.000000
-27.213300 0.000000
-27.175800 0.000000
-27.138300 0.000000
-27.100800 0.000000
-27.063300 0.000000
-27.025700 0.000000
-26.988200 0.000000
-26.950700 0.000000
-26.913200 0.000000
-26.875700 0.000000
-26.838100 0.000000
-26.800600 0.000000
-26.763100 0.000000
-26.725600 0.000000
-26.688100 0.000000
-26.650500 0.000000
-26.613000 0.000000
-26.575500 0.000000
-26.538000 0.000000
-26.500500 0.000000
-26.462900 0.000000
-26.425400 0.000000
-26.387900 0.000000
-26.350400 0.000000
-26.312900 0.000000
-26.275300 0.000000
-26.237800 0.000000
-26.200300 0.000000
-26.162800 0.000000
-26.125300 0.000000
-26.087700 0.000000
-26.050200 0.000000
-26.012700 0.000000
-25.975200 0.000000
-25.937700 0.000000
-25.900100 0.000000
-25.862600 0.000000
-25.825100 0.000000
-25.787600 0.000000
-25.750100 0.000000
-25.712500 0.000000
-25.675000 0.000000
-25.637500 0.000000
-25.600000 0.000000
-25.562500 0.000000
-25.524900 0.000000
-25.487400 0.000000
-25.449900 0.000000
-25.412400 0.000000
-25.374900 0.000000
-25.337300 0.000000
-25.299800 0.000000
-25.262300 0.000000
-25.224800 0.000000
-25.187300 0.000000
-25.149700 0.000000
-25.112200 0.000000
-25.074700 0.000000
-25.037200 0.000000
-24.999700 0.000000
-24.962100 0.000000
-24.924600 0.000000
-24.887100 0.000000
-24.849600 0.000000
-24.812000 0.000000
-24.774500 0.000000
-24.737000 0.000000
-24.699500 0.000000
-24.662000 0.000000
-24.624400 0.000000
-24.586900 0.000000
-24.549400 0.000000
-24.511900 0.000000
-24.474400 0.000000
-24.436800 0.000000
-24.399300 0.000000
-24.361800 0.000000
-24.324300 0.000000
-24.286800 0.000000
-24.249200 0.000000
-24.211700 0.000000
-24.174200 0.000000
-24.136700 0.000000
-24.099200 0.000000
-24.061600 0.000000
-24.024100 0.000000
-23.986600 0.000000
-23.949100 0.000000
-23.911600 0.000000
-23.874000 0.000000
-23.836500 0.000000
-23.799000 0.000000
-23.761500 0.000000
-23.724000 0.000000
-23.686400 0.000000
-23.648900 0.000000
-23.611400 0.000000
-23.573900 0.000000
-23.536400 0.000000
-23.498800 0.000000
-23.461300 0.000000
-23.423800 0.000000
-23.386300 0.000000
-23.348800 0.000000
-23.311200 0.000000
-23.273700 0.000000
-23.236200 0.000000
-23.198700 0.000000
-23.161200 0.000000
-23.123600 0.000000
-23.086100 0.000000
-23.048600 0.000000
-23.011100 0.000000
-22.973600 0.000000
-22.936000 0.000000
-22.898500 0.000000
-22.861000 0.000000
-22.823500 0.000000
-22.786000 0.000000
-22.748400 0.000000
-22.710900 0.000000
-22.673400 0.000000
-22.635900 0.000000
-22.598400 0.000000
-22.560800 0.000000
-22.523300 0.000000
-22.485800 0.000000
-22.448300 0.000000
-22.410800 0.000000
-22.373200 0.000000
-22.335700 0.000000
-22.298200 0.000000
-22.260700 0.000000
-22.223200 0.000000
-22.185600 0.000000
-22.148100 0.000000
-22.110600 0.000000
-22.073100 0.000000
-22.035600 0.000000
-21.998000 0.000000
-21.960500 0.000000
-21.923000 0.000000
-21.885500 0.000000
-21.848000 0.000000
-21.810400 0.000000
-21.772900 0.000000
-21.735400 0.000000
-21.697900 0.000000
-21.660400 0.000000
-21.622800 0.000000
-21.585300 0.000000
-21.547800 0.000000
-21.510300 0.000000
-21.472800 0.000000
-21.435200 0.000000
-21.397700 0.000000
-21.360200 0.000000
-21.322700 0.000000
-21.285200 0.000000
-21.247600 0.000000
-21.210100 0.000000
-21.172600 0.000000
-21.135100 0.000000
-21.097600 0.000000
-21.060000 0.000000
-21.022500 0.000000
-20.985000 0.000000
-20.947500 0.000000
-20.910000 0.000000
-20.872400 0.000000
-20.834900 0.000000
-20.797400 0.000000
-20.759900 0.000000
-20.722400 0.000000
-20.684800 0.000000
-20.647300 0.000000
-20.609800 0.000000
-20.572300 0.000000
-20.534800 0.000000
-20.497200 0.000000
-20.459700 0.000000
-20.422200 0.000000
-20.384700 0.000000
-20.347200 0.000000
-20.309600 0.000000
-20.272100 0.000000
-20.234600 0.000000
-20.197100 0.000000
-20.159600 0.000000
-20.122000 0.000000
-20.084500 0.000000
-20.047000 0.000000
-20.009500 0.000000
-19.972000 0.000000
-19.934400 0.000000
-19.896900 0.000000
-19.859400 0.000000
-19.821900 0.000000
-19.784400 0.000000
-19.746800 0.000000
-19.709300 0.000000
-19.671800 0.000000
-19.634300 0.000000
-19.596800 0.000000
-19.559200 0.000000
-19.521700 0.000000
-19.484200 0.000000
-19.446700 0.000000
-19.409200 0.000000
-19.371600 0.000000
-19.334100 0.000000
-19.296600 0.000000
-19.259100 0.000000
-19.221600 0.000000
-19.184000 0.000000
-19.146500 0.000000
-19.109000 0.000000
-19.071500 0.000000
-19.034000 0.000000
-18.996400 0.000000
-18.958900 0.000000
-18.921400 0.000000
-18.883900 0.000000
-18.846400 0.000000
-18.808800 0.000000
-18.771300 0.000000
-18.733800 0.000000
-18.696300 0.000000
-18.658800 0.000000
-18.621200 0.000000
-18.583700 0.000000
-18.546200 0.000000
-18.508700 0.000000
-18.471200 0.000000
-18.433600 0.000000
-18.396100 0.000000
-18.358600 0.000000
-18.321100 0.000000
-18.283600 0.000000
-18.246000 0.000000
-18.208500 0.000000
-18.171000 0.000000
-18.133500 0.000000
-18.096000 0.000000
-18.058400 0.000000
-18.020900 0.000000
-17.983400 0.000000
-17.945900 0.000000
-17.908400 0.000000
-17.870800 0.000000
-17.833300 0.000000
-17.795800 0.000000
-17.758300 0.000000
-17.720800 0.000000
-17.683200 0.000000
-17.645700 0.000000
-17.608200 0.000000
-17.570700 0.000000
-17.533200 0.000000
-17.495600 0.000000
-17.458100 0.000000
-17.420600 0.000000
-17.383100 0.000000
-17.345600 0.000000
-17.308000 0.000000
-17.270500 0.000000
-17.233000 0.000000
-17.195500 0.000000
-17.158000 0.000000
-17.120400 0.000000
-17.082900 0.000000
-17.045400 0.000000
-17.007900 0.000000
-16.970400 0.000000
-16.932800 0.000000
-16.895300 0.000000
-16.857800 0.156200
-16.820300 0.263000
-16.782800 0.278000
-16.745200 0.290500
-16.707700 0.268300
-16.670200 0.279000
-16.632700 0.271800
-16.595200 0.281300
-16.557600 0.288900
-16.520100 0.275100
-16.482600 0.275300
-16.445100 0.277600
-16.407600 0.276900
-16.370000 0.275400
-16.332500 0.279400
-16.295000 0.284200
-16.257500 0.286600
-16.220000 0.279600
-16.182400 0.277700
-16.144900 0.278900
-16.107400 0.281200
-16.069900 0.278600
-16.032400 0.279500
-15.994800 0.280700
-15.957300 0.282200
-15.919800 0.284800
-15.882300 0.287400
-15.844800 0.285100
-15.807200 0.282800
-15.769700 0.282300
-15.732200 0.282700
-15.694700 0.283800
-15.657200 0.283700
-15.619600 0.283000
-15.582100 0.283700
-15.544600 0.284800
-15.507100 0.286100
-15.469600 0.287600
-15.432000 0.289100
-15.394500 0.290100
-15.357000 0.289100
-15.319500 0.287500
-15.282000 0.287500
-15.244400 0.288100
-15.206900 0.288800
-15.169400 0.289500
-15.131900 0.288500
-15.094400 0.289000
-15.056800 0.289500
-15.019300 0.290300
-14.981800 0.291500
-14.944300 0.292700
-14.906800 0.293900
-14.869200 0.295100
-14.831700 0.295700
-14.794200 0.295800
-14.756700 0.295100
-14.719200 0.295000
-14.681600 0.295400
-14.644100 0.296200
-14.606600 0.297000
-14.569100 0.297700
-14.531600 0.297500
-14.494000 0.297800
-14.456500 0.298600
-14.419000 0.299500
-14.381500 0.300500
-14.344000 0.301500
-14.306400 0.302700
-14.268900 0.303900
-14.231400 0.305200
-14.193900 0.306100
-14.156400 0.306500
-14.118800 0.307100
-14.081300 0.307200
-14.043800 0.307900
-14.006300 0.308800
-13.968800 0.309800
-13.931200 0.310900
-13.893700 0.311700
-13.856200 0.312500
-13.818700 0.313600
-13.781200 0.314700
-13.743600 0.315900
-13.706100 0.317200
-13.668600 0.318500
-13.631100 0.320000
-13.593600 0.321500
-13.556000 0.323000
-13.518500 0.324600
-13.481000 0.326100
-13.443500 0.327600
-13.406000 0.329200
-13.368400 0.330700
-13.330900 0.332300
-13.293400 0.334100
-13.255900 0.336000
-13.218400 0.338000
-13.180800 0.340200
-13.143300 0.342600
-13.105800 0.345100
-13.068300 0.347600
-13.030800 0.350200
-12.993200 0.352900
-12.955700 0.355700
-12.918200 0.358500
-12.880700 0.361400
-12.843200 0.364500
-12.805600 0.368000
-12.768100 0.371800
-12.730600 0.376500
-12.693100 0.381200
-12.655600 0.386100
-12.618000 0.391900
-12.580500 0.397800
-12.543000 0.404200
-12.505500 0.411100
-12.468000 0.419400
-12.430400 0.430100
-12.392900 0.441100
-12.355400 0.452600
-12.317900 0.464900
-12.280400 0.483000
-12.242800 0.509600
-12.205300 0.544300
-12.167800 0.589500
-12.130300 0.588600
-12.092800 0.549400
-12.055200 0.549000
-12.017700 0.590700
-11.980200 0.617800
-11.942700 0.597100
-11.905200 0.547300
-11.867600 0.550100
-11.830100 0.581500
-11.792600 0.547900
-11.755100 0.708400
-11.717600 0.643100
-11.680000 0.437800
-11.642500 0.409900
-11.605000 0.387500
-11.567500 0.365500
-11.530000 0.343600
-11.492400 0.322000
-11.454900 0.313300
-11.417400 0.319700
-11.379900 0.334900
-11.342400 0.321500
-11.304800 0.302000
-11.267300 0.305600
-11.229800 0.301100
-11.192300 0.286000
-11.154800 0.261300
-11.117200 0.238000
-11.079700 0.218400
-11.042200 0.214500
-11.004700 0.238000
-10.967200 0.274800
-10.929600 0.144200
-10.892100 0.000000
-10.854600 0.000000
-10.817100 0.000000
-10.779600 0.000000
-10.742000 0.000000
-10.704500 0.000000
-10.667000 0.000000
-10.629500 0.000000
-10.592000 0.000000
-10.554400 0.000000
-10.516900 0.000000
-10.479400 0.000000
-10.441900 0.000000
-10.404400 0.000000
-10.366800 0.000000
-10.329300 0.000000
-10.291800 0.000000
-10.254300 0.000000
-10.216800 0.000000
-10.179200 0.000000
-10.141700 0.000000
-10.104200 0.000000
-10.066700 0.000000
-10.029200 0.000000
-9.991600 0.000000
-9.954100 0.000000
-9.916600 0.000000
-9.879100 0.000000
-9.841600 0.000000
-9.804000 0.000000
-9.766500 0.000000
-9.729000 0.000000
-9.691500 0.000000
-9.654000 0.000000
-9.616400 0.000000
-9.578900 0.000000
-9.541400 0.000000
-9.503900 0.000000
-9.466400 0.000000
-9.428800 0.000000
-9.391300 0.000000
-9.353800 0.000000
-9.316300 0.000000
-9.278800 0.000000
-9.241200 0.000000
-9.203700 0.000000
-9.166200 0.000000
-9.128700 0.000000
-9.091200 0.000000
-9.053600 0.000000
-9.016100 0.000000
-8.978600 0.000000
-8.941100 0.000000
-8.903600 0.000000
-8.866000 0.000000
-8.828500 0.000000
-8.791000 0.000000
-8.753500 0.000000
-8.716000 0.000000
-8.678400 0.000000
-8.640900 0.000000
-8.603400 0.000000
-8.565900 0.000000
-8.528400 0.000000
-8.490800 0.000000
-8.453300 0.000000
-8.415800 0.000000
-8.378300 0.000000
-8.340800 0.000000
-8.303200 0.000000
-8.265700 0.000000
-8.228200 0.000000
-8.190700 0.000000
-8.153200 0.000000
-8.115600 0.000000
-8.078100 0.000000
-8.040600 0.000000
-8.003100 0.000000
-7.965600 0.000000
-7.928000 0.012600
-7.890500 0.130100
-7.853000 0.256600
-7.815500 0.393400
-7.778000 0.293700
-7.740400 0.295700
-7.702900 0.302700
-7.665400 0.326100
-7.627900 0.359000
-7.590400 0.372800
-7.552800 0.346600
-7.515300 0.339500
-7.477800 0.342700
-7.440300 0.353300
-7.402800 0.340900
-7.365200 0.331000
-7.327700 0.329800
-7.290200 0.337400
-7.252700 0.345200
-7.215200 0.354900
-7.177600 0.365700
-7.140100 0.376500
-7.102600 0.381000
-7.065100 0.383100
-7.027600 0.378600
-6.990000 0.377300
-6.952500 0.376500
-6.915000 0.475100
-6.877500 0.474100
-6.840000 0.483400
-6.802400 0.490300
-6.764900 0.490300
-6.727400 0.491100
-6.689900 0.500600
-6.652400 0.504700
-6.614800 0.514000
-6.577300 0.523500
-6.539800 0.533400
-6.502300 0.552200
-6.464800 0.574700
-6.427200 0.604600
-6.389700 0.637400
-6.352200 0.661900
-6.314700 0.639200
-6.277200 0.683300
-6.239600 0.690800
-6.202100 0.592100
-6.164600 0.568600
-6.127100 0.544600
-6.089600 0.517700
-6.052000 0.487700
-6.014500 0.459100
-5.977000 0.431000
-5.939500 0.409400
-5.902000 0.401800
-5.864400 0.397300
-5.826900 0.393500
-5.789400 0.390000
-5.751900 0.388600
-5.714400 0.388100
-5.676800 0.388000
-5.639300 0.387900
-5.601800 0.390300
-5.564300 0.395100
-5.526800 0.399600
-5.489200 0.398900
-5.451700 0.398400
-5.414200 0.402700
-5.376700 0.407800
-5.339200 0.413000
-5.301600 0.417600
-5.264100 0.424000
-5.226600 0.595100
-5.189100 0.566400
-5.151600 0.724900
-5.114000 0.730700
-5.076500 0.745200
-5.039000 0.738700
-5.001500 0.750600
-4.964000 0.764900
-4.926400 0.769000
-4.888900 0.776100
-4.851400 0.785800
-4.813900 0.802300
-4.776400 0.823800
-4.738800 0.848200
-4.701300 0.880100
-4.663800 1.367800
-4.626300 1.440500
-4.588800 1.449700
-4.551200 1.562100
-4.513700 1.520500
-4.476200 1.293200
-4.438700 1.253400
-4.401200 1.219700
-4.363600 1.174200
-4.326100 1.144400
-4.288600 1.125200
-4.251100 1.105900
-4.213600 1.078700
-4.176000 1.063400
-4.138500 1.057800
-4.101000 1.053700
-4.063500 1.042000
-4.026000 1.027400
-3.988400 1.018600
-3.950900 1.017600
-3.913400 1.020000
-3.875900 1.019500
-3.838400 1.039500
-3.800800 1.052300
-3.763300 1.057800
-3.725800 1.417300
-3.688300 1.862000
-3.650800 1.855800
-3.613200 1.906900
-3.575700 1.974400
-3.538200 1.988500
-3.500700 2.027400
-3.463200 2.080200
-3.425600 2.217400
-3.388100 2.326200
-3.350600 2.156200
-3.313100 1.702200
-3.275600 1.757900
-3.238000 1.797500
-3.200500 1.686700
-3.163000 1.639500
-3.125500 1.725700
-3.088000 1.842300
-3.050400 1.815500
-3.012900 1.688300
-2.975400 1.718500
-2.937900 1.801200
-2.900400 2.117600
-2.862800 2.444200
-2.825300 1.897300
-2.787800 1.335300
-2.750300 1.377300
-2.712800 1.912800
-2.675200 2.659400
-2.637700 2.774300
-2.600200 2.041000
-2.562700 1.578500
-2.525200 1.476500
-2.487600 1.476700
-2.450100 1.581900
-2.412600 1.666300
-2.375100 1.968100
-2.337600 2.080900
-2.300000 1.858600
-2.262500 1.743800
-2.225000 1.836800
-2.187500 1.788400
-2.150000 1.699500
-2.112400 1.667200
-2.074900 1.710900
-2.037400 1.644900
-1.999900 1.688600
-1.962400 1.759800
-1.924800 1.816600
-1.887300 1.875700
-1.849800 1.937300
-1.812300 2.126500
-1.774800 2.156500
-1.737200 2.297900
-1.699700 2.167200
-1.662200 2.070000
-1.624700 2.058700
-1.587200 1.994100
-1.549600 1.929500
-1.512100 1.996500
-1.474600 2.024100
-1.437100 2.116100
-1.399600 2.245600
-1.362000 2.411100
-1.324500 2.352600
-1.287000 2.591900
-1.249500 2.773000
-1.212000 3.001200
-1.174400 2.872600
-1.136900 2.969300
-1.099400 2.461100
-1.061900 2.575200
-1.024400 2.797200
-0.986800 1.917700
-0.949300 1.989100
-0.911800 1.842600
-0.874300 1.816400
-0.836800 1.833100
-0.799200 1.788000
-0.761700 1.746600
-0.724200 1.749500
-0.686700 1.500200
-0.649200 1.460300
-0.611600 1.271100
-0.574100 1.396500
-0.536600 1.387800
-0.499100 1.256600
-0.461600 1.481200
-0.424000 1.311900
-0.386500 1.513000
-0.349000 1.341300
-0.311500 1.484800
-0.274000 1.537300
-0.236400 1.630600
-0.198900 1.173400
-0.161400 0.992400
-0.123900 1.368300
-0.086400 1.204500
-0.048800 1.330900
-0.011300 1.367100
0.026200 1.366800
0.063700 1.349500
0.101200 1.393000
0.138800 1.393000
0.176300 1.112500
0.213800 0.819300
0.251300 0.995200
0.288800 0.957100
0.326400 0.880000
0.363900 0.895500
0.401400 0.907800
0.438900 0.860800
0.476400 0.838000
0.514000 0.873000
0.551500 0.920800
0.589000 0.883800
0.626500 0.841200
0.664000 0.783200
0.701600 0.684000
0.739100 0.660800
0.776600 0.694400
0.814100 0.630800
0.851600 0.826100
0.889200 0.741600
0.926700 0.751800
0.964200 0.753900
1.001700 0.809100
1.039200 0.915300
1.076800 0.971300
1.114300 0.995800
1.151800 0.986400
1.189300 1.187700
1.226800 1.029300
1.264400 1.006800
1.301900 0.861500
1.339400 0.746000
1.376900 0.724200
1.414400 0.709200
1.452000 0.764700
1.489500 0.757800
1.527000 0.766700
1.564500 0.765000
1.602000 0.756700
1.639600 0.771700
1.677100 0.795400
1.714600 0.849400
1.752100 0.706600
1.789600 0.709900
1.827200 0.712600
1.864700 0.705400
1.902200 0.700600
1.939700 0.695100
1.977200 0.686100
2.014800 0.672600
2.052300 0.691900
2.089800 0.718600
2.127300 0.680300
2.164800 0.652400
2.202400 0.647500
2.239900 0.649100
2.277400 0.651100
2.314900 0.638000
2.352400 0.619200
2.390000 0.600200
2.427500 0.590800
2.465000 0.583400
2.502500 0.578200
2.540000 0.572200
2.577600 0.567300
2.615100 0.561300
2.652600 0.554100
2.690100 0.548400
2.727600 0.544200
2.765200 0.546300
2.802700 0.547100
2.840200 0.547900
2.877700 0.547000
2.915200 0.544600
2.952800 0.542300
2.990300 0.541100
3.027800 0.682700
3.065300 0.634600
3.102800 0.571800
3.140400 0.477300
3.177900 0.474200
3.215400 0.555800
3.252900 0.553900
3.290400 0.632600
3.328000 0.806000
3.365500 0.780500
3.403000 0.501100
3.440500 0.497000
3.478000 0.584500
3.515600 0.665300
3.553100 0.699800
3.590600 0.722300
3.628100 0.698800
3.665600 0.602000
3.703200 0.586700
3.740700 0.685500
3.778200 0.777800
3.815700 0.725000
3.853200 0.708000
3.890800 0.668900
3.928300 0.612500
3.965800 0.593600
4.003300 0.586700
4.040800 0.586500
4.078400 0.587800
4.115900 0.651100
4.153400 0.523700
4.190900 0.769900
4.228400 0.647000
4.266000 0.615600
4.303500 0.598400
4.341000 0.590000
4.378500 0.590500
4.416000 0.594000
4.453600 0.595300
4.491100 0.595900
4.528600 0.595400
4.566100 0.596700
4.603600 0.594700
4.641200 0.592400
4.678700 0.593200
4.716200 0.623200
4.753700 0.731800
4.791200 0.706200
4.828800 0.712200
4.866300 0.718700
4.903800 0.725700
4.941300 0.732300
4.978800 0.733100
5.016400 0.747800
5.053900 0.743300
5.091400 0.746000
5.128900 0.748200
5.166400 0.752600
5.204000 0.761400
5.241500 0.747900
5.279000 0.733400
5.316500 0.722000
5.354000 0.712000
5.391600 0.702000
5.429100 0.691500
5.466600 0.692000
5.504100 0.695800
5.541600 0.698300
5.579200 0.784800
5.616700 0.796800
5.654200 0.914300
5.691700 0.895200
5.729200 1.229600
5.766800 0.986700
5.804300 1.073000
5.841800 1.157300
5.879300 1.162300
5.916800 1.184500
5.954400 1.194600
5.991900 1.178400
6.029400 1.163600
6.066900 1.162500
6.104400 1.160700
6.142000 1.207000
6.179500 1.256800
6.217000 1.284900
6.254500 1.301800
6.292000 1.315000
6.329600 1.385000
6.367100 1.417500
6.404600 1.445000
6.442100 1.514300
6.479600 1.593300
6.517200 1.662100
6.554700 1.679800
6.592200 1.656100
6.629700 1.666800
6.667200 1.679100
6.704800 1.643100
6.742300 1.661300
6.779800 1.724800
6.817300 1.722400
6.854800 1.727400
6.892400 1.748900
6.929900 1.833600
6.967400 1.746500
7.004900 1.730100
7.042400 1.771900
7.080000 1.836500
7.117500 1.896500
7.155000 1.976900
7.192500 1.864900
7.230000 1.881700
7.267600 1.732200
7.305100 1.641800
7.342600 1.611400
7.380100 1.513300
7.417600 1.543100
7.455200 1.541400
7.492700 1.242800
7.530200 1.243100
7.567700 1.238800
7.605200 1.222300
7.642800 1.177700
7.680300 1.150700
7.717800 1.156800
7.755300 1.221700
7.792800 1.491000
7.830400 1.735100
7.867900 1.693500
7.905400 1.479800
7.942900 1.299900
7.980400 1.191200
8.018000 1.184600
8.055500 1.412500
8.093000 1.274500
8.130500 1.116200
8.168000 1.085800
8.205600 1.048200
8.243100 0.998700
8.280600 0.952200
8.318100 1.044300
8.355600 1.164600
8.393200 1.209800
8.430700 1.275100
8.468200 1.297700
8.505700 1.364900
8.543200 1.346400
8.580800 1.367000
8.618300 1.359700
8.655800 1.362100
8.693300 1.414000
8.730800 1.449000
8.768400 1.435700
8.805900 1.408100
8.843400 1.433700
8.880900 1.452000
8.918400 1.554800
8.956000 1.618600
8.993500 1.648100
9.031000 1.637400
9.068500 1.636700
9.106000 1.702100
9.143600 1.578100
9.181100 1.528600
9.218600 1.522700
9.256100 1.488200
9.293600 1.601200
9.331200 1.553600
9.368700 1.590200
9.406200 1.677800
9.443700 1.734400
9.481200 1.828600
9.518800 1.945500
9.556300 1.922800
9.593800 1.956700
9.631300 1.880000
9.668800 1.861600
9.706400 1.895900
9.743900 2.000200
9.781400 1.977500
9.818900 1.950700
9.856400 1.657400
9.894000 1.396200
9.931500 1.293300
9.969000 1.287800
10.006500 1.329000
10.044000 1.443100
10.081600 1.522100
10.119100 1.550600
10.156600 1.625400
10.194100 1.744500
10.231600 1.778500
10.269200 1.832500
10.306700 1.735300
10.344200 1.664800
10.381700 1.622700
10.419200 1.722000
10.456800 1.758800
10.494300 1.804600
10.531800 1.857200
10.569300 1.920400
10.606800 1.895500
10.644400 1.781900
10.681900 1.856800
10.719400 1.869900
10.756900 1.833100
10.794400 1.819000
10.832000 1.838400
10.869500 1.920400
10.907000 1.922800
10.944500 1.869800
10.982000 1.913200
11.019600 1.887200
11.057100 1.919400
11.094600 1.980100
11.132100 1.966700
11.169600 1.971300
11.207200 2.056100
11.244700 2.007200
11.282200 2.214400
11.319700 2.017200
11.357200 2.098800
11.394800 2.168100
11.432300 2.254300
11.469800 2.147100
11.507300 2.209200
11.544800 2.303900
11.582400 2.102100
11.619900 2.159600
11.657400 1.873400
11.694900 1.910700
11.732400 1.853500
11.770000 1.804800
11.807500 1.818800
11.845000 1.726700
11.882500 1.704200
11.920000 1.877900
11.957600 2.218200
11.995100 2.170200
12.032600 2.119900
12.070100 2.192700
12.107600 2.227400
12.145200 2.261200
12.182700 2.219100
12.220200 2.048500
12.257700 1.949800
12.295200 1.844500
12.332800 1.767400
12.370300 1.773400
12.407800 1.789200
12.445300 1.939200
12.482800 2.101600
12.520400 2.072600
12.557900 2.103100
12.595400 2.108500
12.632900 1.952400
12.670400 1.912600
12.708000 1.832800
12.745500 1.825500
12.783000 1.929700
12.820500 1.932100
12.858000 1.877000
12.895600 1.926700
12.933100 2.039300
12.970600 1.922200
13.008100 1.846400
13.045600 1.772200
13.083200 1.737300
13.120700 1.770000
13.158200 1.811100
13.195700 1.889800
13.233200 1.977000
13.270800 1.979000
13.308300 1.952700
13.345800 1.893500
13.383300 1.908000
13.420800 1.893200
13.458400 1.940400
13.495900 1.949700
13.533400 1.982800
13.570900 2.033500
13.608400 2.017300
13.646000 2.027600
13.683500 2.037800
13.721000 2.085600
13.758500 2.269000
13.796000 2.388800
13.833600 2.277800
13.871100 2.111500
13.908600 2.035800
13.946100 2.093900
13.983600 2.218100
14.021200 2.116100
14.058700 2.105400
14.096200 2.110600
14.133700 2.098200
14.171200 2.209400
14.208800 2.135300
14.246300 2.140600
14.283800 2.116800
14.321300 2.079700
14.358800 2.084400
14.396400 2.087000
14.433900 2.101600
14.471400 2.148400
14.508900 2.134500
14.546400 2.141900
14.584000 2.159100
14.621500 2.150100
14.659000 2.128700
14.696500 2.096200
14.734000 2.146500
14.771600 2.159400
14.809100 2.174000
14.846600 2.188000
14.884100 2.281000
14.921600 2.307400
14.959200 2.282600
14.996700 2.019300
15.034200 2.028200
15.071700 2.029600
15.109200 2.035000
15.146800 1.992600
15.184300 2.073500
15.221800 2.120600
15.259300 2.100000
15.296800 2.104700
15.334400 2.162700
15.371900 2.231700
15.409400 2.255700
15.446900 2.226600
15.484400 2.308700
15.522000 2.323300
15.559500 2.411000
15.597000 2.329500
15.634500 2.249900
15.672000 2.162800
15.709600 2.153700
15.747100 2.152000
15.784600 2.234500
15.822100 2.275000
15.859600 2.083500
15.897200 2.019200
15.934700 2.076400
15.972200 2.116500
16.009700 2.106600
16.047200 2.211700
16.084800 2.190300
16.122300 2.288400
16.159800 2.241300
16.197300 2.182400
16.234800 2.238200
16.272400 2.286500
16.309900 2.355000
16.347400 2.459500
16.384900 2.472300
16.422400 2.421600
16.460000 2.361400
16.497500 2.226800
16.535000 2.188900
16.572500 2.173200
16.610000 2.266900
16.647600 2.303100
16.685100 2.351800
16.722600 2.333300
16.760100 2.308000
16.797600 2.303000
16.835200 2.383800
16.872700 2.431900
16.910200 2.430900
16.947700 2.419900
16.985200 2.385600
17.022800 2.318200
17.060300 2.282200
17.097800 2.231900
17.135300 2.185800
17.172800 2.143000
17.210400 2.117300
17.247900 2.088300
17.285400 2.046800
17.322900 2.197200
17.360400 2.063500
17.398000 2.065100
17.435500 2.088300
17.473000 2.077300
17.510500 2.023400
17.548000 2.066900
17.585600 2.241700
17.623100 2.158400
17.660600 2.079300
17.698100 1.989900
17.735600 1.952300
17.773200 2.009300
17.810700 2.036300
17.848200 1.994600
17.885700 2.048000
17.923200 2.068600
17.960800 2.022400
17.998300 2.046700
18.035800 2.094800
18.073300 2.073300
18.110800 2.032200
18.148400 2.045900
18.185900 2.035200
18.223400 2.040500
18.260900 2.110000
18.298400 2.011200
18.336000 1.980700
18.373500 2.021400
18.411000 2.039200
18.448500 2.017400
18.486000 2.026700
18.523600 2.061800
18.561100 2.158500
18.598600 2.340200
18.636100 2.398600
18.673600 2.356700
18.711200 2.336100
18.748700 2.284700
18.786200 2.188300
18.823700 2.169000
18.861200 2.068100
18.898800 2.029500
18.936300 2.051800
18.973800 2.102700
19.011300 2.057600
19.048800 2.004600
19.086400 1.963000
19.123900 1.957700
19.161400 1.864800
19.198900 1.762700
19.236400 1.735300
19.274000 1.776200
19.311500 1.766100
19.349000 1.582100
19.386500 1.476800
19.424000 1.428900
19.461600 1.426800
19.499100 1.466700
19.536600 1.551000
19.574100 1.762100
19.611600 1.776400
19.649200 1.894900
19.686700 1.846800
19.724200 1.706100
19.761700 1.739000
19.799200 1.582600
19.836800 1.554400
19.874300 1.595700
19.911800 1.629300
19.949300 1.706200
19.986800 1.812300
20.024400 1.830800
20.061900 1.804300
20.099400 1.718000
20.136900 1.635700
20.174400 1.589500
20.212000 1.575700
20.249500 1.545800
20.287000 1.494300
20.324500 1.464400
20.362000 1.371600
20.399600 1.301400
20.437100 1.233500
20.474600 1.213500
20.512100 1.168900
20.549600 1.095700
20.587200 1.036100
20.624700 0.962200
20.662200 0.868900
20.699700 0.813400
20.737200 0.825400
20.774800 0.897200
20.812300 0.876800
20.849800 0.892200
20.887300 0.948400
20.924800 1.026600
20.962400 1.057200
20.999900 1.061100
21.037400 1.051300
21.074900 0.995900
21.112400 0.937100
21.150000 0.882200
21.187500 0.831700
21.225000 0.776200
21.262500 0.731700
21.300000 0.680800
21.337600 0.622400
21.375100 0.607800
21.412600 0.574300
21.450100 0.559000
21.487600 0.526400
21.525200 0.520800
21.562700 0.514400
21.600200 0.524400
21.637700 0.515300
21.675200 0.492900
21.712800 0.477500
21.750300 0.465600
21.787800 0.455800
21.825300 0.447500
21.862800 0.439300
21.900400 0.424900
21.937900 0.403600
21.975400 0.388600
22.012900 0.376600
22.050400 0.366800
22.088000 0.357300
22.125500 0.347700
22.163000 0.339900
22.200500 0.332600
22.238000 0.323200
22.275600 0.332000
22.313100 0.339200
22.350600 0.327500
22.388100 0.322100
22.425600 0.319500
22.463200 0.319200
22.500700 0.322100
22.538200 0.327400
22.575700 0.336100
22.613200 0.365300
22.650800 0.394600
22.688300 0.398200
22.725800 0.276200
22.763300 0.295000
22.800800 0.381700
22.838400 0.449300
22.875900 0.372100
22.913400 0.337400
22.950900 0.312300
22.988400 0.292300
23.026000 0.281700
23.063500 0.281500
23.101000 0.304600
23.138500 0.319400
23.176000 0.332500
23.213600 0.346600
23.251100 0.358800
23.288600 0.360200
23.326100 0.361700
23.363600 0.359800
23.401200 0.352400
23.438700 0.337100
23.476200 0.318000
23.513700 0.290100
23.551200 0.258000
23.588800 0.229000
23.626300 0.264700
23.663800 0.166900
23.701300 0.154100
23.738800 0.150900
23.776400 0.150100
23.813900 0.147200
23.851400 0.149300
23.888900 0.154100
23.926400 0.155200
23.964000 0.151300
24.001500 0.146800
24.039000 0.138400
24.076500 0.130100
24.114000 0.122000
24.151600 0.114300
24.189100 0.136500
24.226600 0.148300
24.264100 0.113600
24.301600 0.087500
24.339200 0.076100
24.376700 0.065000
24.414200 0.053700
24.451700 0.035800
24.489200 0.026800
24.526800 0.022500
24.564300 0.018600
24.601800 0.014800
24.639300 0.011200
24.676800 0.008000
24.714400 0.005200
24.751900 0.003000
24.789400 0.001400
24.826900 0.000400
24.864400 0.000100
24.902000 0.000000
24.939500 0.000000
24.977000 0.000000
25.014500 0.000000
25.052000 0.000000
25.089600 0.000000
25.127100 0.000000
25.164600 0.000000
25.202100 0.000000
25.239600 0.000000
25.277200 0.000000
25.314700 0.000000
25.352200 0.000000
25.389700 0.000000
25.427200 0.000000
25.464800 0.000000
25.502300 0.000000
25.539800 0.000000
25.577300 0.000000
25.614800 0.000000
25.652400 0.000000
25.689900 0.000000
25.727400 0.000000
25.764900 0.000000
25.802400 0.000000
25.840000 0.000000
25.877500 0.000000
25.915000 0.000000
25.952500 0.000000
25.990000 0.000000
26.027600 0.000000
26.065100 0.000000
26.102600 0.000000
26.140100 0.000000
26.177600 0.000000
26.215200 0.000000
26.252700 0.000000
26.290200 0.000000
26.327700 0.000000
26.365200 0.000000
26.402800 0.000000
26.440300 0.000000
26.477800 0.000000
26.515300 0.000000
26.552800 0.000000
26.590400 0.000000
26.627900 0.000000
26.665400 0.000000
26.702900 0.000000
26.740400 0.000000
26.778000 0.000000
26.815500 0.000000
26.853000 0.000000
26.890500 0.000000
26.928000 0.000000
26.965600 0.000000
27.003100 0.000000
27.040600 0.000000
27.078100 0.000000
27.115600 0.000000
27.153200 0.000000
27.190700 0.000000
27.228200 0.000000
27.265700 0.000000
27.303200 0.000000
27.340800 0.000000
27.378300 0.000000
27.415800 0.000000
27.453300 0.000000
27.490800 0.000000
27.528400 0.000000
27.565900 0.000000
27.603400 0.000000
27.640900 0.000000
27.678400 0.000000
27.716000 0.000000
27.753500 0.000000
27.791000 0.000000
27.828500 0.000000
27.866000 0.000000
27.903600 0.000000
27.941100 0.000000
27.978600 0.000000
28.016100 0.000000
28.053600 0.000000
28.091200 0.000000
28.128700 0.000000
28.166200 0.000000
28.203700 0.000000
28.241200 0.000000
28.278800 0.000000
28.316300 0.000000
28.353800 0.000000
28.391300 0.000000
28.428800 0.000000
28.466400 0.000000
28.503900 0.000000
28.541400 0.000000
28.578900 0.000000
28.616400 0.000000
28.654000 0.000000
28.691500 0.000000
28.729000 0.000000
28.766500 0.000000
28.804000 0.000000
28.841600 0.000000
28.879100 0.000000
28.916600 0.000000
28.954100 0.000000
28.991600 0.000000
29.029200 0.000000
29.066700 0.000000
29.104200 0.000000
29.141700 0.000000
29.179200 0.000000
29.216800 0.000000
29.254300 0.000000
29.291800 0.000000
29.329300 0.000000
29.366800 0.000000
29.404400 0.000000
29.441900 0.000000
29.479400 0.000000
29.516900 0.000000
29.554400 0.000000
29.592000 0.000000
29.629500 0.000000
29.667000 0.000000
29.704500 0.000000
29.742000 0.000000
29.779600 0.000000
29.817100 0.000000
29.854600 0.000000
29.892100 0.000000
29.929600 0.000000
29.967200 0.000000
30.004700 0.000000
30.042200 0.000000
30.079700 0.000000
30.117200 0.000000
30.154800 0.000000
30.192300 0.000000
30.229800 0.000000
30.267300 0.000000
30.304800 0.000000
30.342400 0.000000
30.379900 0.000000
30.417400 0.000000
30.454900 0.000000
30.492500 0.000000
30.530000 0.000000
30.567500 0.000000
30.605000 0.000000
30.642500 0.000000
30.680100 0.000000
30.717600 0.000000
30.755100 0.000000
30.792600 0.000000
30.830100 0.000000
30.867700 0.000000
30.905200 0.000000
30.942700 0.000000
30.980200 0.000000
31.017700 0.000000
31.055300 0.000000
31.092800 0.000000
31.130300 0.000000
31.167800 0.000000
31.205300 0.000000
31.242900 0.000000
31.280400 0.000000
31.317900 0.000000
31.355400 0.000000
31.392900 0.000000
31.430500 0.000000
e
