set title 'mp-862798 - Density of States'
set xlabel 'Energy (eV)'
set ylabel 'DOS (states/eV)'
set grid
set xrange [-10:10]
set yrange [0:9.775]
set xzeroaxis lt -1
set terminal png size 800,600
set output 'mp-862798_dos_gnuplot.png'
plot '-' using 1:2 with lines title 'DOS'
-34.588400 0.000000
-34.551300 0.000000
-34.514100 0.000000
-34.476900 0.000000
-34.439800 0.000000
-34.402600 0.000000
-34.365400 0.000000
-34.328300 0.000000
-34.291100 0.000000
-34.253900 0.000000
-34.216800 0.000000
-34.179600 0.000000
-34.142500 0.000000
-34.105300 0.000000
-34.068100 0.000000
-34.031000 0.000000
-33.993800 0.000000
-33.956600 0.000000
-33.919500 0.000000
-33.882300 0.000000
-33.845100 0.000000
-33.808000 0.000000
-33.770800 0.000000
-33.733600 0.000000
-33.696500 0.000000
-33.659300 0.000000
-33.622100 0.000000
-33.585000 0.000000
-33.547800 0.000000
-33.510600 0.000000
-33.473500 0.000000
-33.436300 0.000000
-33.399100 0.000000
-33.362000 0.000000
-33.324800 0.000000
-33.287600 0.000000
-33.250500 0.000000
-33.213300 0.000000
-33.176100 0.000000
-33.139000 0.000000
-33.101800 0.000000
-33.064700 0.000000
-33.027500 0.000000
-32.990300 0.000000
-32.953200 0.000000
-32.916000 0.000000
-32.878800 0.000000
-32.841700 0.000000
-32.804500 0.000000
-32.767300 0.000000
-32.730200 0.000000
-32.693000 0.000000
-32.655800 0.000000
-32.618700 0.000000
-32.581500 0.000000
-32.544300 0.000000
-32.507200 0.000000
-32.470000 0.000000
-32.432800 0.000000
-32.395700 0.000000
-32.358500 0.000000
-32.321300 0.000000
-32.284200 0.000000
-32.247000 0.000000
-32.209800 0.000000
-32.172700 0.000000
-32.135500 0.000000
-32.098300 0.000000
-32.061200 0.000000
-32.024000 0.000000
-31.986800 0.000000
-31.949700 0.000000
-31.912500 0.000000
-31.875400 0.000000
-31.838200 0.000000
-31.801000 0.000000
-31.763900 0.000000
-31.726700 0.000000
-31.689500 0.000000
-31.652400 0.000000
-31.615200 0.000000
-31.578000 0.000000
-31.540900 0.000000
-31.503700 0.000000
-31.466500 0.000000
-31.429400 0.000000
-31.392200 0.000000
-31.355000 0.000600
-31.317900 0.038400
-31.280700 0.844100
-31.243500 6.608500
-31.206400 18.733900
-31.169200 20.273100
-31.132000 16.371200
-31.094900 32.704800
-31.057700 41.511600
-31.020500 20.367800
-30.983400 3.728900
-30.946200 0.250600
-30.909000 0.006100
-30.871900 0.000100
-30.834700 0.000000
-30.797500 0.000000
-30.760400 0.000000
-30.723200 0.000000
-30.686100 0.000000
-30.648900 0.000000
-30.611700 0.000000
-30.574600 0.000000
-30.537400 0.000000
-30.500200 0.000000
-30.463100 0.000000
-30.425900 0.000000
-30.388700 0.000000
-30.351600 0.000000
-30.314400 0.000000
-30.277200 0.000000
-30.240100 0.000000
-30.202900 0.000000
-30.165700 0.000000
-30.128600 0.000000
-30.091400 0.000000
-30.054200 0.000000
-30.017100 0.000000
-29.979900 0.000000
-29.942700 0.000000
-29.905600 0.000000
-29.868400 0.000000
-29.831200 0.000000
-29.794100 0.000000
-29.756900 0.000000
-29.719700 0.000000
-29.682600 0.000000
-29.645400 0.000000
-29.608200 0.000000
-29.571100 0.000000
-29.533900 0.000000
-29.496800 0.000000
-29.459600 0.000000
-29.422400 0.000000
-29.385300 0.000000
-29.348100 0.000000
-29.310900 0.000000
-29.273800 0.000000
-29.236600 0.000000
-29.199400 0.000000
-29.162300 0.000000
-29.125100 0.000000
-29.087900 0.000000
-29.050800 0.000000
-29.013600 0.000000
-28.976400 0.000000
-28.939300 0.000000
-28.902100 0.000000
-28.864900 0.000000
-28.827800 0.000000
-28.790600 0.000000
-28.753400 0.000000
-28.716300 0.000000
-28.679100 0.000000
-28.641900 0.000000
-28.604800 0.000000
-28.567600 0.000000
-28.530400 0.000000
-28.493300 0.000000
-28.456100 0.000000
-28.418900 0.000000
-28.381800 0.000000
-28.344600 0.000000
-28.307500 0.000000
-28.270300 0.000000
-28.233100 0.000000
-28.196000 0.000000
-28.158800 0.000000
-28.121600 0.000000
-28.084500 0.000000
-28.047300 0.000000
-28.010100 0.000000
-27.973000 0.000000
-27.935800 0.000000
-27.898600 0.000000
-27.861500 0.000000
-27.824300 0.000000
-27.787100 0.000000
-27.750000 0.000000
-27.712800 0.000000
-27.675600 0.000000
-27.638500 0.000000
-27.601300 0.000000
-27.564100 0.000000
-27.527000 0.000000
-27.489800 0.000000
-27.452600 0.000000
-27.415500 0.000000
-27.378300 0.000000
-27.341100 0.000000
-27.304000 0.000000
-27.266800 0.000000
-27.229700 0.000000
-27.192500 0.000000
-27.155300 0.000000
-27.118200 0.000000
-27.081000 0.000000
-27.043800 0.000000
-27.006700 0.000000
-26.969500 0.000000
-26.932300 0.000000
-26.895200 0.000000
-26.858000 0.000000
-26.820800 0.000000
-26.783700 0.000000
-26.746500 0.000000
-26.709300 0.000000
-26.672200 0.000000
-26.635000 0.000000
-26.597800 0.000000
-26.560700 0.000000
-26.523500 0.000000
-26.486300 0.000000
-26.449200 0.000000
-26.412000 0.000000
-26.374800 0.000000
-26.337700 0.000000
-26.300500 0.000000
-26.263300 0.000000
-26.226200 0.000000
-26.189000 0.000000
-26.151800 0.000000
-26.114700 0.000000
-26.077500 0.000000
-26.040400 0.000000
-26.003200 0.000000
-25.966000 0.000000
-25.928900 0.000000
-25.891700 0.000000
-25.854500 0.000000
-25.817400 0.000000
-25.780200 0.000000
-25.743000 0.000000
-25.705900 0.000000
-25.668700 0.000000
-25.631500 0.000000
-25.594400 0.000000
-25.557200 0.000000
-25.520000 0.000000
-25.482900 0.000000
-25.445700 0.000000
-25.408500 0.000000
-25.371400 0.000000
-25.334200 0.000000
-25.297000 0.000000
-25.259900 0.000000
-25.222700 0.000000
-25.185500 0.000000
-25.148400 0.000000
-25.111200 0.000000
-25.074000 0.000000
-25.036900 0.000000
-24.999700 0.000000
-24.962500 0.000000
-24.925400 0.000000
-24.888200 0.000000
-24.851100 0.000000
-24.813900 0.000000
-24.776700 0.000000
-24.739600 0.000000
-24.702400 0.000000
-24.665200 0.000000
-24.628100 0.000000
-24.590900 0.000000
-24.553700 0.000000
-24.516600 0.000000
-24.479400 0.000000
-24.442200 0.000000
-24.405100 0.000000
-24.367900 0.000000
-24.330700 0.000000
-24.293600 0.000000
-24.256400 0.000000
-24.219200 0.000000
-24.182100 0.000000
-24.144900 0.000000
-24.107700 0.000000
-24.070600 0.000000
-24.033400 0.000000
-23.996200 0.000000
-23.959100 0.000000
-23.921900 0.000000
-23.884700 0.000000
-23.847600 0.000000
-23.810400 0.000000
-23.773200 0.000000
-23.736100 0.000000
-23.698900 0.000000
-23.661800 0.000000
-23.624600 0.000000
-23.587400 0.000000
-23.550300 0.000000
-23.513100 0.000000
-23.475900 0.000000
-23.438800 0.000000
-23.401600 0.000000
-23.364400 0.000000
-23.327300 0.000000
-23.290100 0.000000
-23.252900 0.000000
-23.215800 0.000000
-23.178600 0.000000
-23.141400 0.000000
-23.104300 0.000000
-23.067100 0.000000
-23.029900 0.000000
-22.992800 0.000000
-22.955600 0.000000
-22.918400 0.000000
-22.881300 0.000000
-22.844100 0.000000
-22.806900 0.000000
-22.769800 0.000000
-22.732600 0.000000
-22.695400 0.000000
-22.658300 0.000000
-22.621100 0.000000
-22.583900 0.000000
-22.546800 0.000000
-22.509600 0.000000
-22.472500 0.000000
-22.435300 0.000000
-22.398100 0.000000
-22.361000 0.000000
-22.323800 0.000000
-22.286600 0.000000
-22.249500 0.000000
-22.212300 0.000000
-22.175100 0.000000
-22.138000 0.000000
-22.100800 0.000000
-22.063600 0.000000
-22.026500 0.000000
-21.989300 0.000000
-21.952100 0.000000
-21.915000 0.000000
-21.877800 0.000000
-21.840600 0.000000
-21.803500 0.000000
-21.766300 0.000000
-21.729100 0.000000
-21.692000 0.000000
-21.654800 0.000000
-21.617600 0.000000
-21.580500 0.000000
-21.543300 0.000000
-21.506100 0.000000
-21.469000 0.000000
-21.431800 0.000000
-21.394700 0.000000
-21.357500 0.000000
-21.320300 0.000000
-21.283200 0.000000
-21.246000 0.000000
-21.208800 0.000000
-21.171700 0.000000
-21.134500 0.000000
-21.097300 0.000000
-21.060200 0.000000
-21.023000 0.000000
-20.985800 0.000000
-20.948700 0.000000
-20.911500 0.000000
-20.874300 0.000000
-20.837200 0.000000
-20.800000 0.000000
-20.762800 0.000000
-20.725700 0.000000
-20.688500 0.000000
-20.651300 0.000000
-20.614200 0.000000
-20.577000 0.000000
-20.539800 0.000000
-20.502700 0.000000
-20.465500 0.000000
-20.428300 0.000000
-20.391200 0.000000
-20.354000 0.000000
-20.316800 0.000000
-20.279700 0.000000
-20.242500 0.000000
-20.205400 0.000000
-20.168200 0.000000
-20.131000 0.000000
-20.093900 0.000000
-20.056700 0.000000
-20.019500 0.000000
-19.982400 0.000000
-19.945200 0.000000
-19.908000 0.000000
-19.870900 0.000000
-19.833700 0.000000
-19.796500 0.000000
-19.759400 0.000000
-19.722200 0.000000
-19.685000 0.000000
-19.647900 0.000000
-19.610700 0.000000
-19.573500 0.000000
-19.536400 0.000000
-19.499200 0.000000
-19.462000 0.000000
-19.424900 0.000000
-19.387700 0.000000
-19.350500 0.000000
-19.313400 0.000000
-19.276200 0.000000
-19.239000 0.000000
-19.201900 0.000000
-19.164700 0.000000
-19.127500 0.000000
-19.090400 0.000000
-19.053200 0.000000
-19.016100 0.000000
-18.978900 0.000000
-18.941700 0.000000
-18.904600 0.000000
-18.867400 0.000000
-18.830200 0.000000
-18.793100 0.000000
-18.755900 0.000000
-18.718700 0.000000
-18.681600 0.000000
-18.644400 0.000000
-18.607200 0.000000
-18.570100 0.000000
-18.532900 0.000000
-18.495700 0.000000
-18.458600 0.000000
-18.421400 0.000000
-18.384200 0.000000
-18.347100 0.000000
-18.309900 0.000000
-18.272700 0.000000
-18.235600 0.000000
-18.198400 0.000000
-18.161200 0.000000
-18.124100 0.000000
-18.086900 0.000000
-18.049700 0.000000
-18.012600 0.000000
-17.975400 0.000000
-17.938200 0.000000
-17.901100 0.000000
-17.863900 0.000000
-17.826800 0.000000
-17.789600 0.000000
-17.752400 0.000000
-17.715300 0.000000
-17.678100 0.000000
-17.640900 0.000000
-17.603800 0.000000
-17.566600 0.000000
-17.529400 0.000000
-17.492300 0.000000
-17.455100 0.000000
-17.417900 0.000000
-17.380800 0.000000
-17.343600 0.000000
-17.306400 0.000000
-17.269300 0.000000
-17.232100 0.000000
-17.194900 0.000000
-17.157800 0.000000
-17.120600 0.000000
-17.083400 0.000000
-17.046300 0.000000
-17.009100 0.000000
-16.971900 0.000000
-16.934800 0.000000
-16.897600 0.000000
-16.860400 0.000000
-16.823300 0.000000
-16.786100 0.000000
-16.748900 0.000000
-16.711800 0.000000
-16.674600 0.000000
-16.637500 0.000000
-16.600300 0.000000
-16.563100 0.000000
-16.526000 0.000000
-16.488800 0.000000
-16.451600 0.000000
-16.414500 0.000000
-16.377300 0.000000
-16.340100 0.000000
-16.303000 0.000000
-16.265800 0.000000
-16.228600 0.000000
-16.191500 0.000000
-16.154300 0.000000
-16.117100 0.000000
-16.080000 0.000000
-16.042800 0.000000
-16.005600 0.000000
-15.968500 0.000000
-15.931300 0.000000
-15.894100 0.000000
-15.857000 0.000000
-15.819800 0.000000
-15.782600 0.000000
-15.745500 0.000000
-15.708300 0.000000
-15.671100 0.000000
-15.634000 0.000000
-15.596800 0.000000
-15.559700 0.000000
-15.522500 0.000000
-15.485300 0.000000
-15.448200 0.000000
-15.411000 0.000000
-15.373800 0.000000
-15.336700 0.000000
-15.299500 0.000000
-15.262300 0.000000
-15.225200 0.000000
-15.188000 0.000000
-15.150800 0.000000
-15.113700 0.000000
-15.076500 0.000000
-15.039300 0.000000
-15.002200 0.000000
-14.965000 0.000000
-14.927800 0.000000
-14.890700 0.000000
-14.853500 0.000000
-14.816300 0.000000
-14.779200 0.000000
-14.742000 0.000000
-14.704800 0.000000
-14.667700 0.000000
-14.630500 0.000000
-14.593300 0.000000
-14.556200 0.000000
-14.519000 0.000000
-14.481800 0.000000
-14.444700 0.000000
-14.407500 0.000000
-14.370400 0.000000
-14.333200 0.000000
-14.296000 0.000000
-14.258900 0.000000
-14.221700 0.000000
-14.184500 0.000000
-14.147400 0.000000
-14.110200 0.000000
-14.073000 0.000000
-14.035900 0.000000
-13.998700 0.000000
-13.961500 0.000000
-13.924400 0.000000
-13.887200 0.000000
-13.850000 0.000000
-13.812900 0.000000
-13.775700 0.000000
-13.738500 0.000000
-13.701400 0.000000
-13.664200 0.000000
-13.627000 0.000000
-13.589900 0.000000
-13.552700 0.000000
-13.515500 0.000000
-13.478400 0.000000
-13.441200 0.000000
-13.404000 0.000000
-13.366900 0.000000
-13.329700 0.000000
-13.292500 0.000000
-13.255400 0.000000
-13.218200 0.000000
-13.181100 0.000000
-13.143900 0.000000
-13.106700 0.000000
-13.069600 0.000000
-13.032400 0.000000
-12.995200 0.000000
-12.958100 0.000000
-12.920900 0.000000
-12.883700 0.000000
-12.846600 0.000000
-12.809400 0.000000
-12.772200 0.000000
-12.735100 0.000000
-12.697900 0.000000
-12.660700 0.000000
-12.623600 0.000000
-12.586400 0.000000
-12.549200 0.000000
-12.512100 0.000000
-12.474900 0.000000
-12.437700 0.000000
-12.400600 0.000000
-12.363400 0.000000
-12.326200 0.000000
-12.289100 0.000000
-12.251900 0.000000
-12.214700 0.000000
-12.177600 0.000000
-12.140400 0.000000
-12.103200 0.000000
-12.066100 0.000000
-12.028900 0.000000
-11.991800 0.000000
-11.954600 0.000000
-11.917400 0.000000
-11.880300 0.000000
-11.843100 0.000000
-11.805900 0.000000
-11.768800 0.000000
-11.731600 0.000000
-11.694400 0.000000
-11.657300 0.000000
-11.620100 0.000000
-11.582900 0.000000
-11.545800 0.000000
-11.508600 0.000000
-11.471400 0.000000
-11.434300 0.000000
-11.397100 0.000000
-11.359900 0.000000
-11.322800 0.000000
-11.285600 0.000000
-11.248400 0.000000
-11.211300 0.000000
-11.174100 0.000000
-11.136900 0.000000
-11.099800 0.000000
-11.062600 0.000000
-11.025400 0.000000
-10.988300 0.000000
-10.951100 0.000000
-10.913900 0.000000
-10.876800 0.000000
-10.839600 0.000000
-10.802500 0.000000
-10.765300 0.000000
-10.728100 0.000000
-10.691000 0.000000
-10.653800 0.000000
-10.616600 0.000000
-10.579500 0.000000
-10.542300 0.000000
-10.505100 0.000000
-10.468000 0.000000
-10.430800 0.000000
-10.393600 0.000000
-10.356500 0.000000
-10.319300 0.000000
-10.282100 0.000000
-10.245000 0.000000
-10.207800 0.000000
-10.170600 0.000000
-10.133500 0.000000
-10.096300 0.000000
-10.059100 0.000000
-10.022000 0.000000
-9.984800 0.000000
-9.947600 0.000000
-9.910500 0.000000
-9.873300 0.000000
-9.836100 0.000000
-9.799000 0.000000
-9.761800 0.000000
-9.724700 0.000000
-9.687500 0.000000
-9.650300 0.000000
-9.613200 0.000000
-9.576000 0.000000
-9.538800 0.000000
-9.501700 0.000000
-9.464500 0.000000
-9.427300 0.000000
-9.390200 0.000000
-9.353000 0.000000
-9.315800 0.000000
-9.278700 0.000000
-9.241500 0.000000
-9.204300 0.000000
-9.167200 0.000000
-9.130000 0.000000
-9.092800 0.000000
-9.055700 0.000000
-9.018500 0.000000
-8.981300 0.000000
-8.944200 0.000000
-8.907000 0.000000
-8.869800 0.000000
-8.832700 0.000000
-8.795500 0.000000
-8.758300 0.000000
-8.721200 0.000000
-8.684000 0.000000
-8.646800 0.000000
-8.609700 0.000000
-8.572500 0.000000
-8.535400 0.000000
-8.498200 0.000000
-8.461000 0.000000
-8.423900 0.000000
-8.386700 0.000000
-8.349500 0.000000
-8.312400 0.000000
-8.275200 0.000000
-8.238000 0.000000
-8.200900 0.000000
-8.163700 0.000000
-8.126500 0.000000
-8.089400 0.000000
-8.052200 0.000000
-8.015000 0.000000
-7.977900 0.000000
-7.940700 0.000000
-7.903500 0.000000
-7.866400 0.000000
-7.829200 0.000000
-7.792000 0.000000
-7.754900 0.000000
-7.717700 0.000000
-7.680500 0.000000
-7.643400 0.000000
-7.606200 0.000000
-7.569000 0.000000
-7.531900 0.000000
-7.494700 0.000000
-7.457500 0.000000
-7.420400 0.000000
-7.383200 0.000000
-7.346100 0.000000
-7.308900 0.000000
-7.271700 0.000000
-7.234600 0.000000
-7.197400 0.000000
-7.160200 0.000000
-7.123100 0.000000
-7.085900 0.000000
-7.048700 0.000000
-7.011600 0.000000
-6.974400 0.000000
-6.937200 0.000000
-6.900100 0.000000
-6.862900 0.000000
-6.825700 0.000000
-6.788600 0.000000
-6.751400 0.000000
-6.714200 0.000000
-6.677100 0.000000
-6.639900 0.000000
-6.602700 0.000000
-6.565600 0.000000
-6.528400 0.000000
-6.491200 0.000000
-6.454100 0.000000
-6.416900 0.000000
-6.379700 0.000000
-6.342600 0.000000
-6.305400 0.000000
-6.268200 0.000000
-6.231100 0.000000
-6.193900 0.000000
-6.156800 0.000000
-6.119600 0.000000
-6.082400 0.000000
-6.045300 0.000000
-6.008100 0.000000
-5.970900 0.000000
-5.933800 0.000000
-5.896600 0.000000
-5.859400 0.000000
-5.822300 0.000000
-5.785100 0.000000
-5.747900 0.000000
-5.710800 0.000000
-5.673600 0.000000
-5.636400 0.000000
-5.599300 0.000000
-5.562100 0.000000
-5.524900 0.000000
-5.487800 0.000000
-5.450600 0.000000
-5.413400 0.000000
-5.376300 0.000000
-5.339100 0.000000
-5.301900 0.000000
-5.264800 0.000000
-5.227600 0.000000
-5.190400 0.000000
-5.153300 0.000000
-5.116100 0.000000
-5.078900 0.000000
-5.041800 0.000000
-5.004600 0.000000
-4.967500 0.000000
-4.930300 0.000000
-4.893100 0.000000
-4.856000 0.000000
-4.818800 0.000000
-4.781600 0.000000
-4.744500 0.000000
-4.707300 0.000000
-4.670100 0.000000
-4.633000 0.000000
-4.595800 0.000000
-4.558600 0.000000
-4.521500 0.000000
-4.484300 0.000000
-4.447100 0.000000
-4.410000 0.000000
-4.372800 0.000000
-4.335600 0.000000
-4.298500 0.000000
-4.261300 0.000000
-4.224100 0.000000
-4.187000 0.000000
-4.149800 0.000000
-4.112600 0.000000
-4.075500 0.000000
-4.038300 0.000000
-4.001100 0.000000
-3.964000 0.000000
-3.926800 0.000000
-3.889700 0.000000
-3.852500 0.000000
-3.815300 0.000000
-3.778200 0.000000
-3.741000 0.000000
-3.703800 0.000000
-3.666700 0.000000
-3.629500 0.000000
-3.592300 0.000000
-3.555200 0.000000
-3.518000 0.000000
-3.480800 0.000000
-3.443700 0.000000
-3.406500 0.000000
-3.369300 0.000000
-3.332200 0.000000
-3.295000 0.000000
-3.257800 0.000000
-3.220700 0.000000
-3.183500 0.000000
-3.146300 0.000000
-3.109200 0.000000
-3.072000 0.000000
-3.034800 0.000000
-2.997700 0.000000
-2.960500 0.000000
-2.923300 0.000000
-2.886200 0.000000
-2.849000 0.000000
-2.811800 0.000000
-2.774700 0.000000
-2.737500 0.000000
-2.700400 0.000000
-2.663200 0.000000
-2.626000 0.000000
-2.588900 0.000000
-2.551700 0.000000
-2.514500 0.000000
-2.477400 0.000000
-2.440200 0.000100
-2.403000 0.002200
-2.365900 0.012400
-2.328700 0.029000
-2.291500 0.043000
-2.254400 0.057700
-2.217200 0.072400
-2.180000 0.146800
-2.142900 0.212300
-2.105700 0.133900
-2.068500 0.035200
-2.031400 0.019400
-1.994200 0.092600
-1.957000 0.217400
-1.919900 0.267600
-1.882700 0.245700
-1.845500 0.203600
-1.808400 0.275500
-1.771200 0.309400
-1.734000 0.148400
-1.696900 0.034000
-1.659700 0.052000
-1.622500 0.160600
-1.585400 0.267100
-1.548200 0.312700
-1.511100 0.292800
-1.473900 0.336700
-1.436700 0.496800
-1.399600 0.457300
-1.362400 0.199500
-1.325200 0.063100
-1.288100 0.122300
-1.250900 0.240500
-1.213700 0.291600
-1.176600 0.403300
-1.139400 0.592700
-1.102200 0.562500
-1.065100 0.259900
-1.027900 0.071200
-0.990700 0.138600
-0.953600 0.375500
-0.916400 0.548500
-0.879200 0.489500
-0.842100 0.328100
-0.804900 0.333900
-0.767700 0.450600
-0.730600 0.428900
-0.693400 0.299600
-0.656200 0.315500
-0.619100 0.504300
-0.581900 0.743800
-0.544700 0.771800
-0.507600 0.667400
-0.470400 0.562400
-0.433200 0.386300
-0.396100 0.202800
-0.358900 0.144000
-0.321800 0.182700
-0.284600 0.389000
-0.247400 0.691600
-0.210300 0.770000
-0.173100 0.731200
-0.135900 0.867000
-0.098800 0.743500
-0.061600 0.447800
-0.024400 0.529200
0.012700 0.850500
0.049900 1.007800
0.087100 0.829600
0.124200 0.491200
0.161400 0.333400
0.198600 0.624200
0.235700 1.018800
0.272900 0.997800
0.310100 0.779400
0.347200 0.763900
0.384400 1.036400
0.421600 1.207500
0.458700 1.042400
0.495900 0.909400
0.533100 1.245900
0.570200 1.788600
0.607400 2.034300
0.644600 1.938100
0.681700 1.725800
0.718900 1.989800
0.756100 2.566300
0.793200 2.514300
0.830400 2.346100
0.867500 2.376200
0.904700 2.591500
0.941900 3.075400
0.979000 3.448500
1.016200 3.250700
1.053400 3.050800
1.090500 3.121200
1.127700 3.018200
1.164900 3.140300
1.202000 3.829300
1.239200 4.891100
1.276400 5.006200
1.313500 4.562200
1.350700 4.475600
1.387900 4.131600
1.425000 4.147200
1.462200 4.736300
1.499400 4.916800
1.536500 5.447500
1.573700 6.430400
1.610900 6.458800
1.648000 5.611900
1.685200 5.130400
1.722400 5.020600
1.759500 5.063700
1.796700 5.150600
1.833900 5.755800
1.871000 6.713600
1.908200 6.652400
1.945300 5.784400
1.982500 4.647300
2.019700 3.839200
2.056800 4.078300
2.094000 4.728400
2.131200 5.446100
2.168300 6.046900
2.205500 5.997600
2.242700 5.254200
2.279800 4.918500
2.317000 5.076600
2.354200 4.938700
2.391300 4.475400
2.428500 3.818100
2.465700 3.533400
2.502800 3.820200
2.540000 4.122300
2.577200 4.035200
2.614300 3.805900
2.651500 3.839800
2.688700 4.032900
2.725800 4.287600
2.763000 4.686000
2.800200 5.146800
2.837300 4.931500
2.874500 4.484400
2.911700 4.623100
2.948800 4.837700
2.986000 4.977600
3.023200 5.106300
3.060300 5.292000
3.097500 4.813400
3.134600 4.019000
3.171800 4.007700
3.209000 4.636800
3.246100 5.459600
3.283300 5.897800
3.320500 6.127300
3.357600 6.336400
3.394800 5.851600
3.432000 5.435700
3.469100 5.528700
3.506300 6.090300
3.543500 6.639500
3.580600 6.740100
3.617800 6.751600
3.655000 6.967900
3.692100 6.788300
3.729300 5.759900
3.766500 4.892400
3.803600 4.500400
3.840800 4.721900
3.878000 5.440100
3.915100 6.064400
3.952300 6.786300
3.989500 6.997400
4.026600 5.904600
4.063800 4.709700
4.101000 4.802200
4.138100 5.697300
4.175300 6.590700
4.212500 7.512000
4.249600 7.965100
4.286800 8.328300
4.323900 8.886700
4.361100 8.731300
4.398300 7.778000
4.435400 6.699700
4.472600 6.563000
4.509800 6.949400
4.546900 7.057900
4.584100 6.961500
4.621300 6.751000
4.658400 6.883900
4.695600 7.001000
4.732800 6.286700
4.769900 5.191900
4.807100 4.479300
4.844300 4.509900
4.881400 5.067600
4.918600 5.138000
4.955800 4.833800
4.992900 4.815100
5.030100 5.136300
5.067300 5.390000
5.104400 5.353300
5.141600 5.729600
5.178800 5.962400
5.215900 5.766600
5.253100 5.471900
5.290300 5.437400
5.327400 5.519700
5.364600 5.200500
5.401800 5.404500
5.438900 6.270400
5.476100 6.510500
5.513200 6.639200
5.550400 6.944400
5.587600 6.694900
5.624700 6.136700
5.661900 5.926300
5.699100 5.722100
5.736200 5.665800
5.773400 5.672700
5.810600 5.336800
5.847700 4.428200
5.884900 3.681900
5.922100 3.836300
5.959200 4.159400
5.996400 4.220500
6.033600 4.362800
6.070700 4.516900
6.107900 4.485100
6.145100 3.839500
6.182200 3.138800
6.219400 2.987800
6.256600 3.294900
6.293700 3.446300
6.330900 3.300400
6.368100 3.643100
6.405200 3.893300
6.442400 3.604400
6.479600 3.395300
6.516700 2.795500
6.553900 2.212700
6.591100 2.147700
6.628200 2.522400
6.665400 2.947000
6.702500 3.424100
6.739700 3.596300
6.776900 3.484900
6.814000 3.609100
6.851200 3.368700
6.888400 3.095700
6.925500 3.808800
6.962700 4.530200
6.999900 4.431200
7.037000 3.943000
7.074200 4.324800
7.111400 5.520600
7.148500 5.587800
7.185700 4.418600
7.222900 3.576700
7.260000 3.120300
7.297200 3.132900
7.334400 3.401600
7.371500 3.231600
7.408700 2.775900
7.445900 2.599000
7.483000 2.626900
7.520200 2.410400
7.557400 2.252200
7.594500 2.769400
7.631700 3.462600
7.668900 3.265900
7.706000 2.877100
7.743200 2.701200
7.780300 2.468800
7.817500 2.411000
7.854700 2.527000
7.891800 2.598800
7.929000 3.020800
7.966200 3.539300
8.003300 3.583800
8.040500 3.336100
8.077700 2.966700
8.114800 2.629200
8.152000 2.416800
8.189200 2.409000
8.226300 2.649900
8.263500 2.802700
8.300700 2.528600
8.337800 2.234500
8.375000 2.117700
8.412200 2.292800
8.449300 2.934600
8.486500 3.193800
8.523700 2.813700
8.560800 2.656800
8.598000 2.947000
8.635200 3.445700
8.672300 3.715800
8.709500 3.485300
8.746700 3.125500
8.783800 2.836100
8.821000 2.724000
8.858200 3.469900
8.895300 4.473200
8.932500 4.786100
8.969600 4.539900
9.006800 4.479900
9.044000 5.019900
9.081100 5.620300
9.118300 5.721700
9.155500 5.084600
9.192600 4.333400
9.229800 4.941300
9.267000 6.016800
9.304100 5.499100
9.341300 4.797800
9.378500 5.190600
9.415600 5.580900
9.452800 5.391600
9.490000 4.739100
9.527100 4.249700
9.564300 4.069900
9.601500 3.983400
9.638600 3.711300
9.675800 3.041100
9.713000 2.202300
9.750100 2.034300
9.787300 2.616200
9.824500 2.606000
9.861600 1.914800
9.898800 1.688200
9.936000 1.832000
9.973100 1.892900
10.010300 1.588700
10.047500 1.302500
10.084600 1.641400
10.121800 2.577600
10.158900 2.798600
10.196100 1.852300
10.233300 0.827500
10.270400 0.554400
10.307600 0.982800
10.344800 1.749400
10.381900 1.919000
10.419100 1.290200
10.456300 0.951100
10.493400 1.016300
10.530600 1.072800
10.567800 1.078700
10.604900 0.945300
10.642100 0.875800
10.679300 1.008600
10.716400 1.309800
10.753600 1.761400
10.790800 2.254700
10.827900 2.141200
10.865100 1.401600
10.902300 0.858600
10.939400 0.669000
10.976600 0.634800
11.013800 0.648000
11.050900 0.705800
11.088100 0.936100
11.125300 1.410500
11.162400 1.389900
11.199600 0.977400
11.236800 0.918600
11.273900 1.212900
11.311100 1.576400
11.348200 1.683400
11.385400 1.310900
11.422600 1.025700
11.459700 1.028800
11.496900 0.990100
11.534100 1.111200
11.571200 1.508100
11.608400 1.905800
11.645600 1.625700
11.682700 1.067800
11.719900 0.969000
11.757100 1.084600
11.794200 1.161800
11.831400 1.416400
11.868600 1.698000
11.905700 1.710000
11.942900 1.429900
11.980100 1.229300
12.017200 1.267500
12.054400 1.084500
12.091600 0.787600
12.128700 1.067300
12.165900 1.514300
12.203100 1.339500
12.240200 1.515700
12.277400 1.934400
12.314600 1.367000
12.351700 0.581800
12.388900 0.420000
12.426100 0.432100
12.463200 0.366000
12.500400 0.546000
12.537500 0.897700
12.574700 1.044800
12.611900 0.999200
12.649000 0.900400
12.686200 0.657700
12.723400 0.415500
12.760500 0.523300
12.797700 0.792700
12.834900 0.846300
12.872000 0.780800
12.909200 0.828200
12.946400 0.694300
12.983500 0.432100
13.020700 0.320200
13.057900 0.490700
13.095000 0.732600
13.132200 0.765000
13.169400 0.582200
13.206500 0.437400
13.243700 0.567100
13.280900 1.033600
13.318000 1.422300
13.355200 1.419900
13.392400 1.240900
13.429500 0.995900
13.466700 1.004500
13.503900 1.318100
13.541000 1.623300
13.578200 1.649300
13.615300 1.357400
13.652500 1.057100
13.689700 1.127400
13.726800 1.310000
13.764000 1.179800
13.801200 1.130600
13.838300 1.350600
13.875500 1.673300
13.912700 1.702700
13.949800 1.470500
13.987000 1.351000
14.024200 1.117700
14.061300 1.191100
14.098500 1.379400
14.135700 1.206800
14.172800 1.088200
14.210000 1.436400
14.247200 2.105900
14.284300 2.340300
14.321500 2.045300
14.358700 1.588300
14.395800 1.349600
14.433000 1.435600
14.470200 1.738000
14.507300 1.865400
14.544500 1.386700
14.581700 0.923900
14.618800 0.822500
14.656000 0.952800
14.693200 1.244900
14.730300 1.765000
14.767500 2.098200
14.804600 2.142200
14.841800 2.016600
14.879000 1.807300
14.916100 1.620400
14.953300 1.345300
14.990500 1.153500
15.027600 1.101000
15.064800 1.085200
15.102000 1.290000
15.139100 1.433600
15.176300 1.417400
15.213500 1.343800
15.250600 1.436400
15.287800 1.435700
15.325000 1.058100
15.362100 1.010000
15.399300 1.366700
15.436500 1.491000
15.473600 1.326100
15.510800 1.286200
15.548000 1.222500
15.585100 1.162800
15.622300 1.259800
15.659500 1.357900
15.696600 1.584500
15.733800 1.799500
15.771000 1.878900
15.808100 1.766000
15.845300 1.602000
15.882500 1.221100
15.919600 0.684300
15.956800 0.673000
15.993900 1.130000
16.031100 1.486600
16.068300 1.496800
16.105400 1.684800
16.142600 1.851600
16.179800 1.604200
16.216900 1.213800
16.254100 1.138100
16.291300 1.640000
16.328400 2.243000
16.365600 1.926200
16.402800 1.031000
16.439900 0.451300
16.477100 0.367100
16.514300 0.454400
16.551400 0.737600
16.588600 1.315700
16.625800 1.664300
16.662900 1.601000
16.700100 1.337600
16.737300 1.097900
16.774400 1.133400
16.811600 1.207400
16.848800 1.068200
16.885900 0.893500
16.923100 1.004000
16.960300 1.357400
16.997400 1.625000
17.034600 1.534000
17.071800 1.517300
17.108900 1.597100
17.146100 1.430600
17.183200 1.087100
17.220400 0.792500
17.257600 0.790100
17.294700 1.207500
17.331900 1.498700
17.369100 1.277600
17.406200 1.115800
17.443400 1.027600
17.480600 0.764100
17.517700 0.715000
17.554900 0.974300
17.592100 1.412800
17.629200 1.891800
17.666400 2.030600
17.703600 1.963900
17.740700 1.617100
17.777900 1.220300
17.815100 1.022000
17.852200 0.919600
17.889400 0.871600
17.926600 0.810400
17.963700 0.766400
18.000900 0.807200
18.038100 1.194000
18.075200 1.703600
18.112400 1.722200
18.149600 1.537700
18.186700 1.349400
18.223900 1.140200
18.261100 1.052300
18.298200 1.148400
18.335400 1.096500
18.372500 1.025500
18.409700 1.278000
18.446900 1.399900
18.484000 1.247100
18.521200 1.250600
18.558400 1.411400
18.595500 1.507700
18.632700 1.754900
18.669900 1.923600
18.707000 2.059700
18.744200 2.096400
18.781400 1.768200
18.818500 1.156800
18.855700 0.780400
18.892900 0.862300
18.930000 1.334400
18.967200 1.914600
19.004400 2.093100
19.041500 1.602700
19.078700 1.288100
19.115900 1.599600
19.153000 1.981100
19.190200 1.907400
19.227400 1.599700
19.264500 1.442500
19.301700 1.465700
19.338900 1.652300
19.376000 2.042400
19.413200 2.414800
19.450300 2.228400
19.487500 1.578600
19.524700 1.256800
19.561800 1.551200
19.599000 1.946400
19.636200 1.825100
19.673300 1.670300
19.710500 1.635400
19.747700 1.539000
19.784800 1.515700
19.822000 1.432400
19.859200 1.313400
19.896300 1.407000
19.933500 1.654100
19.970700 1.957500
20.007800 2.185900
20.045000 1.864700
20.082200 1.454400
20.119300 1.368500
20.156500 1.297200
20.193700 1.394500
20.230800 1.729900
20.268000 1.981800
20.305200 1.860000
20.342300 1.507300
20.379500 1.595500
20.416700 1.912400
20.453800 2.276300
20.491000 2.521500
20.528200 2.071600
20.565300 1.392800
20.602500 1.480800
20.639600 2.336400
20.676800 3.254400
20.714000 3.318700
20.751100 2.749500
20.788300 2.057500
20.825500 1.534800
20.862600 1.598900
20.899800 1.964000
20.937000 1.938100
20.974100 1.927400
21.011300 1.738300
21.048500 1.429900
21.085600 1.585600
21.122800 1.811300
21.160000 1.756500
21.197100 1.618200
21.234300 1.743900
21.271500 1.917400
21.308600 1.940700
21.345800 2.157300
21.383000 2.199100
21.420100 1.917800
21.457300 2.159700
21.494500 2.390800
21.531600 2.245700
21.568800 2.067300
21.606000 1.856500
21.643100 1.772800
21.680300 1.990800
21.717500 2.477900
21.754600 2.442100
21.791800 2.088100
21.828900 1.868900
21.866100 1.802000
21.903300 2.030900
21.940400 2.228400
21.977600 2.539400
22.014800 3.146200
22.051900 3.308700
22.089100 2.606900
22.126300 1.952900
22.163400 1.947900
22.200600 2.278300
22.237800 2.373400
22.274900 2.373000
22.312100 2.808400
22.349300 3.089900
22.386400 2.995600
22.423600 3.241600
22.460800 3.058400
22.497900 2.562400
22.535100 2.705300
22.572300 3.014200
22.609400 3.337000
22.646600 3.229800
22.683800 2.547400
22.720900 2.503400
22.758100 3.393300
22.795300 4.171500
22.832400 3.929800
22.869600 2.905400
22.906800 1.970100
22.943900 1.747800
22.981100 2.299700
23.018200 2.825800
23.055400 2.797300
23.092600 2.774600
23.129700 2.957000
23.166900 3.009600
23.204100 2.773300
23.241200 2.743200
23.278400 2.980900
23.315600 2.816100
23.352700 2.315500
23.389900 2.019000
23.427100 2.108700
23.464200 2.272300
23.501400 2.362400
23.538600 2.511100
23.575700 2.655700
23.612900 2.823800
23.650100 3.126600
23.687200 3.257000
23.724400 3.521600
23.761600 4.274200
23.798700 4.155200
23.835900 2.991300
23.873100 2.481600
23.910200 2.621300
23.947400 2.532400
23.984600 2.583900
24.021700 2.639900
24.058900 2.590000
24.096100 2.625300
24.133200 2.515300
24.170400 2.421100
24.207500 2.741600
24.244700 3.174700
24.281900 3.174900
24.319000 2.880600
24.356200 2.887300
24.393400 2.855200
24.430500 2.545700
24.467700 2.013000
24.504900 1.714500
24.542000 1.928100
24.579200 2.290400
24.616400 2.664000
24.653500 3.356600
24.690700 3.969700
24.727900 3.906000
24.765000 3.541300
24.802200 3.392600
24.839400 3.205100
24.876500 2.530300
24.913700 2.071800
24.950900 2.288900
24.988000 2.776600
25.025200 2.854500
25.062400 2.532500
25.099500 2.107400
25.136700 1.626700
25.173900 1.821000
25.211000 2.395900
25.248200 2.502300
25.285300 2.347700
25.322500 1.847100
25.359700 1.477700
25.396800 1.234100
25.434000 0.989500
25.471200 0.977400
25.508300 1.110700
25.545500 1.228500
25.582700 1.199500
25.619800 1.355600
25.657000 1.614500
25.694200 1.867800
25.731300 2.186800
25.768500 2.198300
25.805700 1.867900
25.842800 1.563200
25.880000 1.427200
25.917200 1.301400
25.954300 1.152900
25.991500 1.126500
26.028700 0.964600
26.065800 0.918100
26.103000 1.298100
26.140200 1.539400
26.177300 1.384700
26.214500 1.333300
26.251700 1.430100
26.288800 1.827100
26.326000 2.199200
26.363200 2.149400
26.400300 1.860600
26.437500 1.690400
26.474600 1.782400
26.511800 1.796100
26.549000 1.406800
26.586100 1.165500
26.623300 1.473600
26.660500 2.144800
26.697600 2.571200
26.734800 2.305900
26.772000 1.893000
26.809100 1.844900
26.846300 2.121200
26.883500 2.351100
26.920600 2.088700
26.957800 1.507200
26.995000 1.358200
27.032100 1.463100
27.069300 1.338900
27.106500 1.216700
27.143600 1.581000
27.180800 2.478200
27.218000 3.129800
27.255100 3.307500
27.292300 3.428900
27.329500 3.312600
27.366600 2.795100
27.403800 2.611400
27.441000 3.266400
27.478100 3.959000
27.515300 3.570200
27.552500 2.585700
27.589600 2.655900
27.626800 3.127700
27.663900 3.160800
27.701100 3.208600
27.738300 3.384600
27.775400 3.110400
27.812600 2.735900
27.849800 3.008700
27.886900 3.570800
27.924100 4.041400
27.961300 3.818000
27.998400 2.989300
28.035600 2.614200
28.072800 2.992900
28.109900 3.451000
28.147100 3.816500
28.184300 3.582700
28.221400 2.732100
28.258600 2.438200
28.295800 2.126300
28.332900 1.858800
28.370100 2.213100
28.407300 2.704900
28.444400 2.828300
28.481600 2.807800
28.518800 2.786300
28.555900 2.568300
28.593100 2.781700
28.630300 3.472000
28.667400 3.827100
28.704600 3.108300
28.741800 2.087000
28.778900 1.532600
28.816100 1.759200
28.853200 2.417000
28.890400 2.647600
28.927600 2.601400
28.964700 2.734100
29.001900 3.028400
29.039100 2.688500
29.076200 1.981100
29.113400 2.052200
29.150600 2.355100
29.187700 2.397000
29.224900 2.401500
29.262100 2.279000
29.299200 2.302900
29.336400 2.137100
29.373600 1.836300
29.410700 1.650500
29.447900 1.394400
29.485100 1.390200
29.522200 1.748800
29.559400 1.935200
29.596600 2.071500
29.633700 2.277400
29.670900 1.945700
29.708100 1.440000
29.745200 1.303700
29.782400 1.628100
29.819600 2.229600
29.856700 2.368200
29.893900 2.062300
29.931000 1.869400
29.968200 1.733200
30.005400 1.550700
30.042500 1.379200
30.079700 1.351200
30.116900 1.449600
30.154000 1.371700
30.191200 0.929100
30.228400 0.498700
30.265500 0.341400
30.302700 0.392800
30.339900 0.792000
30.377000 1.422600
30.414200 1.515200
30.451400 1.032400
30.488500 0.855000
30.525700 1.061700
30.562900 1.188000
30.600000 1.242800
30.637200 1.533100
30.674400 1.828200
30.711500 1.976300
30.748700 2.041400
30.785900 2.012500
30.823000 1.699700
30.860200 1.309600
30.897400 1.113000
30.934500 1.000600
30.971700 1.042900
31.008900 1.389300
31.046000 1.858500
31.083200 2.118700
31.120300 2.366600
31.157500 2.499600
31.194700 2.136100
31.231800 1.772100
31.269000 1.843400
31.306200 2.195400
31.343300 2.192200
31.380500 1.804800
31.417700 1.674900
31.454800 1.606200
31.492000 1.498900
31.529200 1.722700
31.566300 2.060100
31.603500 2.219500
31.640700 2.108200
31.677800 1.674300
31.715000 1.269100
31.752200 1.232600
31.789300 1.798400
31.826500 2.683900
31.863700 2.869500
31.900800 2.613100
31.938000 2.850000
31.975200 2.687100
32.012300 2.004600
32.049500 1.471600
32.086700 1.293600
32.123800 1.571900
32.161000 1.788500
32.198200 1.889600
32.235300 1.919300
32.272500 1.761800
32.309600 1.802100
32.346800 2.140200
32.384000 2.469700
32.421100 2.757700
32.458300 3.215500
32.495500 3.161900
32.532600 2.341700
32.569800 1.920500
32.607000 1.808700
32.644100 1.403800
32.681300 1.570400
32.718500 2.242900
32.755600 2.450400
32.792800 2.321800
32.830000 2.453800
32.867100 2.589500
32.904300 2.223300
32.941500 1.931100
32.978600 1.973400
33.015800 2.135100
33.053000 2.331300
33.090100 2.477700
33.127300 2.570800
33.164500 2.472700
33.201600 2.151200
33.238800 1.816000
33.276000 1.568500
33.313100 1.379000
33.350300 1.552000
33.387500 1.915700
33.424600 2.217500
33.461800 2.371400
33.498900 2.275100
33.536100 2.130000
33.573300 2.436700
33.610400 2.780900
33.647600 2.428300
33.684800 2.348900
33.721900 2.509500
33.759100 2.313900
33.796300 2.257500
33.833400 2.719000
33.870600 2.843400
33.907800 2.166700
33.944900 1.799700
33.982100 2.171700
34.019300 2.863900
34.056400 3.245500
34.093600 2.992400
34.130800 2.580300
34.167900 2.064700
34.205100 1.613900
34.242300 1.665500
34.279400 1.995000
34.316600 2.164000
34.353800 1.967000
34.390900 1.837700
34.428100 2.230800
34.465300 2.603400
34.502400 2.159600
34.539600 1.655900
34.576800 1.810700
34.613900 2.160100
34.651100 2.134000
34.688200 1.933400
34.725400 1.752100
34.762600 1.814200
34.799700 2.010400
34.836900 1.901200
34.874100 1.814800
34.911200 2.044400
34.948400 2.365600
34.985600 2.504500
35.022700 1.839300
35.059900 0.950400
35.097100 0.747800
35.134200 1.037400
35.171400 1.398500
35.208600 1.683800
35.245700 1.628800
35.282900 1.269600
35.320100 0.960700
35.357200 0.926400
35.394400 0.816600
35.431600 0.550400
35.468700 0.359000
35.505900 0.201200
35.543100 0.200700
35.580200 0.369900
35.617400 0.482300
35.654600 0.417700
35.691700 0.243700
35.728900 0.128200
35.766000 0.134500
35.803200 0.206600
35.840400 0.299400
35.877500 0.251000
35.914700 0.196600
35.951900 0.204800
35.989000 0.112100
36.026200 0.024000
36.063400 0.007100
36.100500 0.026800
36.137700 0.049600
36.174900 0.033600
36.212000 0.008300
36.249200 0.000900
36.286400 0.003400
36.323500 0.027800
36.360700 0.083800
36.397900 0.091800
36.435000 0.036700
36.472200 0.005300
36.509400 0.000300
36.546500 0.000000
36.583700 0.000000
36.620900 0.000000
36.658000 0.000000
36.695200 0.000000
36.732400 0.000000
36.769500 0.000000
36.806700 0.000000
36.843900 0.000000
36.881000 0.000000
36.918200 0.000000
36.955300 0.000000
36.992500 0.000000
37.029700 0.000000
37.066800 0.000000
37.104000 0.000000
37.141200 0.000000
37.178300 0.000000
37.215500 0.000000
37.252700 0.000000
37.289800 0.000000
37.327000 0.000000
37.364200 0.000000
37.401300 0.000000
37.438500 0.000000
37.475700 0.000000
37.512800 0.000000
37.550000 0.000000
37.587200 0.000000
37.624300 0.000000
37.661500 0.000000
37.698700 0.000000
37.735800 0.000000
37.773000 0.000000
37.810200 0.000000
37.847300 0.000000
37.884500 0.000000
37.921700 0.000000
37.958800 0.000000
37.996000 0.000000
38.033200 0.000000
38.070300 0.000000
38.107500 0.000000
38.144600 0.000000
38.181800 0.000000
38.219000 0.000000
38.256100 0.000000
38.293300 0.000000
38.330500 0.000000
38.367600 0.000000
38.404800 0.000000
38.442000 0.000000
38.479100 0.000000
38.516300 0.000000
38.553500 0.000000
38.590600 0.000000
38.627800 0.000000
38.665000 0.000000
38.702100 0.000000
38.739300 0.000000
38.776500 0.000000
38.813600 0.000000
38.850800 0.000000
38.888000 0.000000
38.925100 0.000000
38.962300 0.000000
38.999500 0.000000
39.036600 0.000000
39.073800 0.000000
39.111000 0.000000
39.148100 0.000000
39.185300 0.000000
39.222500 0.000000
39.259600 0.000000
39.296800 0.000000
39.333900 0.000000
39.371100 0.000000
39.408300 0.000000
39.445400 0.000000
39.482600 0.000000
39.519800 0.000000
39.556900 0.000000
39.594100 0.000000
39.631300 0.000000
39.668400 0.000000
39.705600 0.000000
39.742800 0.000000
e
