set title 'mp-976971 - Density of States'
set xlabel 'Energy (eV)'
set ylabel 'DOS (states/eV)'
set grid
set xrange [-10:10]
set yrange [0:6.956]
set xzeroaxis lt -1
set terminal png size 800,600
set output 'mp-976971_dos_gnuplot.png'
plot '-' using 1:2 with lines title 'DOS'
-21.673400 0.000000
-21.647200 0.000000
-21.621100 0.000000
-21.594900 0.000000
-21.568700 0.000000
-21.542600 0.000000
-21.516400 0.000000
-21.490200 0.000000
-21.464100 0.000000
-21.437900 0.000000
-21.411700 0.000000
-21.385600 0.000000
-21.359400 0.000000
-21.333200 0.000000
-21.307100 0.000000
-21.280900 0.000000
-21.254700 0.000000
-21.228600 0.000000
-21.202400 0.000000
-21.176200 0.000000
-21.150000 0.000000
-21.123900 0.000000
-21.097700 0.000000
-21.071500 0.000000
-21.045400 0.000000
-21.019200 0.000000
-20.993000 0.000000
-20.966900 0.000000
-20.940700 0.000000
-20.914500 0.000000
-20.888400 0.000000
-20.862200 0.000000
-20.836000 0.000000
-20.809900 0.000000
-20.783700 0.000000
-20.757500 0.000000
-20.731400 0.000000
-20.705200 0.000000
-20.679000 0.000000
-20.652900 0.000000
-20.626700 0.000000
-20.600500 0.000000
-20.574400 0.000000
-20.548200 0.000000
-20.522000 0.000000
-20.495800 0.000000
-20.469700 0.000000
-20.443500 0.000000
-20.417300 0.000000
-20.391200 0.000000
-20.365000 0.000000
-20.338800 0.000000
-20.312700 0.000000
-20.286500 0.000000
-20.260300 0.000000
-20.234200 0.000000
-20.208000 0.000000
-20.181800 0.000000
-20.155700 0.000000
-20.129500 0.000000
-20.103300 0.000000
-20.077200 0.000000
-20.051000 0.000000
-20.024800 0.000000
-19.998700 0.000000
-19.972500 0.000000
-19.946300 0.000000
-19.920200 0.000000
-19.894000 0.000000
-19.867800 0.000000
-19.841600 0.000000
-19.815500 0.000000
-19.789300 0.000000
-19.763100 0.000000
-19.737000 0.000000
-19.710800 0.000000
-19.684600 0.000000
-19.658500 0.000000
-19.632300 0.000000
-19.606100 0.000000
-19.580000 0.000000
-19.553800 0.000000
-19.527600 0.000000
-19.501500 0.000000
-19.475300 0.000000
-19.449100 0.000300
-19.423000 0.006900
-19.396800 0.103000
-19.370600 0.913500
-19.344500 4.821500
-19.318300 15.179300
-19.292100 28.561500
-19.266000 32.163000
-19.239800 21.689400
-19.213600 8.757500
-19.187500 2.115300
-19.161300 0.305200
-19.135100 0.026200
-19.108900 0.001300
-19.082800 0.000000
-19.056600 0.000000
-19.030400 0.000000
-19.004300 0.000000
-18.978100 0.000000
-18.951900 0.000000
-18.925800 0.000000
-18.899600 0.000000
-18.873400 0.000000
-18.847300 0.000000
-18.821100 0.000000
-18.794900 0.000000
-18.768800 0.000000
-18.742600 0.000000
-18.716400 0.000000
-18.690300 0.000000
-18.664100 0.000000
-18.637900 0.000000
-18.611800 0.000000
-18.585600 0.000000
-18.559400 0.000000
-18.533300 0.000000
-18.507100 0.000000
-18.480900 0.000000
-18.454700 0.000000
-18.428600 0.000000
-18.402400 0.000000
-18.376200 0.000000
-18.350100 0.000000
-18.323900 0.000000
-18.297700 0.000000
-18.271600 0.000000
-18.245400 0.000000
-18.219200 0.000000
-18.193100 0.000000
-18.166900 0.000000
-18.140700 0.000000
-18.114600 0.000000
-18.088400 0.000000
-18.062200 0.000000
-18.036100 0.000000
-18.009900 0.000000
-17.983700 0.000000
-17.957600 0.000000
-17.931400 0.000000
-17.905200 0.000000
-17.879100 0.000000
-17.852900 0.000000
-17.826700 0.000000
-17.800500 0.000000
-17.774400 0.000000
-17.748200 0.000000
-17.722000 0.000000
-17.695900 0.000000
-17.669700 0.000000
-17.643500 0.000000
-17.617400 0.000000
-17.591200 0.000000
-17.565000 0.000000
-17.538900 0.000000
-17.512700 0.000000
-17.486500 0.000000
-17.460400 0.000000
-17.434200 0.000000
-17.408000 0.000000
-17.381900 0.000000
-17.355700 0.000000
-17.329500 0.000000
-17.303400 0.000000
-17.277200 0.000000
-17.251000 0.000000
-17.224900 0.000000
-17.198700 0.000000
-17.172500 0.000000
-17.146400 0.000000
-17.120200 0.000000
-17.094000 0.000000
-17.067800 0.000000
-17.041700 0.000000
-17.015500 0.000000
-16.989300 0.000000
-16.963200 0.000000
-16.937000 0.000000
-16.910800 0.000000
-16.884700 0.000000
-16.858500 0.000000
-16.832300 0.000000
-16.806200 0.000000
-16.780000 0.000000
-16.753800 0.000000
-16.727700 0.000000
-16.701500 0.000000
-16.675300 0.000000
-16.649200 0.000000
-16.623000 0.000000
-16.596800 0.000000
-16.570700 0.000000
-16.544500 0.000000
-16.518300 0.000000
-16.492200 0.000000
-16.466000 0.000000
-16.439800 0.000000
-16.413600 0.000000
-16.387500 0.000000
-16.361300 0.000000
-16.335100 0.000000
-16.309000 0.000000
-16.282800 0.000000
-16.256600 0.000000
-16.230500 0.000000
-16.204300 0.000000
-16.178100 0.000000
-16.152000 0.000000
-16.125800 0.000000
-16.099600 0.000000
-16.073500 0.000000
-16.047300 0.000000
-16.021100 0.000000
-15.995000 0.000000
-15.968800 0.000000
-15.942600 0.000000
-15.916500 0.000000
-15.890300 0.000000
-15.864100 0.000000
-15.838000 0.000000
-15.811800 0.000000
-15.785600 0.000000
-15.759400 0.000000
-15.733300 0.000000
-15.707100 0.000000
-15.680900 0.000000
-15.654800 0.000000
-15.628600 0.000000
-15.602400 0.000000
-15.576300 0.000000
-15.550100 0.000000
-15.523900 0.000000
-15.497800 0.000000
-15.471600 0.000000
-15.445400 0.000000
-15.419300 0.000000
-15.393100 0.000000
-15.366900 0.000000
-15.340800 0.000000
-15.314600 0.000000
-15.288400 0.000000
-15.262300 0.000000
-15.236100 0.000000
-15.209900 0.000000
-15.183800 0.000000
-15.157600 0.000000
-15.131400 0.000000
-15.105200 0.000000
-15.079100 0.000000
-15.052900 0.000000
-15.026700 0.000000
-15.000600 0.000000
-14.974400 0.000000
-14.948200 0.000000
-14.922100 0.000000
-14.895900 0.000000
-14.869700 0.000000
-14.843600 0.000000
-14.817400 0.000000
-14.791200 0.000000
-14.765100 0.000000
-14.738900 0.000000
-14.712700 0.000000
-14.686600 0.000000
-14.660400 0.000000
-14.634200 0.000000
-14.608100 0.000000
-14.581900 0.000000
-14.555700 0.000000
-14.529600 0.000000
-14.503400 0.000000
-14.477200 0.000000
-14.451100 0.000000
-14.424900 0.000000
-14.398700 0.000000
-14.372500 0.000000
-14.346400 0.000000
-14.320200 0.000000
-14.294000 0.000000
-14.267900 0.000000
-14.241700 0.000000
-14.215500 0.000000
-14.189400 0.000000
-14.163200 0.000000
-14.137000 0.000000
-14.110900 0.000000
-14.084700 0.000000
-14.058500 0.000000
-14.032400 0.000000
-14.006200 0.000000
-13.980000 0.000000
-13.953900 0.000000
-13.927700 0.000000
-13.901500 0.000000
-13.875400 0.000000
-13.849200 0.000000
-13.823000 0.000000
-13.796900 0.000000
-13.770700 0.000000
-13.744500 0.000000
-13.718300 0.000000
-13.692200 0.000000
-13.666000 0.000000
-13.639800 0.000000
-13.613700 0.000000
-13.587500 0.000000
-13.561300 0.000000
-13.535200 0.000000
-13.509000 0.000000
-13.482800 0.000000
-13.456700 0.000000
-13.430500 0.000000
-13.404300 0.000000
-13.378200 0.000000
-13.352000 0.000000
-13.325800 0.000000
-13.299700 0.000000
-13.273500 0.000000
-13.247300 0.000000
-13.221200 0.000000
-13.195000 0.000000
-13.168800 0.000000
-13.142700 0.000000
-13.116500 0.000000
-13.090300 0.000000
-13.064100 0.000000
-13.038000 0.000000
-13.011800 0.000000
-12.985600 0.000000
-12.959500 0.000000
-12.933300 0.000000
-12.907100 0.000000
-12.881000 0.000000
-12.854800 0.000000
-12.828600 0.000000
-12.802500 0.000000
-12.776300 0.000000
-12.750100 0.000000
-12.724000 0.000000
-12.697800 0.000000
-12.671600 0.000000
-12.645500 0.000000
-12.619300 0.000000
-12.593100 0.000000
-12.567000 0.000000
-12.540800 0.000000
-12.514600 0.000000
-12.488500 0.000000
-12.462300 0.000000
-12.436100 0.000000
-12.410000 0.000000
-12.383800 0.000000
-12.357600 0.000000
-12.331400 0.000000
-12.305300 0.000000
-12.279100 0.000000
-12.252900 0.000000
-12.226800 0.000000
-12.200600 0.000000
-12.174400 0.000000
-12.148300 0.000000
-12.122100 0.000000
-12.095900 0.000000
-12.069800 0.000000
-12.043600 0.000000
-12.017400 0.000000
-11.991300 0.000000
-11.965100 0.000000
-11.938900 0.000000
-11.912800 0.000000
-11.886600 0.000000
-11.860400 0.000000
-11.834300 0.000000
-11.808100 0.000000
-11.781900 0.000000
-11.755800 0.000000
-11.729600 0.000000
-11.703400 0.000000
-11.677200 0.000000
-11.651100 0.000000
-11.624900 0.000000
-11.598700 0.000000
-11.572600 0.000000
-11.546400 0.000000
-11.520200 0.000000
-11.494100 0.000000
-11.467900 0.000000
-11.441700 0.000000
-11.415600 0.000000
-11.389400 0.000000
-11.363200 0.000000
-11.337100 0.000000
-11.310900 0.000000
-11.284700 0.000000
-11.258600 0.000000
-11.232400 0.000000
-11.206200 0.000000
-11.180100 0.000000
-11.153900 0.000000
-11.127700 0.000000
-11.101600 0.000000
-11.075400 0.000000
-11.049200 0.000000
-11.023000 0.000000
-10.996900 0.000000
-10.970700 0.000000
-10.944500 0.000000
-10.918400 0.000000
-10.892200 0.000000
-10.866000 0.000000
-10.839900 0.000000
-10.813700 0.000000
-10.787500 0.000000
-10.761400 0.000000
-10.735200 0.000000
-10.709000 0.000000
-10.682900 0.000000
-10.656700 0.000000
-10.630500 0.000000
-10.604400 0.000000
-10.578200 0.000000
-10.552000 0.000000
-10.525900 0.000000
-10.499700 0.000000
-10.473500 0.000000
-10.447400 0.000000
-10.421200 0.000000
-10.395000 0.000000
-10.368800 0.000000
-10.342700 0.000000
-10.316500 0.000000
-10.290300 0.000000
-10.264200 0.000000
-10.238000 0.000000
-10.211800 0.000000
-10.185700 0.000000
-10.159500 0.000000
-10.133300 0.000000
-10.107200 0.000000
-10.081000 0.000000
-10.054800 0.000000
-10.028700 0.000000
-10.002500 0.000000
-9.976300 0.000000
-9.950200 0.000000
-9.924000 0.000000
-9.897800 0.000000
-9.871700 0.000000
-9.845500 0.000000
-9.819300 0.000000
-9.793200 0.000000
-9.767000 0.000000
-9.740800 0.000000
-9.714700 0.000000
-9.688500 0.000000
-9.662300 0.000000
-9.636100 0.000000
-9.610000 0.000000
-9.583800 0.000000
-9.557600 0.000000
-9.531500 0.000000
-9.505300 0.000000
-9.479100 0.000000
-9.453000 0.000000
-9.426800 0.000000
-9.400600 0.000000
-9.374500 0.000000
-9.348300 0.000000
-9.322100 0.000000
-9.296000 0.000000
-9.269800 0.000000
-9.243600 0.000000
-9.217500 0.000000
-9.191300 0.000000
-9.165100 0.000000
-9.139000 0.000000
-9.112800 0.000000
-9.086600 0.000000
-9.060500 0.000000
-9.034300 0.000000
-9.008100 0.000000
-8.981900 0.000000
-8.955800 0.000000
-8.929600 0.000000
-8.903400 0.000000
-8.877300 0.000000
-8.851100 0.000000
-8.824900 0.000000
-8.798800 0.000000
-8.772600 0.000000
-8.746400 0.000000
-8.720300 0.000000
-8.694100 0.000000
-8.667900 0.000000
-8.641800 0.000000
-8.615600 0.000000
-8.589400 0.000000
-8.563300 0.000000
-8.537100 0.000000
-8.510900 0.000000
-8.484800 0.000000
-8.458600 0.000000
-8.432400 0.000000
-8.406300 0.000000
-8.380100 0.000000
-8.353900 0.000000
-8.327700 0.000000
-8.301600 0.000000
-8.275400 0.000000
-8.249200 0.000000
-8.223100 0.000000
-8.196900 0.000000
-8.170700 0.000000
-8.144600 0.000000
-8.118400 0.000000
-8.092200 0.000000
-8.066100 0.000000
-8.039900 0.000000
-8.013700 0.000000
-7.987600 0.000000
-7.961400 0.000000
-7.935200 0.000000
-7.909100 0.000000
-7.882900 0.000000
-7.856700 0.000000
-7.830600 0.000000
-7.804400 0.000000
-7.778200 0.000000
-7.752100 0.000000
-7.725900 0.000000
-7.699700 0.000000
-7.673500 0.000000
-7.647400 0.000000
-7.621200 0.000000
-7.595000 0.000000
-7.568900 0.000000
-7.542700 0.000000
-7.516500 0.000000
-7.490400 0.000000
-7.464200 0.000000
-7.438000 0.000000
-7.411900 0.000000
-7.385700 0.000000
-7.359500 0.000000
-7.333400 0.000000
-7.307200 0.000000
-7.281000 0.000000
-7.254900 0.000000
-7.228700 0.000000
-7.202500 0.000000
-7.176400 0.000000
-7.150200 0.000000
-7.124000 0.000000
-7.097900 0.000000
-7.071700 0.000000
-7.045500 0.000000
-7.019400 0.000000
-6.993200 0.000000
-6.967000 0.000000
-6.940800 0.000000
-6.914700 0.000000
-6.888500 0.000000
-6.862300 0.000000
-6.836200 0.000000
-6.810000 0.000000
-6.783800 0.000000
-6.757700 0.000000
-6.731500 0.000000
-6.705300 0.000000
-6.679200 0.000000
-6.653000 0.000000
-6.626800 0.000000
-6.600700 0.000000
-6.574500 0.000000
-6.548300 0.000000
-6.522200 0.000000
-6.496000 0.000000
-6.469800 0.000000
-6.443700 0.000000
-6.417500 0.000000
-6.391300 0.000000
-6.365200 0.000000
-6.339000 0.000000
-6.312800 0.000000
-6.286600 0.000000
-6.260500 0.000000
-6.234300 0.000000
-6.208100 0.000000
-6.182000 0.000000
-6.155800 0.000000
-6.129600 0.000000
-6.103500 0.000000
-6.077300 0.000000
-6.051100 0.000000
-6.025000 0.000000
-5.998800 0.000000
-5.972600 0.000000
-5.946500 0.000000
-5.920300 0.000000
-5.894100 0.000000
-5.868000 0.000000
-5.841800 0.000000
-5.815600 0.000000
-5.789500 0.000000
-5.763300 0.000000
-5.737100 0.000000
-5.711000 0.000000
-5.684800 0.000000
-5.658600 0.000000
-5.632400 0.000000
-5.606300 0.000000
-5.580100 0.000000
-5.553900 0.000000
-5.527800 0.000000
-5.501600 0.000000
-5.475400 0.000000
-5.449300 0.000000
-5.423100 0.000000
-5.396900 0.000000
-5.370800 0.000000
-5.344600 0.000000
-5.318400 0.000000
-5.292300 0.000000
-5.266100 0.000000
-5.239900 0.000000
-5.213800 0.000000
-5.187600 0.000000
-5.161400 0.000000
-5.135300 0.000000
-5.109100 0.000000
-5.082900 0.000000
-5.056800 0.000000
-5.030600 0.000000
-5.004400 0.000000
-4.978300 0.000000
-4.952100 0.000000
-4.925900 0.000000
-4.899700 0.000000
-4.873600 0.000000
-4.847400 0.000000
-4.821200 0.000000
-4.795100 0.000000
-4.768900 0.000000
-4.742700 0.000000
-4.716600 0.000000
-4.690400 0.000000
-4.664200 0.000000
-4.638100 0.000000
-4.611900 0.000000
-4.585700 0.000000
-4.559600 0.000000
-4.533400 0.000000
-4.507200 0.000000
-4.481100 0.000000
-4.454900 0.000000
-4.428700 0.000000
-4.402600 0.000000
-4.376400 0.000000
-4.350200 0.000000
-4.324100 0.000000
-4.297900 0.000000
-4.271700 0.000000
-4.245500 0.000000
-4.219400 0.000000
-4.193200 0.000000
-4.167000 0.000000
-4.140900 0.000000
-4.114700 0.000000
-4.088500 0.000000
-4.062400 0.000000
-4.036200 0.000000
-4.010000 0.000000
-3.983900 0.000000
-3.957700 0.000000
-3.931500 0.000000
-3.905400 0.000000
-3.879200 0.000000
-3.853000 0.000000
-3.826900 0.000000
-3.800700 0.000000
-3.774500 0.000000
-3.748400 0.000000
-3.722200 0.000000
-3.696000 0.000000
-3.669900 0.000000
-3.643700 0.000000
-3.617500 0.000000
-3.591300 0.000000
-3.565200 0.000000
-3.539000 0.000000
-3.512800 0.000000
-3.486700 0.000000
-3.460500 0.000000
-3.434300 0.000000
-3.408200 0.000000
-3.382000 0.000000
-3.355800 0.000000
-3.329700 0.000000
-3.303500 0.000000
-3.277300 0.000000
-3.251200 0.000000
-3.225000 0.000000
-3.198800 0.000000
-3.172700 0.000000
-3.146500 0.000000
-3.120300 0.000000
-3.094200 0.000000
-3.068000 0.000000
-3.041800 0.000000
-3.015700 0.000000
-2.989500 0.000000
-2.963300 0.000000
-2.937100 0.000000
-2.911000 0.000000
-2.884800 0.000000
-2.858600 0.000000
-2.832500 0.000000
-2.806300 0.000000
-2.780100 0.000000
-2.754000 0.000000
-2.727800 0.000000
-2.701600 0.000000
-2.675500 0.000000
-2.649300 0.000000
-2.623100 0.000000
-2.597000 0.000000
-2.570800 0.000000
-2.544600 0.000000
-2.518500 0.000000
-2.492300 0.000000
-2.466100 0.000000
-2.440000 0.000000
-2.413800 0.000000
-2.387600 0.000000
-2.361500 0.000000
-2.335300 0.000000
-2.309100 0.000000
-2.283000 0.000000
-2.256800 0.000000
-2.230600 0.000000
-2.204400 0.000000
-2.178300 0.000000
-2.152100 0.000000
-2.125900 0.000000
-2.099800 0.000000
-2.073600 0.000000
-2.047400 0.000400
-2.021300 0.002200
-1.995100 0.006900
-1.968900 0.014500
-1.942800 0.022800
-1.916600 0.032200
-1.890400 0.045800
-1.864300 0.070700
-1.838100 0.102300
-1.811900 0.109700
-1.785800 0.078300
-1.759600 0.041000
-1.733400 0.037000
-1.707300 0.076200
-1.681100 0.134200
-1.654900 0.167200
-1.628800 0.161800
-1.602600 0.151800
-1.576400 0.165200
-1.550200 0.177500
-1.524100 0.151800
-1.497900 0.113500
-1.471700 0.110900
-1.445600 0.155000
-1.419400 0.220300
-1.393200 0.261800
-1.367100 0.284800
-1.340900 0.342500
-1.314700 0.425700
-1.288600 0.462500
-1.262400 0.423300
-1.236200 0.388100
-1.210100 0.457300
-1.183900 0.593600
-1.157700 0.661600
-1.131600 0.581400
-1.105400 0.419600
-1.079200 0.354200
-1.053100 0.467600
-1.026900 0.657000
-1.000700 0.850300
-0.974600 1.123600
-0.948400 1.550000
-0.922200 2.108800
-0.896000 2.661000
-0.869900 3.070000
-0.843700 3.423900
-0.817500 3.782300
-0.791400 4.002400
-0.765200 4.077700
-0.739000 4.142600
-0.712900 4.195500
-0.686700 4.210800
-0.660500 4.232600
-0.634400 4.236500
-0.608200 4.353700
-0.582000 4.841200
-0.555900 5.560800
-0.529700 6.006800
-0.503500 5.871400
-0.477400 5.312000
-0.451200 4.780200
-0.425000 4.729200
-0.398900 5.178000
-0.372700 5.709600
-0.346500 6.030000
-0.320400 6.198700
-0.294200 6.323500
-0.268000 6.311300
-0.241900 6.166300
-0.215700 6.027600
-0.189500 5.714300
-0.163300 5.142100
-0.137200 4.774100
-0.111000 4.873900
-0.084800 5.167400
-0.058700 5.446100
-0.032500 5.689600
-0.006300 5.776800
0.019800 5.536200
0.046000 4.915200
0.072200 4.137300
0.098300 3.582500
0.124500 3.377600
0.150700 3.393000
0.176800 3.454800
0.203000 3.401900
0.229200 3.209800
0.255300 2.983600
0.281500 2.878900
0.307700 3.021000
0.333800 3.368000
0.360000 3.778400
0.386200 4.141500
0.412300 4.379600
0.438500 4.405900
0.464700 4.226000
0.490900 3.991400
0.517000 3.851200
0.543200 3.788600
0.569400 3.671200
0.595500 3.477000
0.621700 3.334800
0.647900 3.368900
0.674000 3.515300
0.700200 3.572300
0.726400 3.540400
0.752500 3.624000
0.778700 3.855600
0.804900 4.033500
0.831000 4.015800
0.857200 4.010300
0.883400 4.250500
0.909500 4.543400
0.935700 4.639700
0.961900 4.622500
0.988000 4.635600
1.014200 4.615300
1.040400 4.536600
1.066500 4.530900
1.092700 4.617400
1.118900 4.719700
1.145100 4.847900
1.171200 5.003100
1.197400 5.114500
1.223600 5.104300
1.249700 4.931300
1.275900 4.725700
1.302100 4.717300
1.328200 4.935000
1.354400 5.259600
1.380600 5.615300
1.406700 5.890700
1.432900 5.841600
1.459100 5.401000
1.485200 4.801000
1.511400 4.232800
1.537600 3.862400
1.563700 3.807700
1.589900 3.976900
1.616100 4.336500
1.642200 4.949000
1.668400 5.643200
1.694600 6.064600
1.720700 5.957000
1.746900 5.386900
1.773100 4.722400
1.799300 4.267000
1.825400 4.102100
1.851600 4.110800
1.877800 4.032000
1.903900 3.761900
1.930100 3.478400
1.956300 3.382900
1.982400 3.425900
2.008600 3.374000
2.034800 3.182400
2.060900 3.005000
2.087100 2.972900
2.113300 3.102500
2.139400 3.178900
2.165600 2.978800
2.191800 2.582400
2.217900 2.259300
2.244100 2.193500
2.270300 2.369700
2.296400 2.632800
2.322600 2.807500
2.348800 2.906500
2.374900 3.154700
2.401100 3.638300
2.427300 4.198000
2.453400 4.541800
2.479600 4.391300
2.505800 3.846000
2.532000 3.338700
2.558100 3.104200
2.584300 2.936900
2.610500 2.531100
2.636600 1.913800
2.662800 1.417200
2.689000 1.247900
2.715100 1.278300
2.741300 1.263800
2.767500 1.103600
2.793600 0.908100
2.819800 0.813900
2.846000 0.829300
2.872100 0.882700
2.898300 0.893500
2.924500 0.789800
2.950600 0.595900
2.976800 0.444400
3.003000 0.399700
3.029100 0.407900
3.055300 0.386500
3.081500 0.305700
3.107600 0.220400
3.133800 0.181100
3.160000 0.156500
3.186200 0.129500
3.212300 0.159800
3.238500 0.286400
3.264700 0.450500
3.290800 0.538700
3.317000 0.489600
3.343200 0.370300
3.369300 0.326900
3.395500 0.426900
3.421700 0.587200
3.447800 0.673700
3.474000 0.640700
3.500200 0.576700
3.526300 0.549500
3.552500 0.492300
3.578700 0.397100
3.604800 0.361400
3.631000 0.380700
3.657200 0.376900
3.683300 0.365200
3.709500 0.403800
3.735700 0.462200
3.761800 0.455700
3.788000 0.387800
3.814200 0.366800
3.840400 0.455500
3.866500 0.624400
3.892700 0.793300
3.918900 0.841000
3.945000 0.727900
3.971200 0.569400
3.997400 0.465700
4.023500 0.400200
4.049700 0.361600
4.075900 0.393700
4.102000 0.457600
4.128200 0.427400
4.154400 0.301400
4.180500 0.210200
4.206700 0.224300
4.232900 0.339700
4.259000 0.521700
4.285200 0.657400
4.311400 0.638200
4.337500 0.505100
4.363700 0.375000
4.389900 0.314900
4.416000 0.340900
4.442200 0.434700
4.468400 0.546000
4.494500 0.587700
4.520700 0.517100
4.546900 0.414700
4.573100 0.391600
4.599200 0.454400
4.625400 0.500600
4.651600 0.453100
4.677700 0.354400
4.703900 0.317600
4.730100 0.396000
4.756200 0.503900
4.782400 0.505800
4.808600 0.385700
4.834700 0.277300
4.860900 0.289200
4.887100 0.389700
4.913200 0.491400
4.939400 0.550500
4.965600 0.558700
4.991700 0.516000
5.017900 0.452300
5.044100 0.404600
5.070200 0.388000
5.096400 0.388200
5.122600 0.381000
5.148700 0.369600
5.174900 0.374500
5.201100 0.413700
5.227300 0.472500
5.253400 0.514300
5.279600 0.528500
5.305800 0.514500
5.331900 0.467300
5.358100 0.409900
5.384300 0.382400
5.410400 0.380900
5.436600 0.380400
5.462800 0.414900
5.488900 0.491800
5.515100 0.538900
5.541300 0.556500
5.567400 0.580300
5.593600 0.592400
5.619800 0.607500
5.645900 0.605800
5.672100 0.512100
5.698300 0.399200
5.724400 0.417300
5.750600 0.536600
5.776800 0.594700
5.802900 0.528800
5.829100 0.419100
5.855300 0.367500
5.881500 0.400700
5.907600 0.458600
5.933800 0.459600
5.960000 0.412200
5.986100 0.417900
6.012300 0.505600
6.038500 0.602500
6.064600 0.670700
6.090800 0.710300
6.117000 0.705200
6.143100 0.637100
6.169300 0.517300
6.195500 0.401200
6.221600 0.374000
6.247800 0.496000
6.274000 0.699700
6.300100 0.817200
6.326300 0.787000
6.352500 0.692800
6.378600 0.641700
6.404800 0.690800
6.431000 0.776600
6.457100 0.780000
6.483300 0.662700
6.509500 0.471700
6.535700 0.281700
6.561800 0.172000
6.588000 0.197400
6.614200 0.339100
6.640300 0.495000
6.666500 0.548600
6.692700 0.481800
6.718800 0.388600
6.745000 0.369500
6.771200 0.504700
6.797300 0.789400
6.823500 1.014600
6.849700 0.962500
6.875800 0.703100
6.902000 0.470600
6.928200 0.376300
6.954300 0.375000
6.980500 0.397700
7.006700 0.443700
7.032800 0.523500
7.059000 0.554000
7.085200 0.474500
7.111300 0.378900
7.137500 0.364800
7.163700 0.411300
7.189800 0.461500
7.216000 0.508000
7.242200 0.557200
7.268400 0.613200
7.294500 0.690500
7.320700 0.765200
7.346900 0.804700
7.373000 0.789300
7.399200 0.722400
7.425400 0.651600
7.451500 0.602400
7.477700 0.563500
7.503900 0.537100
7.530000 0.534200
7.556200 0.536800
7.582400 0.497500
7.608500 0.419000
7.634700 0.366600
7.660900 0.371300
7.687000 0.416000
7.713200 0.495700
7.739400 0.577800
7.765500 0.588100
7.791700 0.512400
7.817900 0.416300
7.844000 0.358900
7.870200 0.347100
7.896400 0.363600
7.922600 0.390400
7.948700 0.404700
7.974900 0.372500
8.001100 0.291000
8.027200 0.229700
8.053400 0.244500
8.079600 0.316200
8.105700 0.381100
8.131900 0.400600
8.158100 0.405300
8.184200 0.401700
8.210400 0.370700
8.236600 0.351700
8.262700 0.361900
8.288900 0.368800
8.315100 0.355900
8.341200 0.332400
8.367400 0.323300
8.393600 0.326500
8.419700 0.286000
8.445900 0.189600
8.472100 0.127400
8.498200 0.175300
8.524400 0.288000
8.550600 0.342500
8.576800 0.305100
8.602900 0.273400
8.629100 0.297300
8.655300 0.327300
8.681400 0.350000
8.707600 0.389500
8.733800 0.427200
8.759900 0.438500
8.786100 0.437200
8.812300 0.460900
8.838400 0.492400
8.864600 0.463100
8.890800 0.392400
8.916900 0.340100
8.943100 0.333100
8.969300 0.399700
8.995400 0.507800
9.021600 0.585200
9.047800 0.596900
9.073900 0.543300
9.100100 0.460600
9.126300 0.393200
9.152400 0.380700
9.178600 0.437800
9.204800 0.481100
9.230900 0.418900
9.257100 0.292400
9.283300 0.227400
9.309500 0.293700
9.335600 0.434800
9.361800 0.558400
9.388000 0.649400
9.414100 0.721900
9.440300 0.741200
9.466500 0.683500
9.492600 0.580900
9.518800 0.472200
9.545000 0.402400
9.571100 0.384200
9.597300 0.392600
9.623500 0.468900
9.649600 0.654200
9.675800 0.822800
9.702000 0.799500
9.728100 0.621400
9.754300 0.484600
9.780500 0.471100
9.806600 0.482200
9.832800 0.469000
9.859000 0.527100
9.885100 0.691600
9.911300 0.902600
9.937500 1.104700
9.963700 1.179200
9.989800 1.002100
10.016000 0.676800
10.042200 0.427000
10.068300 0.339100
10.094500 0.379700
10.120700 0.462400
10.146800 0.484000
10.173000 0.413100
10.199200 0.319700
10.225300 0.279900
10.251500 0.283100
10.277700 0.298900
10.303800 0.340300
10.330000 0.401600
10.356200 0.449300
10.382300 0.482200
10.408500 0.518800
10.434700 0.569000
10.460800 0.653200
10.487000 0.761400
10.513200 0.798700
10.539300 0.758400
10.565500 0.754200
10.591700 0.790600
10.617900 0.829400
10.644000 0.876100
10.670200 0.870700
10.696400 0.767900
10.722500 0.647400
10.748700 0.596800
10.774900 0.591300
10.801000 0.592700
10.827200 0.639800
10.853400 0.697600
10.879500 0.636600
10.905700 0.486300
10.931900 0.416300
10.958000 0.461200
10.984200 0.522800
11.010400 0.547100
11.036500 0.526300
11.062700 0.492700
11.088900 0.532100
11.115000 0.618500
11.141200 0.633000
11.167400 0.577300
11.193500 0.523900
11.219700 0.490900
11.245900 0.481500
11.272100 0.503200
11.298200 0.539000
11.324400 0.570600
11.350600 0.611700
11.376700 0.677400
11.402900 0.741600
11.429100 0.759600
11.455200 0.693900
11.481400 0.553600
11.507600 0.453200
11.533700 0.520100
11.559900 0.733600
11.586100 0.925000
11.612200 0.985600
11.638400 0.956200
11.664600 0.845800
11.690700 0.645900
11.716900 0.463600
11.743100 0.378300
11.769200 0.365000
11.795400 0.421700
11.821600 0.495100
11.847700 0.468500
11.873900 0.385700
11.900100 0.401000
11.926200 0.536000
11.952400 0.665100
11.978600 0.669100
12.004800 0.590400
12.030900 0.580700
12.057100 0.660000
12.083300 0.737900
12.109400 0.788400
12.135600 0.817700
12.161800 0.813700
12.187900 0.754700
12.214100 0.630000
12.240300 0.502100
12.266400 0.434600
12.292600 0.382100
12.318800 0.308500
12.344900 0.311400
12.371100 0.468700
12.397300 0.669700
12.423400 0.742700
12.449600 0.685200
12.475800 0.661300
12.501900 0.826900
12.528100 1.137200
12.554300 1.333300
12.580400 1.244900
12.606600 0.976000
12.632800 0.700700
12.659000 0.514000
12.685100 0.436000
12.711300 0.420900
12.737500 0.451500
12.763600 0.554200
12.789800 0.702300
12.816000 0.805700
12.842100 0.804900
12.868300 0.764400
12.894500 0.765800
12.920600 0.736600
12.946800 0.630300
12.973000 0.566800
12.999100 0.629400
13.025300 0.779200
13.051500 0.886800
13.077600 0.807800
13.103800 0.591700
13.130000 0.428100
13.156100 0.380300
13.182300 0.402700
13.208500 0.477200
13.234600 0.584300
13.260800 0.661900
13.287000 0.680600
13.313200 0.682900
13.339300 0.720000
13.365500 0.774600
13.391700 0.756900
13.417800 0.656400
13.444000 0.577700
13.470200 0.582700
13.496300 0.650100
13.522500 0.746800
13.548700 0.876100
13.574800 1.053200
13.601000 1.207500
13.627200 1.212100
13.653300 1.077600
13.679500 0.945300
13.705700 0.856000
13.731800 0.734600
13.758000 0.573700
13.784200 0.481200
13.810300 0.548800
13.836500 0.707800
13.862700 0.803600
13.888800 0.796700
13.915000 0.736100
13.941200 0.675100
13.967400 0.663300
13.993500 0.666800
14.019700 0.615600
14.045900 0.523800
14.072000 0.439900
14.098200 0.419500
14.124400 0.516600
14.150500 0.653900
14.176700 0.710600
14.202900 0.749200
14.229000 0.887800
14.255200 1.057800
14.281400 1.091400
14.307500 0.992400
14.333700 0.885000
14.359900 0.817000
14.386000 0.792300
14.412200 0.781400
14.438400 0.740300
14.464500 0.664400
14.490700 0.578300
14.516900 0.545700
14.543000 0.624600
14.569200 0.801900
14.595400 1.026600
14.621500 1.259200
14.647700 1.466500
14.673900 1.577800
14.700100 1.498900
14.726200 1.253200
14.752400 1.026400
14.778600 0.950600
14.804700 0.945300
14.830900 0.902800
14.857100 0.842200
14.883200 0.816500
14.909400 0.837900
14.935600 0.864800
14.961700 0.873200
14.987900 0.920000
15.014100 0.994600
15.040200 1.000600
15.066400 0.952900
15.092600 0.913300
15.118700 0.889000
15.144900 0.939100
15.171100 1.126100
15.197200 1.351900
15.223400 1.464200
15.249600 1.424600
15.275700 1.275700
15.301900 1.085900
15.328100 0.902300
15.354300 0.749000
15.380400 0.708000
15.406600 0.823700
15.432800 0.977100
15.458900 1.038200
15.485100 1.031900
15.511300 1.045600
15.537400 1.033500
15.563600 0.920200
15.589800 0.828100
15.615900 0.879500
15.642100 0.963100
15.668300 0.931000
15.694400 0.823300
15.720600 0.763000
15.746800 0.791100
15.772900 0.915200
15.799100 1.090300
15.825300 1.141900
15.851400 0.982200
15.877600 0.759900
15.903800 0.610500
15.929900 0.496600
15.956100 0.431900
15.982300 0.550200
16.008500 0.835000
16.034600 1.056700
16.060800 1.088400
16.087000 1.049400
16.113100 1.060200
16.139300 1.112900
16.165500 1.183400
16.191600 1.252800
16.217800 1.271900
16.244000 1.253100
16.270100 1.325100
16.296300 1.543400
16.322500 1.742000
16.348600 1.767600
16.374800 1.643400
16.401000 1.478600
16.427100 1.388800
16.453300 1.354300
16.479500 1.299700
16.505600 1.298400
16.531800 1.379400
16.558000 1.366700
16.584100 1.171000
16.610300 0.960900
16.636500 0.877100
16.662600 0.850800
16.688800 0.817100
16.715000 0.842200
16.741200 0.980300
16.767300 1.162400
16.793500 1.247500
16.819700 1.201600
16.845800 1.148400
16.872000 1.197600
16.898200 1.304100
16.924300 1.339500
16.950500 1.280400
16.976700 1.198600
17.002800 1.148400
17.029000 1.192500
17.055200 1.353900
17.081300 1.513600
17.107500 1.528700
17.133700 1.396400
17.159800 1.282300
17.186000 1.293300
17.212200 1.327300
17.238300 1.301200
17.264500 1.305700
17.290700 1.427900
17.316800 1.556700
17.343000 1.547500
17.369200 1.443000
17.395400 1.401900
17.421500 1.446900
17.447700 1.377400
17.473900 1.115100
17.500000 0.837300
17.526200 0.710800
17.552400 0.794300
17.578500 0.963600
17.604700 1.012200
17.630900 0.939400
17.657000 0.843900
17.683200 0.732700
17.709400 0.620300
17.735500 0.591400
17.761700 0.693500
17.787900 0.845000
17.814000 0.940900
17.840200 0.984700
17.866400 1.006000
17.892500 1.023400
17.918700 1.025600
17.944900 0.917700
17.971000 0.692900
17.997200 0.487400
18.023400 0.393300
18.049600 0.417200
18.075700 0.531100
18.101900 0.657200
18.128100 0.684900
18.154200 0.591600
18.180400 0.480700
18.206600 0.446100
18.232700 0.504200
18.258900 0.598700
18.285100 0.650400
18.311200 0.665400
18.337400 0.683700
18.363600 0.687900
18.389700 0.669700
18.415900 0.680700
18.442100 0.719500
18.468200 0.715700
18.494400 0.670900
18.520600 0.667300
18.546700 0.757400
18.572900 0.897700
18.599100 1.031100
18.625200 1.160800
18.651400 1.234400
18.677600 1.148600
18.703800 1.018000
18.729900 1.132600
18.756100 1.477400
18.782300 1.692700
18.808400 1.622300
18.834600 1.465200
18.860800 1.419700
18.886900 1.515800
18.913100 1.602500
18.939300 1.485300
18.965400 1.219100
18.991600 1.026800
19.017800 0.985800
19.043900 1.054700
19.070100 1.164500
19.096300 1.259700
19.122400 1.373600
19.148600 1.484000
19.174800 1.518800
19.200900 1.554900
19.227100 1.649100
19.253300 1.637200
19.279400 1.401200
19.305600 1.056300
19.331800 0.805100
19.357900 0.788200
19.384100 1.006500
19.410300 1.296100
19.436500 1.396900
19.462600 1.214600
19.488800 0.934900
19.515000 0.752400
19.541100 0.713200
19.567300 0.768600
19.593500 0.849800
19.619600 0.963200
19.645800 1.118000
19.672000 1.232600
19.698100 1.242400
19.724300 1.159400
19.750500 1.031400
19.776600 0.939900
19.802800 0.964700
19.829000 1.094400
19.855100 1.210800
19.881300 1.228900
19.907500 1.175200
19.933600 1.100000
19.959800 1.053000
19.986000 1.061500
20.012100 1.076700
20.038300 1.081200
20.064500 1.102300
20.090700 1.091900
20.116800 1.039500
20.143000 1.007700
20.169200 1.014600
20.195300 1.036300
20.221500 1.037500
20.247700 1.026000
20.273800 1.036100
20.300000 1.019900
20.326200 0.935600
20.352300 0.869900
20.378500 0.900800
20.404700 1.010800
20.430800 1.119400
20.457000 1.121700
20.483200 1.036300
20.509300 0.962300
20.535500 0.897100
20.561700 0.828900
20.587800 0.780300
20.614000 0.730000
20.640200 0.709300
20.666300 0.794100
20.692500 0.951100
20.718700 1.086900
20.744900 1.179700
20.771000 1.246000
20.797200 1.215900
20.823400 1.032600
20.849500 0.805300
20.875700 0.665100
20.901900 0.633100
20.928000 0.676100
20.954200 0.814800
20.980400 1.096800
21.006500 1.385000
21.032700 1.444000
21.058900 1.286000
21.085000 1.092000
21.111200 0.948500
21.137400 0.912600
21.163500 0.984900
21.189700 1.035500
21.215900 1.013900
21.242000 0.990900
21.268200 0.968700
21.294400 0.891700
21.320500 0.797200
21.346700 0.785000
21.372900 0.849000
21.399000 0.917000
21.425200 0.956300
21.451400 0.966200
21.477600 1.008800
21.503700 1.111400
21.529900 1.180100
21.556100 1.153900
21.582200 1.104600
21.608400 1.099000
21.634600 1.067000
21.660700 0.907000
21.686900 0.667400
21.713100 0.520700
21.739200 0.551800
21.765400 0.697700
21.791600 0.854800
21.817700 0.934400
21.843900 0.946900
21.870100 1.016200
21.896200 1.173600
21.922400 1.277200
21.948600 1.239000
21.974700 1.136800
22.000900 1.085600
22.027100 1.181700
22.053200 1.410500
22.079400 1.617600
22.105600 1.711000
22.131800 1.702700
22.157900 1.572800
22.184100 1.318300
22.210300 1.070500
22.236400 1.007700
22.262600 1.130200
22.288800 1.260200
22.314900 1.273300
22.341100 1.198500
22.367300 1.146500
22.393400 1.167200
22.419600 1.209800
22.445800 1.242900
22.471900 1.266900
22.498100 1.253900
22.524300 1.193300
22.550400 1.117000
22.576600 1.040400
22.602800 0.949900
22.628900 0.915900
22.655100 1.039800
22.681300 1.224700
22.707400 1.286000
22.733600 1.236100
22.759800 1.209300
22.786000 1.231400
22.812100 1.227600
22.838300 1.139200
22.864500 1.029400
22.890600 1.104600
22.916800 1.416500
22.943000 1.660400
22.969100 1.563000
22.995300 1.307700
23.021500 1.210400
23.047600 1.306800
23.073800 1.507200
23.100000 1.708700
23.126100 1.786100
23.152300 1.688300
23.178500 1.479800
23.204600 1.316900
23.230800 1.334800
23.257000 1.447400
23.283100 1.483000
23.309300 1.494700
23.335500 1.587400
23.361600 1.673800
23.387800 1.579800
23.414000 1.255100
23.440200 0.860100
23.466300 0.611800
23.492500 0.592200
23.518700 0.743700
23.544800 0.960500
23.571000 1.121000
23.597200 1.163100
23.623300 1.184500
23.649500 1.309000
23.675700 1.532600
23.701800 1.721400
23.728000 1.686200
23.754200 1.447000
23.780300 1.234100
23.806500 1.139800
23.832700 1.124300
23.858800 1.149700
23.885000 1.138000
23.911200 1.106700
23.937300 1.184900
23.963500 1.356900
23.989700 1.465900
24.015800 1.467900
24.042000 1.405000
24.068200 1.254000
24.094300 1.031600
24.120500 0.887800
24.146700 0.955700
24.172900 1.169200
24.199000 1.383200
24.225200 1.573300
24.251400 1.721500
24.277500 1.736100
24.303700 1.647400
24.329900 1.586200
24.356000 1.577800
24.382200 1.614200
24.408400 1.690900
24.434500 1.714000
24.460700 1.576500
24.486900 1.368200
24.513000 1.321900
24.539200 1.469800
24.565400 1.567000
24.591500 1.472300
24.617700 1.369800
24.643900 1.460200
24.670000 1.682900
24.696200 1.846800
24.722400 1.918500
24.748500 1.960800
24.774700 1.919700
24.800900 1.733800
24.827100 1.462300
24.853200 1.290800
24.879400 1.383400
24.905600 1.614600
24.931700 1.729000
24.957900 1.728500
24.984100 1.837700
25.010200 2.188300
25.036400 2.676900
25.062600 3.199800
25.088700 3.901800
25.114900 5.175100
25.141100 7.734600
25.167200 12.545700
25.193400 20.446400
25.219600 30.509500
25.245700 38.216700
25.271900 40.032800
25.298100 38.955400
25.324200 38.006500
25.350400 34.264500
25.376600 25.924500
25.402700 16.487100
25.428900 9.625900
25.455100 6.047800
25.481300 4.522700
25.507400 3.720700
25.533600 3.118800
25.559800 2.661100
25.585900 2.351100
25.612100 2.173400
25.638300 2.018400
25.664400 1.697000
25.690600 1.210100
25.716800 0.834700
25.742900 0.774500
25.769100 0.936300
25.795300 1.144300
25.821400 1.343700
25.847600 1.465400
25.873800 1.439900
25.899900 1.366200
25.926100 1.333800
25.952300 1.351300
25.978400 1.399900
26.004600 1.368200
26.030800 1.205700
26.056900 1.024300
26.083100 0.936700
26.109300 0.963900
26.135400 1.016800
26.161600 0.993300
26.187800 0.904300
26.214000 0.802100
26.240100 0.728600
26.266300 0.747400
26.292500 0.844300
26.318600 0.892900
26.344800 0.859200
26.371000 0.855900
26.397100 0.905000
26.423300 0.871700
26.449500 0.740700
26.475600 0.664400
26.501800 0.694200
26.528000 0.770100
26.554100 0.851700
26.580300 0.918400
26.606500 0.967800
26.632600 1.020400
26.658800 1.082800
26.685000 1.137800
26.711100 1.153700
26.737300 1.110000
26.763500 1.018000
26.789600 0.888300
26.815800 0.765700
26.842000 0.719900
26.868200 0.700200
26.894300 0.611600
26.920500 0.518900
26.946700 0.531800
26.972800 0.591800
26.999000 0.579400
27.025200 0.490700
27.051300 0.412600
27.077500 0.433300
27.103700 0.525600
27.129800 0.558800
27.156000 0.528100
27.182200 0.547000
27.208300 0.607000
27.234500 0.621200
27.260700 0.636700
27.286800 0.718800
27.313000 0.788100
27.339200 0.761600
27.365300 0.670600
27.391500 0.592600
27.417700 0.547500
27.443800 0.501900
27.470000 0.446600
27.496200 0.412400
27.522400 0.415000
27.548500 0.435200
27.574700 0.450600
27.600900 0.437700
27.627000 0.391100
27.653200 0.372100
27.679400 0.378000
27.705500 0.310700
27.731700 0.181700
27.757900 0.109100
27.784000 0.149200
27.810200 0.244500
27.836400 0.295200
27.862500 0.281600
27.888700 0.252800
27.914900 0.214400
27.941000 0.165800
27.967200 0.166800
27.993400 0.238500
28.019500 0.288700
28.045700 0.248500
28.071900 0.175300
28.098000 0.135600
28.124200 0.106800
28.150400 0.061600
28.176600 0.022400
28.202700 0.006500
28.228900 0.009400
28.255100 0.026400
28.281200 0.046600
28.307400 0.048900
28.333600 0.030400
28.359700 0.011200
28.385900 0.002400
28.412100 0.000300
28.438200 0.000000
28.464400 0.000000
28.490600 0.000000
28.516700 0.000000
28.542900 0.000000
28.569100 0.000000
28.595200 0.000000
28.621400 0.000000
28.647600 0.000000
28.673700 0.000000
28.699900 0.000000
28.726100 0.000000
28.752200 0.000000
28.778400 0.000000
28.804600 0.000000
28.830700 0.000000
28.856900 0.000000
28.883100 0.000000
28.909300 0.000000
28.935400 0.000000
28.961600 0.000000
28.987800 0.000000
29.013900 0.000000
29.040100 0.000000
29.066300 0.000000
29.092400 0.000000
29.118600 0.000000
29.144800 0.000000
29.170900 0.000000
29.197100 0.000000
29.223300 0.000000
29.249400 0.000000
29.275600 0.000000
29.301800 0.000000
29.327900 0.000000
29.354100 0.000000
29.380300 0.000000
29.406400 0.000000
29.432600 0.000000
29.458800 0.000000
29.484900 0.000000
29.511100 0.000000
29.537300 0.000000
29.563500 0.000000
29.589600 0.000000
29.615800 0.000000
29.642000 0.000000
29.668100 0.000000
29.694300 0.000000
29.720500 0.000000
29.746600 0.000000
29.772800 0.000000
29.799000 0.000000
29.825100 0.000000
29.851300 0.000000
29.877500 0.000000
29.903600 0.000000
29.929800 0.000000
29.956000 0.000000
29.982100 0.000000
30.008300 0.000000
30.034500 0.000000
30.060600 0.000000
30.086800 0.000000
30.113000 0.000000
30.139100 0.000000
30.165300 0.000000
30.191500 0.000000
30.217700 0.000000
30.243800 0.000000
30.270000 0.000000
30.296200 0.000000
30.322300 0.000000
30.348500 0.000000
30.374700 0.000000
30.400800 0.000000
30.427000 0.000000
30.453200 0.000000
30.479300 0.000000
30.505500 0.000000
30.531700 0.000000
30.557800 0.000000
30.584000 0.000000
30.610200 0.000000
30.636300 0.000000
30.662500 0.000000
e
