set title 'mp-1215265 - Density of States'
set xlabel 'Energy (eV)'
set ylabel 'DOS (states/eV)'
set grid
set xrange [-10:10]
set yrange [0:32.749]
set xzeroaxis lt -1
set terminal png size 800,600
set output 'mp-1215265_dos_gnuplot.png'
plot '-' using 1:2 with lines title 'DOS'
-46.798700 0.000000
-46.749500 0.000000
-46.700200 0.000000
-46.650900 0.000000
-46.601600 0.000000
-46.552300 0.000000
-46.503000 0.000000
-46.453700 0.000000
-46.404500 0.000000
-46.355200 0.000000
-46.305900 0.000000
-46.256600 0.000000
-46.207300 0.000000
-46.158000 0.000000
-46.108700 0.000000
-46.059500 0.000000
-46.010200 0.000000
-45.960900 0.000000
-45.911600 0.000000
-45.862300 0.000000
-45.813000 0.000000
-45.763700 0.000000
-45.714500 0.000000
-45.665200 0.000000
-45.615900 0.000000
-45.566600 0.000000
-45.517300 0.000000
-45.468000 0.000000
-45.418700 0.000000
-45.369500 0.000000
-45.320200 0.000000
-45.270900 0.000000
-45.221600 0.000000
-45.172300 0.000000
-45.123000 0.000000
-45.073700 0.000000
-45.024500 0.000000
-44.975200 0.000000
-44.925900 0.000000
-44.876600 0.000000
-44.827300 0.000000
-44.778000 0.000000
-44.728700 0.000000
-44.679500 0.000000
-44.630200 0.000000
-44.580900 0.000000
-44.531600 0.000000
-44.482300 0.000000
-44.433000 0.000000
-44.383700 0.000000
-44.334500 0.000000
-44.285200 0.000000
-44.235900 0.000000
-44.186600 0.000000
-44.137300 0.000000
-44.088000 0.000000
-44.038700 0.000000
-43.989500 0.000000
-43.940200 0.000000
-43.890900 0.000000
-43.841600 0.000000
-43.792300 0.000000
-43.743000 0.000000
-43.693700 0.000000
-43.644500 0.000000
-43.595200 0.000000
-43.545900 0.000000
-43.496600 0.000000
-43.447300 0.000000
-43.398000 0.000000
-43.348700 0.000000
-43.299500 0.000000
-43.250200 0.000000
-43.200900 0.000000
-43.151600 0.000000
-43.102300 0.000000
-43.053000 0.000000
-43.003700 0.000000
-42.954500 0.000000
-42.905200 0.000000
-42.855900 0.000000
-42.806600 0.000000
-42.757300 0.000000
-42.708000 0.000000
-42.658700 0.000000
-42.609500 0.000000
-42.560200 0.000000
-42.510900 0.000000
-42.461600 0.000000
-42.412300 0.000000
-42.363000 0.000000
-42.313700 14.359000
-42.264500 17.799400
-42.215200 0.000000
-42.165900 0.000000
-42.116600 0.000000
-42.067300 0.000000
-42.018000 0.000000
-41.968700 0.000000
-41.919500 0.000000
-41.870200 0.000000
-41.820900 0.000000
-41.771600 0.000000
-41.722300 0.000000
-41.673000 0.000000
-41.623700 0.000000
-41.574500 0.000000
-41.525200 0.000000
-41.475900 0.000000
-41.426600 0.000000
-41.377300 0.000000
-41.328000 0.000000
-41.278700 0.000000
-41.229500 0.000000
-41.180200 0.000000
-41.130900 0.000000
-41.081600 0.000000
-41.032300 0.000000
-40.983000 0.000000
-40.933700 0.000000
-40.884500 0.000000
-40.835200 0.000000
-40.785900 0.000000
-40.736600 0.000000
-40.687300 0.000000
-40.638000 0.000000
-40.588700 0.000000
-40.539500 0.000000
-40.490200 0.000000
-40.440900 0.000000
-40.391600 0.000000
-40.342300 0.000000
-40.293000 0.000000
-40.243700 0.000000
-40.194500 0.000000
-40.145200 0.000000
-40.095900 0.000000
-40.046600 0.000000
-39.997300 0.000000
-39.948000 0.000000
-39.898700 0.000000
-39.849500 0.000000
-39.800200 0.000000
-39.750900 0.000000
-39.701600 0.000000
-39.652300 0.000000
-39.603000 0.000000
-39.553700 0.000000
-39.504500 0.000000
-39.455200 0.000000
-39.405900 0.000000
-39.356600 0.000000
-39.307300 0.000000
-39.258000 0.000000
-39.208700 0.000000
-39.159500 0.000000
-39.110200 0.000000
-39.060900 0.000000
-39.011600 0.000000
-38.962300 0.000000
-38.913000 0.000000
-38.863700 0.000000
-38.814500 0.000000
-38.765200 0.000000
-38.715900 0.000000
-38.666600 0.000000
-38.617300 0.000000
-38.568000 0.000000
-38.518700 0.000000
-38.469500 0.000000
-38.420200 0.000000
-38.370900 0.000000
-38.321600 0.000000
-38.272300 0.000000
-38.223000 0.000000
-38.173700 0.000000
-38.124500 0.000000
-38.075200 0.000000
-38.025900 0.000000
-37.976600 0.000000
-37.927300 0.000000
-37.878000 0.000000
-37.828700 0.000000
-37.779500 0.000000
-37.730200 0.000000
-37.680900 0.000000
-37.631600 0.000000
-37.582300 0.000000
-37.533000 0.000000
-37.483700 0.000000
-37.434500 0.000000
-37.385200 0.000000
-37.335900 0.000000
-37.286600 0.000000
-37.237300 0.000000
-37.188000 0.000000
-37.138700 0.000000
-37.089500 0.000000
-37.040200 0.000000
-36.990900 0.000000
-36.941600 0.000000
-36.892300 0.000000
-36.843000 0.000000
-36.793700 0.000000
-36.744500 0.000000
-36.695200 0.000000
-36.645900 0.000000
-36.596600 0.000000
-36.547300 0.000000
-36.498000 0.000000
-36.448700 0.000000
-36.399500 0.000000
-36.350200 0.000000
-36.300900 0.000000
-36.251600 0.000000
-36.202300 0.000000
-36.153000 0.000000
-36.103700 0.000000
-36.054500 0.000000
-36.005200 0.000000
-35.955900 0.000000
-35.906600 0.000000
-35.857300 0.000000
-35.808000 0.000000
-35.758700 0.000000
-35.709500 0.000000
-35.660200 0.000000
-35.610900 0.000000
-35.561600 0.000000
-35.512300 0.000000
-35.463000 0.000000
-35.413800 0.000000
-35.364500 0.000000
-35.315200 0.000000
-35.265900 0.000000
-35.216600 0.000000
-35.167300 0.000000
-35.118000 0.000000
-35.068800 0.000000
-35.019500 0.000000
-34.970200 0.000000
-34.920900 0.000000
-34.871600 0.000000
-34.822300 0.000000
-34.773000 0.000000
-34.723800 0.000000
-34.674500 0.000000
-34.625200 0.000000
-34.575900 0.000000
-34.526600 0.000000
-34.477300 0.000000
-34.428000 0.000000
-34.378800 0.000000
-34.329500 0.000000
-34.280200 0.000000
-34.230900 0.000000
-34.181600 0.000000
-34.132300 0.000000
-34.083000 0.000000
-34.033800 0.000000
-33.984500 0.000000
-33.935200 0.000000
-33.885900 0.000000
-33.836600 0.000000
-33.787300 0.000000
-33.738000 0.000000
-33.688800 0.000000
-33.639500 0.000000
-33.590200 0.000000
-33.540900 0.000000
-33.491600 0.000000
-33.442300 0.000000
-33.393000 0.000000
-33.343800 0.000000
-33.294500 0.000000
-33.245200 0.000000
-33.195900 0.000000
-33.146600 0.000000
-33.097300 0.000000
-33.048000 0.000000
-32.998800 0.000000
-32.949500 0.000000
-32.900200 0.000000
-32.850900 0.000000
-32.801600 0.000000
-32.752300 0.000000
-32.703000 0.000000
-32.653800 0.000000
-32.604500 0.000000
-32.555200 0.000000
-32.505900 0.000000
-32.456600 0.000000
-32.407300 0.000000
-32.358000 0.000000
-32.308800 0.000000
-32.259500 0.000000
-32.210200 0.000000
-32.160900 0.000000
-32.111600 0.000000
-32.062300 0.000000
-32.013000 0.000000
-31.963800 0.000000
-31.914500 0.000000
-31.865200 0.000000
-31.815900 0.000000
-31.766600 0.000000
-31.717300 0.000000
-31.668000 0.000000
-31.618800 0.000000
-31.569500 0.000000
-31.520200 0.000000
-31.470900 0.000000
-31.421600 0.000000
-31.372300 0.000000
-31.323000 0.000000
-31.273800 0.000000
-31.224500 0.000000
-31.175200 0.000000
-31.125900 0.000000
-31.076600 0.000000
-31.027300 0.000000
-30.978000 0.000000
-30.928800 0.000000
-30.879500 0.000000
-30.830200 0.000000
-30.780900 0.000000
-30.731600 0.000000
-30.682300 0.000000
-30.633000 0.000000
-30.583800 0.000000
-30.534500 0.000000
-30.485200 0.000000
-30.435900 0.000000
-30.386600 0.000000
-30.337300 0.000000
-30.288000 0.000000
-30.238800 0.000000
-30.189500 0.000000
-30.140200 0.000000
-30.090900 0.000000
-30.041600 0.000000
-29.992300 0.000000
-29.943000 0.000000
-29.893800 0.000000
-29.844500 0.000000
-29.795200 0.000000
-29.745900 0.000000
-29.696600 0.000000
-29.647300 0.000000
-29.598000 0.000000
-29.548800 0.000000
-29.499500 0.000000
-29.450200 0.000000
-29.400900 0.000000
-29.351600 0.000000
-29.302300 0.000000
-29.253000 0.000000
-29.203800 0.000000
-29.154500 0.000000
-29.105200 0.000000
-29.055900 0.000000
-29.006600 0.000000
-28.957300 0.000000
-28.908000 0.000000
-28.858800 0.000000
-28.809500 0.000000
-28.760200 0.000000
-28.710900 0.000000
-28.661600 0.000000
-28.612300 0.000000
-28.563000 0.000000
-28.513800 0.000000
-28.464500 0.000000
-28.415200 0.000000
-28.365900 0.000000
-28.316600 0.000000
-28.267300 0.000000
-28.218000 0.000000
-28.168800 0.000000
-28.119500 0.000000
-28.070200 0.000000
-28.020900 0.000000
-27.971600 0.000000
-27.922300 0.000000
-27.873000 0.000000
-27.823800 0.000000
-27.774500 0.000000
-27.725200 0.000000
-27.675900 0.000000
-27.626600 0.000000
-27.577300 0.000000
-27.528000 0.000000
-27.478800 0.000000
-27.429500 0.000000
-27.380200 0.000000
-27.330900 0.000000
-27.281600 0.000000
-27.232300 0.000000
-27.183000 0.000000
-27.133800 0.000000
-27.084500 0.000000
-27.035200 0.000000
-26.985900 0.000000
-26.936600 0.000000
-26.887300 0.000000
-26.838000 0.000000
-26.788800 0.000000
-26.739500 0.000000
-26.690200 0.000000
-26.640900 0.000000
-26.591600 0.000000
-26.542300 0.000000
-26.493000 0.000000
-26.443800 0.000000
-26.394500 0.000000
-26.345200 0.000000
-26.295900 0.000000
-26.246600 0.000000
-26.197300 0.000000
-26.148000 0.000000
-26.098800 0.000000
-26.049500 0.000000
-26.000200 0.000000
-25.950900 0.000000
-25.901600 0.000000
-25.852300 0.000000
-25.803000 0.000000
-25.753800 0.000000
-25.704500 0.000000
-25.655200 0.000000
-25.605900 0.000000
-25.556600 0.000000
-25.507300 0.000000
-25.458000 0.000000
-25.408800 0.000000
-25.359500 0.000000
-25.310200 0.000000
-25.260900 0.000000
-25.211600 0.000000
-25.162300 0.000000
-25.113000 0.000000
-25.063800 0.000000
-25.014500 0.000000
-24.965200 0.000000
-24.915900 0.000000
-24.866600 0.000000
-24.817300 0.000000
-24.768000 0.000000
-24.718800 0.000000
-24.669500 0.000000
-24.620200 0.000000
-24.570900 0.000000
-24.521600 0.000000
-24.472300 0.000000
-24.423000 0.000000
-24.373800 0.000000
-24.324500 0.000000
-24.275200 0.000000
-24.225900 0.000000
-24.176600 0.000000
-24.127300 0.000000
-24.078000 0.000000
-24.028800 0.000000
-23.979500 0.000000
-23.930200 0.000000
-23.880900 0.000000
-23.831600 0.000000
-23.782300 0.000000
-23.733000 0.000000
-23.683800 0.000000
-23.634500 0.000000
-23.585200 0.000000
-23.535900 0.000000
-23.486600 0.000000
-23.437300 0.000000
-23.388000 0.000000
-23.338800 0.000000
-23.289500 0.000000
-23.240200 0.000000
-23.190900 0.000000
-23.141600 0.000000
-23.092300 0.000000
-23.043000 0.000000
-22.993800 0.000000
-22.944500 0.000000
-22.895200 0.000000
-22.845900 0.000000
-22.796600 0.000000
-22.747300 0.000000
-22.698000 0.000000
-22.648800 0.000000
-22.599500 0.000000
-22.550200 0.000000
-22.500900 0.000000
-22.451600 0.000000
-22.402300 0.000000
-22.353000 0.000000
-22.303800 0.000000
-22.254500 0.000000
-22.205200 0.000000
-22.155900 0.000000
-22.106600 0.000000
-22.057300 0.000000
-22.008000 0.000000
-21.958800 0.000000
-21.909500 0.000000
-21.860200 0.000000
-21.810900 0.000000
-21.761600 0.000000
-21.712300 0.000000
-21.663000 0.000000
-21.613800 0.000000
-21.564500 0.000000
-21.515200 0.000000
-21.465900 0.000000
-21.416600 0.000000
-21.367300 0.000000
-21.318000 0.000000
-21.268800 0.000000
-21.219500 0.000000
-21.170200 0.000000
-21.120900 0.000000
-21.071600 0.000000
-21.022300 0.000000
-20.973000 0.000000
-20.923800 0.000000
-20.874500 0.000000
-20.825200 0.000000
-20.775900 0.000000
-20.726600 0.000000
-20.677300 5.946500
-20.628000 7.143300
-20.578800 7.844800
-20.529500 12.186000
-20.480200 0.000000
-20.430900 31.080200
-20.381600 4.887300
-20.332300 4.890900
-20.283000 6.244600
-20.233800 7.810100
-20.184500 9.248300
-20.135200 7.089200
-20.085900 6.044900
-20.036600 0.000000
-19.987300 0.000000
-19.938000 0.000000
-19.888800 0.000000
-19.839500 0.000000
-19.790200 0.000000
-19.740900 0.000000
-19.691600 0.000000
-19.642300 0.000000
-19.593000 0.000000
-19.543800 0.000000
-19.494500 0.000000
-19.445200 0.000000
-19.395900 0.000000
-19.346600 0.000000
-19.297300 0.000000
-19.248000 0.000000
-19.198800 0.000000
-19.149500 0.000000
-19.100200 0.000000
-19.050900 0.000000
-19.001600 0.000000
-18.952300 0.000000
-18.903000 0.000000
-18.853800 0.000000
-18.804500 0.000000
-18.755200 0.000000
-18.705900 0.000000
-18.656600 0.000000
-18.607300 0.000000
-18.558000 0.000000
-18.508800 0.000000
-18.459500 0.000000
-18.410200 0.000000
-18.360900 0.000000
-18.311600 0.000000
-18.262300 0.000000
-18.213000 0.000000
-18.163800 0.000000
-18.114500 0.000000
-18.065200 0.000000
-18.015900 0.000000
-17.966600 0.000000
-17.917300 0.000000
-17.868000 0.000000
-17.818800 0.000000
-17.769500 0.000000
-17.720200 0.000000
-17.670900 0.000000
-17.621600 0.000000
-17.572300 0.000000
-17.523000 0.000000
-17.473800 0.000000
-17.424500 0.000000
-17.375200 0.000000
-17.325900 0.000000
-17.276600 0.000000
-17.227300 0.000000
-17.178000 0.000000
-17.128800 0.000000
-17.079500 0.000000
-17.030200 0.000000
-16.980900 0.000000
-16.931600 0.000000
-16.882300 0.000000
-16.833000 0.000000
-16.783800 0.000000
-16.734500 0.000000
-16.685200 0.000000
-16.635900 0.000000
-16.586600 0.000000
-16.537300 0.000000
-16.488000 0.000000
-16.438800 0.000000
-16.389500 0.000000
-16.340200 0.000000
-16.290900 0.000000
-16.241600 0.000000
-16.192300 0.000000
-16.143000 0.000000
-16.093800 0.000000
-16.044500 0.000000
-15.995200 0.000000
-15.945900 0.000000
-15.896600 0.000000
-15.847300 0.000000
-15.798000 0.000000
-15.748800 0.000000
-15.699500 0.000000
-15.650200 0.000000
-15.600900 0.000000
-15.551600 0.000000
-15.502300 0.000000
-15.453000 0.000000
-15.403800 0.000000
-15.354500 0.000000
-15.305200 0.000000
-15.255900 0.000000
-15.206600 0.000000
-15.157300 0.000000
-15.108000 0.000000
-15.058800 0.000000
-15.009500 0.000000
-14.960200 0.000000
-14.910900 0.000000
-14.861600 0.000000
-14.812300 0.000000
-14.763000 0.000000
-14.713800 0.000000
-14.664500 0.000000
-14.615200 0.000000
-14.565900 0.000000
-14.516600 0.000000
-14.467300 0.000000
-14.418000 0.000000
-14.368800 0.000000
-14.319500 0.000000
-14.270200 0.000000
-14.220900 0.000000
-14.171600 0.000000
-14.122300 0.000000
-14.073000 0.000000
-14.023800 0.000000
-13.974500 0.000000
-13.925200 0.000000
-13.875900 0.000000
-13.826600 0.000000
-13.777300 0.000000
-13.728100 0.000000
-13.678800 0.000000
-13.629500 0.000000
-13.580200 0.000000
-13.530900 0.000000
-13.481600 0.000000
-13.432300 0.000000
-13.383100 0.000000
-13.333800 0.000000
-13.284500 0.000000
-13.235200 0.000000
-13.185900 0.000000
-13.136600 0.000000
-13.087300 0.000000
-13.038100 0.000000
-12.988800 0.000000
-12.939500 0.000000
-12.890200 0.000000
-12.840900 0.000000
-12.791600 0.000000
-12.742300 0.000000
-12.693100 0.000000
-12.643800 0.000000
-12.594500 0.000000
-12.545200 0.000000
-12.495900 0.000000
-12.446600 0.000000
-12.397300 0.000000
-12.348100 0.000000
-12.298800 0.000000
-12.249500 0.000000
-12.200200 0.000000
-12.150900 0.000000
-12.101600 0.000000
-12.052300 0.000000
-12.003100 0.000000
-11.953800 0.000000
-11.904500 0.000000
-11.855200 0.000000
-11.805900 0.000000
-11.756600 0.000000
-11.707300 0.000000
-11.658100 0.000000
-11.608800 0.000000
-11.559500 0.000000
-11.510200 0.000000
-11.460900 0.000000
-11.411600 0.000000
-11.362300 0.000000
-11.313100 0.000000
-11.263800 0.000000
-11.214500 0.000000
-11.165200 0.000000
-11.115900 0.000000
-11.066600 0.000000
-11.017300 0.000000
-10.968100 0.000000
-10.918800 0.000000
-10.869500 0.000000
-10.820200 0.000000
-10.770900 0.000000
-10.721600 0.000000
-10.672300 0.000000
-10.623100 0.000000
-10.573800 0.000000
-10.524500 0.000000
-10.475200 0.000000
-10.425900 0.000000
-10.376600 0.000000
-10.327300 0.000000
-10.278100 0.000000
-10.228800 0.000000
-10.179500 0.000000
-10.130200 0.000000
-10.080900 0.000000
-10.031600 0.000000
-9.982300 0.000000
-9.933100 0.000000
-9.883800 0.000000
-9.834500 0.000000
-9.785200 0.000000
-9.735900 0.000000
-9.686600 0.000000
-9.637300 0.000000
-9.588100 0.000000
-9.538800 0.000000
-9.489500 0.000000
-9.440200 0.000000
-9.390900 0.000000
-9.341600 0.000000
-9.292300 0.000000
-9.243100 0.000000
-9.193800 0.000000
-9.144500 0.000000
-9.095200 0.000000
-9.045900 0.000000
-8.996600 0.000000
-8.947300 0.000000
-8.898100 0.000000
-8.848800 0.000000
-8.799500 0.000000
-8.750200 0.000000
-8.700900 0.000000
-8.651600 0.000000
-8.602300 0.000000
-8.553100 0.000000
-8.503800 0.000000
-8.454500 0.000000
-8.405200 0.000000
-8.355900 0.000000
-8.306600 0.000000
-8.257300 0.000000
-8.208100 0.000000
-8.158800 0.000000
-8.109500 0.000000
-8.060200 8.521100
-8.010900 9.247500
-7.961600 14.810400
-7.912300 9.331600
-7.863100 11.965300
-7.813800 28.103600
-7.764500 21.428300
-7.715200 17.970300
-7.665900 29.772100
-7.616600 16.561100
-7.567300 18.949300
-7.518100 0.000000
-7.468800 0.000000
-7.419500 0.000000
-7.370200 0.000000
-7.320900 0.000000
-7.271600 0.000000
-7.222300 0.000000
-7.173100 0.000000
-7.123800 0.000000
-7.074500 0.000000
-7.025200 0.000000
-6.975900 0.000000
-6.926600 0.000000
-6.877300 0.000000
-6.828100 0.000000
-6.778800 0.000000
-6.729500 0.000000
-6.680200 0.000000
-6.630900 0.000000
-6.581600 0.000000
-6.532300 0.000000
-6.483100 0.000000
-6.433800 0.000000
-6.384500 0.000000
-6.335200 0.000000
-6.285900 0.000000
-6.236600 0.000000
-6.187300 0.000000
-6.138100 0.000000
-6.088800 0.000000
-6.039500 0.000000
-5.990200 0.000000
-5.940900 0.000000
-5.891600 0.000000
-5.842300 0.000000
-5.793100 0.000000
-5.743800 0.000000
-5.694500 0.000000
-5.645200 0.000000
-5.595900 0.000000
-5.546600 0.000000
-5.497300 0.000000
-5.448100 0.000000
-5.398800 0.000000
-5.349500 0.000000
-5.300200 0.000000
-5.250900 0.000000
-5.201600 0.000000
-5.152300 0.000000
-5.103100 0.000000
-5.053800 0.000000
-5.004500 0.000000
-4.955200 0.000000
-4.905900 0.000000
-4.856600 0.000000
-4.807300 0.000000
-4.758100 0.000000
-4.708800 0.000000
-4.659500 0.000000
-4.610200 0.000000
-4.560900 0.000000
-4.511600 0.000000
-4.462300 0.000000
-4.413100 0.000000
-4.363800 0.000000
-4.314500 0.000000
-4.265200 0.000000
-4.215900 0.000000
-4.166600 0.000000
-4.117300 0.000000
-4.068100 0.000000
-4.018800 0.000000
-3.969500 0.000000
-3.920200 0.000000
-3.870900 0.000000
-3.821600 0.000000
-3.772300 0.000000
-3.723100 0.000000
-3.673800 0.000000
-3.624500 0.000000
-3.575200 0.000000
-3.525900 0.000000
-3.476600 0.000000
-3.427300 0.000000
-3.378100 0.000000
-3.328800 0.000000
-3.279500 0.000000
-3.230200 0.000000
-3.180900 0.000000
-3.131600 0.000000
-3.082300 0.000000
-3.033100 0.000000
-2.983800 0.000000
-2.934500 0.000000
-2.885200 0.000000
-2.835900 0.000000
-2.786600 0.000000
-2.737300 0.000000
-2.688100 0.000000
-2.638800 0.000000
-2.589500 0.000000
-2.540200 0.000000
-2.490900 0.000000
-2.441600 0.000000
-2.392300 0.000000
-2.343100 0.000000
-2.293800 0.000000
-2.244500 0.000000
-2.195200 0.000900
-2.145900 0.031900
-2.096600 0.080600
-2.047300 0.100100
-1.998100 0.112600
-1.948800 0.129900
-1.899500 0.148900
-1.850200 0.166500
-1.800900 0.184300
-1.751600 0.196900
-1.702300 0.207500
-1.653100 0.219700
-1.603800 0.234000
-1.554500 0.248900
-1.505200 0.264400
-1.455900 0.285900
-1.406600 0.308900
-1.357300 0.333000
-1.308100 0.382600
-1.258800 0.387100
-1.209500 0.376500
-1.160200 0.381500
-1.110900 0.383400
-1.061600 0.382700
-1.012300 0.376600
-0.963100 0.373800
-0.913800 0.377100
-0.864500 0.380400
-0.815200 0.383200
-0.765900 0.385300
-0.716600 0.386700
-0.667300 0.383600
-0.618100 0.380700
-0.568800 0.379100
-0.519500 0.378500
-0.470200 0.378700
-0.420900 0.380100
-0.371600 0.381300
-0.322300 0.382400
-0.273100 0.383100
-0.223800 0.383400
-0.174500 0.382800
-0.125200 0.380700
-0.075900 0.379500
-0.026600 0.380700
0.022700 0.382400
0.071900 0.384300
0.121200 0.386300
0.170500 0.387500
0.219800 0.387800
0.269100 0.388600
0.318400 0.389300
0.367700 0.389800
0.416900 0.390000
0.466200 0.390300
0.515500 0.390100
0.564800 0.388500
0.614100 0.388800
0.663400 0.389400
0.712700 0.390400
0.761900 0.391900
0.811200 0.393800
0.860500 0.395700
0.909800 0.397700
0.959100 0.399900
1.008400 0.402200
1.057700 0.404700
1.106900 0.407300
1.156200 0.409800
1.205500 0.411700
1.254800 0.413300
1.304100 0.415400
1.353400 0.417400
1.402700 0.419600
1.451900 0.422600
1.501200 0.426100
1.550500 0.430300
1.599800 0.436900
1.649100 0.456400
1.698400 0.480100
1.747700 0.505000
1.796900 0.521000
1.846200 0.538700
1.895500 0.574500
1.944800 0.611900
1.994100 0.624600
2.043400 0.624900
2.092700 0.619500
2.141900 0.607000
2.191200 0.700100
2.240500 0.664000
2.289800 0.674200
2.339100 0.639400
2.388400 0.633200
2.437700 0.611000
2.486900 0.593400
2.536200 0.590900
2.585500 0.614600
2.634800 0.564900
2.684100 0.526100
2.733400 0.491100
2.782700 0.459800
2.831900 0.436300
2.881200 0.418500
2.930500 0.408000
2.979800 0.411800
3.029100 0.423400
3.078400 0.445900
3.127700 0.493400
3.176900 0.504300
3.226200 0.480500
3.275500 0.452900
3.324800 0.397700
3.374100 0.411800
3.423400 0.455900
3.472700 0.492800
3.521900 0.516200
3.571200 0.545600
3.620500 0.576800
3.669800 0.610300
3.719100 0.657700
3.768400 0.713500
3.817700 0.807700
3.866900 1.050900
3.916200 1.040800
3.965500 1.183100
4.014800 1.156600
4.064100 1.186200
4.113400 1.252900
4.162700 1.349700
4.211900 1.403600
4.261200 1.421800
4.310500 1.455700
4.359800 1.510600
4.409100 1.551500
4.458400 1.619400
4.507700 1.745100
4.556900 1.860400
4.606200 2.063800
4.655500 2.141000
4.704800 2.174100
4.754100 2.008900
4.803400 1.298800
4.852700 1.153300
4.901900 1.246800
4.951200 1.355500
5.000500 1.302500
5.049800 1.267900
5.099100 1.269900
5.148400 1.380300
5.197700 1.455200
5.246900 1.606100
5.296200 1.755300
5.345500 1.870300
5.394800 1.910200
5.444100 1.957800
5.493400 2.121000
5.542700 2.096400
5.591900 1.943300
5.641200 1.863100
5.690500 1.984300
5.739800 2.198600
5.789100 2.329800
5.838400 2.350300
5.887700 2.299600
5.936900 2.407700
5.986200 2.385500
6.035500 2.257100
6.084800 2.227800
6.134100 2.034100
6.183400 2.058300
6.232700 1.719600
6.281900 1.496800
6.331200 1.380300
6.380500 1.643200
6.429800 1.697300
6.479100 1.648200
6.528400 1.632300
6.577700 1.683500
6.626900 1.753100
6.676200 1.926700
6.725500 1.780800
6.774800 1.708300
6.824100 1.631300
6.873400 1.583700
6.922700 1.523700
6.971900 1.458900
7.021200 1.285700
7.070500 1.215900
7.119800 1.255200
7.169100 1.309200
7.218400 1.293400
7.267700 1.386600
7.316900 1.478100
7.366200 1.636100
7.415500 1.903000
7.464800 1.956300
7.514100 1.799500
7.563400 1.435100
7.612700 1.295900
7.661900 1.277200
7.711200 1.373800
7.760500 1.455900
7.809800 1.484800
7.859100 1.460700
7.908400 1.541900
7.957700 1.656900
8.006900 1.861200
8.056200 2.129400
8.105500 2.320400
8.154800 2.376600
8.204100 2.294600
8.253400 2.192300
8.302600 2.093600
8.351900 1.994000
8.401200 1.968300
8.450500 1.973600
8.499800 1.935300
8.549100 1.958900
8.598400 2.204200
8.647600 2.456600
8.696900 2.631300
8.746200 2.514500
8.795500 2.354400
8.844800 2.296400
8.894100 2.087500
8.943400 2.004400
8.992600 1.871900
9.041900 1.634200
9.091200 1.515100
9.140500 1.523300
9.189800 1.764500
9.239100 1.947000
9.288400 2.251000
9.337600 2.362400
9.386900 2.363800
9.436200 2.350000
9.485500 2.297600
9.534800 2.211500
9.584100 2.002300
9.633400 2.077600
9.682600 1.506800
9.731900 1.257600
9.781200 1.191000
9.830500 1.137300
9.879800 1.133400
9.929100 1.132800
9.978400 1.157600
10.027600 1.311300
10.076900 1.328800
10.126200 1.339700
10.175500 1.292900
10.224800 1.204300
10.274100 1.094500
10.323400 1.013800
10.372600 0.948400
10.421900 0.919300
10.471200 0.922800
10.520500 0.955500
10.569800 1.035000
10.619100 1.264800
10.668400 1.303400
10.717600 1.377800
10.766900 1.425200
10.816200 1.506900
10.865500 1.604600
10.914800 1.423900
10.964100 1.402900
11.013400 1.497400
11.062600 1.845600
11.111900 1.593100
11.161200 1.518000
11.210500 1.508800
11.259800 1.554900
11.309100 1.577700
11.358400 1.795900
11.407600 1.820800
11.456900 1.665000
11.506200 1.394000
11.555500 1.198300
11.604800 1.068200
11.654100 1.032200
11.703400 1.010900
11.752600 0.968800
11.801900 0.924600
11.851200 0.894700
11.900500 0.888100
11.949800 0.877800
11.999100 0.903600
12.048400 0.997000
12.097600 1.179100
12.146900 1.294100
12.196200 1.334200
12.245500 1.319100
12.294800 1.336600
12.344100 1.391200
12.393400 1.367600
12.442600 1.312500
12.491900 1.283000
12.541200 1.273900
12.590500 1.246800
12.639800 1.218600
12.689100 1.204200
12.738400 1.195000
12.787600 1.187600
12.836900 1.186800
12.886200 1.138200
12.935500 1.085200
12.984800 1.020900
13.034100 0.953000
13.083400 0.895400
13.132600 0.954200
13.181900 1.011900
13.231200 1.070400
13.280500 1.129000
13.329800 1.148200
13.379100 1.161800
13.428400 1.174900
13.477600 1.229100
13.526900 1.306900
13.576200 1.200800
13.625500 1.154000
13.674800 1.193400
13.724100 1.268000
13.773400 1.380200
13.822600 1.502800
13.871900 1.592300
13.921200 1.728500
13.970500 1.890200
14.019800 1.932500
14.069100 1.898000
14.118400 1.777800
14.167600 1.668900
14.216900 1.594800
14.266200 1.595600
14.315500 1.588200
14.364800 1.588700
14.414100 1.578100
14.463400 1.530500
14.512600 1.494400
14.561900 1.458800
14.611200 1.394000
14.660500 1.348900
14.709800 1.297300
14.759100 1.264000
14.808400 1.226900
14.857600 1.190000
14.906900 1.162500
14.956200 1.142500
15.005500 1.128600
15.054800 1.121000
15.104100 1.120300
15.153400 1.118300
15.202600 1.113500
15.251900 1.135500
15.301200 1.148100
15.350500 1.159500
15.399800 1.177500
15.449100 1.189800
15.498400 1.196300
15.547600 1.211000
15.596900 1.173600
15.646200 1.177000
15.695500 1.162500
15.744800 1.136600
15.794100 1.117500
15.843400 1.120400
15.892600 1.116500
15.941900 1.103700
15.991200 1.086100
16.040500 1.084400
16.089800 1.099600
16.139100 1.116300
16.188400 1.133100
16.237600 1.147000
16.286900 1.165800
16.336200 1.203200
16.385500 1.249500
16.434800 1.285400
16.484100 1.299800
16.533400 1.281500
16.582600 1.270100
16.631900 1.271600
16.681200 1.295600
16.730500 1.321600
16.779800 1.369300
16.829100 1.379200
16.878400 1.388200
16.927600 1.351400
16.976900 1.305700
17.026200 1.261400
17.075500 1.233800
17.124800 1.216500
17.174100 1.228000
17.223400 1.277000
17.272600 1.323200
17.321900 1.379700
17.371200 1.387500
17.420500 1.388900
17.469800 1.390300
17.519100 1.396000
17.568400 1.399500
17.617600 1.394500
17.666900 1.381700
17.716200 1.437800
17.765500 1.533200
17.814800 1.390900
17.864100 1.296800
17.913400 1.290800
17.962600 1.233300
18.011900 1.213700
18.061200 1.192200
18.110500 1.125400
18.159800 1.162800
18.209100 1.337200
18.258400 1.499400
18.307600 1.682200
18.356900 1.695500
18.406200 1.642000
18.455500 1.690900
18.504800 1.750900
18.554100 1.614100
18.603400 1.558200
18.652600 1.559300
18.701900 1.540000
18.751200 1.567200
18.800500 1.610700
18.849800 1.564200
18.899100 1.497500
18.948400 1.410200
18.997600 1.319300
19.046900 1.316600
19.096200 1.352400
19.145500 1.403000
19.194800 1.492500
19.244100 1.583800
19.293400 1.589000
19.342600 1.564700
19.391900 1.513600
19.441200 1.460400
19.490500 1.421300
19.539800 1.428400
19.589100 1.463000
19.638400 1.534700
19.687600 1.484700
19.736900 1.412600
19.786200 1.304000
19.835500 1.226700
19.884800 1.130900
19.934100 1.111800
19.983400 1.047900
20.032600 1.058600
20.081900 1.115100
20.131200 1.292400
20.180500 1.584000
20.229800 1.670200
20.279100 1.814500
20.328400 1.840700
20.377600 1.892100
20.426900 1.860000
20.476200 1.896500
20.525500 1.944100
20.574800 2.021300
20.624100 2.068800
20.673400 1.779400
20.722600 1.678500
20.771900 1.647600
20.821200 1.637000
20.870500 1.627400
20.919800 1.610200
20.969100 1.624600
21.018400 1.770100
21.067600 1.949300
21.116900 2.108300
21.166200 2.167100
21.215500 1.714400
21.264800 1.623800
21.314100 1.395200
21.363400 1.446100
21.412600 1.415200
21.461900 1.439400
21.511200 1.533600
21.560500 1.504800
21.609800 1.392500
21.659100 1.403200
21.708400 1.485700
21.757600 1.476200
21.806900 1.421400
21.856200 1.414300
21.905500 1.403800
21.954800 1.410700
22.004100 1.580700
22.053400 1.619100
22.102600 1.720800
22.151900 1.792200
22.201200 1.827600
22.250500 1.857600
22.299800 1.831100
22.349100 1.774400
22.398400 1.624000
22.447600 1.514100
22.496900 1.382000
22.546200 1.328500
22.595500 1.282300
22.644800 1.250200
22.694100 1.261500
22.743400 1.120700
22.792600 1.071900
22.841900 1.054500
22.891200 1.017100
22.940500 0.989200
22.989800 1.011000
23.039100 1.040900
23.088400 1.062400
23.137600 1.143000
23.186900 1.173900
23.236200 1.157500
23.285500 1.181500
23.334800 1.194100
23.384100 1.269000
23.433400 1.250200
23.482600 1.256400
23.531900 1.264400
23.581200 1.256100
23.630500 1.260600
23.679800 1.347700
23.729100 1.422100
23.778400 1.608000
23.827600 1.745000
23.876900 1.728400
23.926200 1.569000
23.975500 1.552800
24.024800 1.526700
24.074100 1.637800
24.123400 1.787100
24.172600 1.648400
24.221900 1.657700
24.271200 1.640400
24.320500 1.524200
24.369800 1.391100
24.419100 1.353600
24.468400 1.317400
24.517600 1.260000
24.566900 1.273300
24.616200 1.334700
24.665500 1.407800
24.714800 1.460500
24.764100 1.701400
24.813400 1.838300
24.862600 1.768500
24.911900 1.816200
24.961200 1.919500
25.010500 1.984700
25.059800 1.986500
25.109100 2.035500
25.158400 1.967600
25.207600 2.051400
25.256900 2.061700
25.306200 1.914600
25.355500 1.638000
25.404800 1.479100
25.454100 1.382400
25.503400 1.340300
25.552600 1.367300
25.601900 1.409100
25.651200 1.463400
25.700500 1.556200
25.749800 1.595100
25.799100 1.636900
25.848400 1.710100
25.897600 1.831300
25.946900 1.930400
25.996200 2.009400
26.045500 2.134700
26.094800 2.070200
26.144100 2.017200
26.193400 1.980200
26.242600 2.000400
26.291900 1.941100
26.341200 1.899800
26.390500 1.863500
26.439800 1.829500
26.489100 1.799600
26.538400 1.768900
26.587600 1.739900
26.636900 1.692400
26.686200 1.621700
26.735500 1.658700
26.784800 1.652700
26.834100 1.670200
26.883400 1.743800
26.932600 1.787400
26.981900 1.818300
27.031200 1.882500
27.080500 1.857900
27.129800 1.866600
27.179100 1.819700
27.228400 1.836100
27.277600 1.882700
27.326900 1.948600
27.376200 2.005400
27.425500 1.960100
27.474800 1.913300
27.524100 1.862200
27.573400 1.794600
27.622600 1.761400
27.671900 1.817200
27.721200 1.996200
27.770500 2.103000
27.819800 2.144900
27.869100 2.198000
27.918400 2.271100
27.967600 2.415200
28.016900 2.523300
28.066200 2.495600
28.115500 2.455200
28.164800 2.420800
28.214100 2.349300
28.263400 2.338400
28.312600 2.335300
28.361900 2.130800
28.411200 1.940300
28.460500 1.787600
28.509800 1.769700
28.559100 1.783000
28.608400 1.751400
28.657600 1.815400
28.706900 1.924000
28.756200 2.059700
28.805500 2.224600
28.854800 2.419000
28.904100 2.524200
28.953400 2.383800
29.002600 2.238100
29.051900 2.148800
29.101200 2.038700
29.150500 2.019300
29.199800 2.004500
29.249100 1.972000
29.298400 1.938400
29.347600 1.812000
29.396900 1.669100
29.446200 1.587900
29.495500 1.569800
29.544800 1.593700
29.594100 1.648400
29.643400 1.616800
29.692600 1.638500
29.741900 1.558900
29.791200 1.526900
29.840500 1.567000
29.889800 1.618200
29.939100 1.701400
29.988300 1.814500
30.037600 1.845500
30.086900 1.871300
30.136200 1.838800
30.185500 1.805900
30.234800 1.786600
30.284100 1.814900
30.333300 1.892800
30.382600 2.007400
30.431900 2.066300
30.481200 2.079700
30.530500 2.047100
30.579800 2.168300
30.629100 2.145900
30.678300 2.126200
30.727600 2.062700
30.776900 2.205600
30.826200 2.128400
30.875500 2.131300
30.924800 2.153300
30.974100 1.902100
31.023300 1.757300
31.072600 1.706500
31.121900 1.697300
31.171200 1.674500
31.220500 1.625800
31.269800 1.607300
31.319100 1.564900
31.368300 1.625400
31.417600 1.798000
31.466900 1.921200
31.516200 1.961000
31.565500 2.010300
31.614800 2.035700
31.664100 1.971800
31.713300 1.957500
31.762600 1.929100
31.811900 1.886300
31.861200 1.814700
31.910500 1.804300
31.959800 1.652100
32.009100 1.735900
32.058300 1.731700
32.107600 1.757700
32.156900 1.833100
32.206200 1.957800
32.255500 2.137900
32.304800 2.221400
32.354100 2.311800
32.403300 2.239800
32.452600 2.246400
32.501900 2.221400
32.551200 2.257600
32.600500 2.294300
32.649800 2.343900
32.699100 2.360200
32.748300 2.202900
32.797600 2.108000
32.846900 2.058100
32.896200 2.096000
32.945500 2.175700
32.994800 2.272500
33.044100 2.301300
33.093300 2.261200
33.142600 2.280400
33.191900 2.300700
33.241200 2.243600
33.290500 2.128000
33.339800 2.240800
33.389100 2.158600
33.438300 2.057400
33.487600 2.018800
33.536900 1.980700
33.586200 1.985300
33.635500 2.036100
33.684800 2.117300
33.734100 2.234000
33.783300 2.314400
33.832600 2.316700
33.881900 2.355200
33.931200 2.125500
33.980500 2.056800
34.029800 2.015200
34.079100 2.064000
34.128300 1.958000
34.177600 2.019600
34.226900 1.996900
34.276200 1.912500
34.325500 1.765800
34.374800 1.692900
34.424100 1.649400
34.473300 1.711400
34.522600 1.747200
34.571900 1.682900
34.621200 1.612000
34.670500 1.600600
34.719800 1.559000
34.769100 1.559200
34.818300 1.641000
34.867600 1.691300
34.916900 1.693000
34.966200 1.696900
35.015500 1.745200
35.064800 1.904700
35.114100 2.027600
35.163300 2.009100
35.212600 2.064400
35.261900 2.158400
35.311200 2.321300
35.360500 2.358400
35.409800 2.381600
35.459100 2.399200
35.508300 2.336400
35.557600 2.216100
35.606900 2.077700
35.656200 1.968800
35.705500 1.963600
35.754800 2.032800
35.804100 2.065300
35.853300 2.072200
35.902600 2.128800
35.951900 2.299000
36.001200 2.285600
36.050500 2.118400
36.099800 2.060700
36.149100 2.101400
36.198300 2.101100
36.247600 2.155500
36.296900 2.083500
36.346200 1.952500
36.395500 2.028000
36.444800 2.135100
36.494100 2.065900
36.543300 2.187400
36.592600 2.286200
36.641900 2.269300
36.691200 2.325100
36.740500 2.371300
36.789800 2.355200
36.839100 2.195400
36.888300 1.982100
36.937600 1.802300
36.986900 1.724300
37.036200 1.732900
37.085500 1.935300
37.134800 2.029300
37.184100 2.256400
37.233300 2.269100
37.282600 2.442300
37.331900 2.633000
37.381200 2.540800
37.430500 2.387900
37.479800 2.176000
37.529100 1.927600
37.578300 1.876400
37.627600 1.922900
37.676900 2.047200
37.726200 2.026900
37.775500 2.003900
37.824800 2.122300
37.874100 2.323500
37.923300 2.318100
37.972600 2.132800
38.021900 1.949300
38.071200 1.779900
38.120500 1.774800
38.169800 1.843500
38.219100 1.930700
38.268300 2.131600
38.317600 2.115100
38.366900 2.174400
38.416200 2.118800
38.465500 2.027300
38.514800 1.977400
38.564100 2.027200
38.613300 2.154500
38.662600 2.283200
38.711900 2.254300
38.761200 2.172800
38.810500 2.130400
38.859800 1.990400
38.909100 2.060100
38.958300 2.194300
39.007600 2.180400
39.056900 2.491500
39.106200 2.527700
39.155500 2.526700
39.204800 2.442100
39.254100 2.456300
39.303300 2.507900
39.352600 2.716400
39.401900 2.686900
39.451200 2.656900
39.500500 2.740900
39.549800 2.614400
39.599100 2.394900
39.648300 2.351300
39.697600 2.299200
39.746900 2.176100
39.796200 2.092300
39.845500 2.552600
39.894800 2.839200
39.944100 2.217200
39.993300 2.020200
40.042600 2.022100
40.091900 2.118000
40.141200 2.089800
40.190500 2.154600
40.239800 2.238300
40.289100 2.356300
40.338300 2.493100
40.387600 2.706600
40.436900 2.949200
40.486200 3.042900
40.535500 2.956600
40.584800 2.762600
40.634100 2.626700
40.683300 2.571200
40.732600 2.541500
40.781900 2.449500
40.831200 2.378100
40.880500 2.443000
40.929800 2.361900
40.979100 2.231500
41.028300 2.060900
41.077600 1.971000
41.126900 1.974800
41.176200 2.044000
41.225500 2.221300
41.274800 2.317200
41.324100 2.217700
41.373300 2.313900
41.422600 2.437700
41.471900 2.533800
41.521200 2.698900
41.570500 2.971300
41.619800 3.258600
41.669100 3.727400
41.718300 3.658000
41.767600 4.028200
41.816900 4.327600
41.866200 4.724100
41.915500 5.076700
41.964800 2.745900
42.014100 2.005900
42.063300 2.152900
42.112600 2.973100
42.161900 3.860700
42.211200 4.177800
42.260500 4.201600
42.309800 3.533500
42.359100 3.431500
42.408300 3.294400
42.457600 3.000100
42.506900 2.795700
42.556200 2.708300
42.605500 2.728200
42.654800 2.833200
42.704100 2.876500
42.753300 2.818400
42.802600 2.800200
42.851900 2.951900
42.901200 2.981400
42.950500 2.885200
42.999800 2.758200
43.049100 2.673000
43.098300 2.413000
43.147600 2.205700
43.196900 2.170500
43.246200 2.142000
43.295500 2.176300
43.344800 2.182700
43.394100 2.248400
43.443300 2.274900
43.492600 2.252700
43.541900 2.311600
43.591200 2.329000
43.640500 2.275500
43.689800 2.202300
43.739100 2.193700
43.788300 2.310100
43.837600 2.118500
43.886900 2.150000
43.936200 2.082200
43.985500 2.124800
44.034800 2.257500
44.084100 2.408600
44.133300 2.306200
44.182600 2.369400
44.231900 2.333300
44.281200 2.436000
44.330500 2.404300
44.379800 2.274100
44.429100 2.294900
44.478300 2.186100
44.527600 2.055700
44.576900 1.901600
44.626200 1.881400
44.675500 1.916900
44.724800 1.871500
44.774100 1.780600
44.823300 1.576400
44.872600 1.363200
44.921900 1.243200
44.971200 1.192500
45.020500 1.217600
45.069800 1.245100
45.119100 1.264200
45.168300 1.256200
45.217600 1.230900
45.266900 1.189500
45.316200 1.046500
45.365500 0.920200
45.414800 0.832700
45.464100 0.724900
45.513300 0.651800
45.562600 0.531100
45.611900 0.503800
45.661200 0.478400
45.710500 0.460200
45.759800 0.458300
45.809100 0.515300
45.858300 0.593900
45.907600 0.641400
45.956900 0.727600
46.006200 0.713000
46.055500 0.653300
46.104800 0.649900
46.154100 0.513900
46.203300 0.411500
46.252600 0.312000
46.301900 0.240700
46.351200 0.196400
46.400500 0.161100
46.449800 0.136300
46.499100 0.120400
46.548300 0.100600
46.597600 0.065800
46.646900 0.033700
46.696200 0.028200
46.745500 0.024100
46.794800 0.020100
46.844100 0.016500
46.893300 0.013200
46.942600 0.010300
46.991900 0.007700
47.041200 0.005400
47.090500 0.003600
47.139800 0.002100
47.189100 0.000900
47.238300 0.000300
47.287600 0.000000
47.336900 0.000000
47.386200 0.000000
47.435500 0.000000
47.484800 0.000000
47.534100 0.000000
47.583300 0.000000
47.632600 0.000000
47.681900 0.000000
47.731200 0.000000
47.780500 0.000000
47.829800 0.000000
47.879100 0.000000
47.928300 0.000000
47.977600 0.000000
48.026900 0.000000
48.076200 0.000000
48.125500 0.000000
48.174800 0.000000
48.224100 0.000000
48.273300 0.000000
48.322600 0.000000
48.371900 0.000000
48.421200 0.000000
48.470500 0.000000
48.519800 0.000000
48.569100 0.000000
48.618300 0.000000
48.667600 0.000000
48.716900 0.000000
48.766200 0.000000
48.815500 0.000000
48.864800 0.000000
48.914100 0.000000
48.963300 0.000000
49.012600 0.000000
49.061900 0.000000
49.111200 0.000000
49.160500 0.000000
49.209800 0.000000
49.259100 0.000000
49.308300 0.000000
49.357600 0.000000
49.406900 0.000000
49.456200 0.000000
49.505500 0.000000
49.554800 0.000000
49.604100 0.000000
49.653300 0.000000
49.702600 0.000000
49.751900 0.000000
49.801200 0.000000
49.850500 0.000000
49.899800 0.000000
49.949100 0.000000
49.998300 0.000000
50.047600 0.000000
50.096900 0.000000
50.146200 0.000000
50.195500 0.000000
50.244800 0.000000
50.294100 0.000000
50.343300 0.000000
50.392600 0.000000
50.441900 0.000000
50.491200 0.000000
50.540500 0.000000
50.589800 0.000000
50.639100 0.000000
50.688300 0.000000
50.737600 0.000000
50.786900 0.000000
50.836200 0.000000
50.885500 0.000000
50.934800 0.000000
50.984100 0.000000
51.033300 0.000000
51.082600 0.000000
51.131900 0.000000
51.181200 0.000000
51.230500 0.000000
51.279800 0.000000
51.329100 0.000000
51.378300 0.000000
51.427600 0.000000
51.476900 0.000000
51.526200 0.000000
51.575500 0.000000
51.624800 0.000000
51.674000 0.000000
51.723300 0.000000
51.772600 0.000000
e
