set title 'mp-1184756 - Density of States'
set xlabel 'Energy (eV)'
set ylabel 'DOS (states/eV)'
set grid
set xrange [-10:10]
set yrange [0:23.373]
set xzeroaxis lt -1
set terminal png size 800,600
set output 'mp-1184756_dos_gnuplot.png'
plot '-' using 1:2 with lines title 'DOS'
-10.978500 0.000000
-10.958200 0.000000
-10.937900 0.000000
-10.917600 0.000000
-10.897300 0.000000
-10.877000 0.000000
-10.856700 0.000000
-10.836400 0.000000
-10.816100 0.000000
-10.795800 0.000000
-10.775500 0.000000
-10.755200 0.000000
-10.734900 0.000000
-10.714600 0.000000
-10.694300 0.000000
-10.674000 0.000000
-10.653700 0.000000
-10.633400 0.000000
-10.613000 0.000000
-10.592700 0.000000
-10.572400 0.000000
-10.552100 0.000000
-10.531800 0.000000
-10.511500 0.000000
-10.491200 0.000000
-10.470900 0.000000
-10.450600 0.000000
-10.430300 0.000000
-10.410000 0.000000
-10.389700 0.000000
-10.369400 0.000000
-10.349100 0.000000
-10.328800 0.000000
-10.308500 0.000000
-10.288200 0.000000
-10.267800 0.000000
-10.247500 0.000000
-10.227200 0.000000
-10.206900 0.000000
-10.186600 0.000000
-10.166300 0.000000
-10.146000 0.000000
-10.125700 0.000000
-10.105400 0.000000
-10.085100 0.000000
-10.064800 0.000000
-10.044500 0.000000
-10.024200 0.000000
-10.003900 0.000000
-9.983600 0.000000
-9.963300 0.000000
-9.943000 0.000000
-9.922600 0.000000
-9.902300 0.000000
-9.882000 0.000000
-9.861700 0.000000
-9.841400 0.000000
-9.821100 0.000000
-9.800800 0.000000
-9.780500 0.000000
-9.760200 0.000000
-9.739900 0.000000
-9.719600 0.000000
-9.699300 0.000000
-9.679000 0.000000
-9.658700 0.000000
-9.638400 0.000000
-9.618100 0.000000
-9.597800 0.000000
-9.577400 0.000000
-9.557100 0.000000
-9.536800 0.000000
-9.516500 0.000000
-9.496200 0.000000
-9.475900 0.000000
-9.455600 0.000000
-9.435300 0.000000
-9.415000 0.000000
-9.394700 0.000000
-9.374400 0.000000
-9.354100 0.000000
-9.333800 0.000000
-9.313500 0.000000
-9.293200 0.000000
-9.272900 0.000000
-9.252600 0.000000
-9.232200 0.000000
-9.211900 0.000000
-9.191600 0.000000
-9.171300 0.000000
-9.151000 0.000000
-9.130700 0.001200
-9.110400 0.166900
-9.090100 0.464400
-9.069800 0.540800
-9.049500 0.664500
-9.029200 0.808200
-9.008900 0.923700
-8.988600 1.003000
-8.968300 1.098100
-8.948000 1.205200
-8.927700 1.313900
-8.907400 1.420400
-8.887000 1.530900
-8.866700 1.645900
-8.846400 1.760700
-8.826100 1.881100
-8.805800 2.010000
-8.785500 2.151900
-8.765200 2.302200
-8.744900 2.460800
-8.724600 2.648800
-8.704300 2.840600
-8.684000 3.065100
-8.663700 3.299900
-8.643400 3.550600
-8.623100 4.027100
-8.602800 4.502200
-8.582500 4.732200
-8.562200 5.021600
-8.541800 5.266800
-8.521500 5.567100
-8.501200 5.915900
-8.480900 6.480300
-8.460600 7.306000
-8.440300 8.884300
-8.420000 9.051800
-8.399700 9.689100
-8.379400 9.873500
-8.359100 10.235800
-8.338800 10.339100
-8.318500 11.263300
-8.298200 11.475100
-8.277900 12.208200
-8.257600 14.117100
-8.237300 0.000000
-8.217000 0.000000
-8.196700 0.000000
-8.176300 0.000000
-8.156000 0.000000
-8.135700 0.000000
-8.115400 0.000000
-8.095100 0.000000
-8.074800 0.000000
-8.054500 0.000000
-8.034200 0.000000
-8.013900 0.000000
-7.993600 0.000000
-7.973300 0.000000
-7.953000 0.000000
-7.932700 0.000000
-7.912400 0.000000
-7.892100 0.000000
-7.871800 0.000000
-7.851500 0.000000
-7.831100 0.000000
-7.810800 0.000000
-7.790500 0.000000
-7.770200 0.000000
-7.749900 0.000000
-7.729600 0.000000
-7.709300 0.000000
-7.689000 0.000000
-7.668700 0.000000
-7.648400 0.000000
-7.628100 0.000000
-7.607800 0.000000
-7.587500 0.000000
-7.567200 0.000000
-7.546900 0.000000
-7.526600 0.000000
-7.506300 0.000000
-7.485900 0.000000
-7.465600 0.000000
-7.445300 0.000000
-7.425000 0.000000
-7.404700 0.000000
-7.384400 0.000000
-7.364100 0.000000
-7.343800 0.000000
-7.323500 0.000000
-7.303200 0.000000
-7.282900 0.000000
-7.262600 0.000000
-7.242300 0.000000
-7.222000 0.000000
-7.201700 0.000000
-7.181400 0.000000
-7.161100 0.000000
-7.140700 0.000000
-7.120400 0.000000
-7.100100 0.000000
-7.079800 0.000000
-7.059500 0.000000
-7.039200 0.000000
-7.018900 0.000000
-6.998600 0.000000
-6.978300 0.000000
-6.958000 0.000000
-6.937700 0.000000
-6.917400 0.000000
-6.897100 0.000000
-6.876800 0.000000
-6.856500 0.000000
-6.836200 0.000000
-6.815900 0.000000
-6.795500 0.000000
-6.775200 0.000000
-6.754900 0.000000
-6.734600 0.000000
-6.714300 0.000000
-6.694000 0.000000
-6.673700 0.000000
-6.653400 0.000000
-6.633100 0.000000
-6.612800 0.000000
-6.592500 0.000000
-6.572200 0.000000
-6.551900 0.000000
-6.531600 0.000000
-6.511300 0.000000
-6.491000 0.000000
-6.470700 0.000000
-6.450300 0.000000
-6.430000 0.000000
-6.409700 0.000000
-6.389400 0.000000
-6.369100 0.000000
-6.348800 0.000000
-6.328500 0.000000
-6.308200 0.000000
-6.287900 0.000000
-6.267600 0.000000
-6.247300 0.000000
-6.227000 0.000000
-6.206700 0.000000
-6.186400 0.000000
-6.166100 0.000000
-6.145800 0.000000
-6.125500 0.000000
-6.105100 0.000000
-6.084800 0.000000
-6.064500 0.000000
-6.044200 0.000000
-6.023900 0.000000
-6.003600 0.000000
-5.983300 0.000000
-5.963000 0.000000
-5.942700 0.000000
-5.922400 0.000000
-5.902100 0.000000
-5.881800 0.000000
-5.861500 0.000000
-5.841200 0.000000
-5.820900 0.000000
-5.800600 0.000000
-5.780300 0.000000
-5.760000 0.000000
-5.739600 0.000000
-5.719300 0.000000
-5.699000 0.000000
-5.678700 0.000000
-5.658400 0.000000
-5.638100 0.000000
-5.617800 0.000000
-5.597500 0.000000
-5.577200 0.000000
-5.556900 0.000000
-5.536600 0.000000
-5.516300 0.000000
-5.496000 0.000000
-5.475700 0.000000
-5.455400 0.000000
-5.435100 0.000000
-5.414800 0.000000
-5.394400 0.000000
-5.374100 0.000000
-5.353800 0.000000
-5.333500 0.000000
-5.313200 0.000000
-5.292900 0.000000
-5.272600 0.000000
-5.252300 0.000000
-5.232000 0.000000
-5.211700 0.000000
-5.191400 0.000000
-5.171100 0.000000
-5.150800 0.000000
-5.130500 0.000000
-5.110200 0.000000
-5.089900 0.000000
-5.069600 0.000000
-5.049200 0.000000
-5.028900 0.000000
-5.008600 0.000000
-4.988300 0.000000
-4.968000 0.000000
-4.947700 0.000000
-4.927400 0.000000
-4.907100 0.000000
-4.886800 0.000000
-4.866500 0.000000
-4.846200 0.000000
-4.825900 0.000000
-4.805600 0.000000
-4.785300 0.000000
-4.765000 0.000000
-4.744700 0.000000
-4.724400 0.000000
-4.704000 0.000000
-4.683700 0.000000
-4.663400 0.000000
-4.643100 0.000000
-4.622800 0.000000
-4.602500 0.000000
-4.582200 0.000000
-4.561900 0.000000
-4.541600 0.000000
-4.521300 0.000000
-4.501000 0.000000
-4.480700 0.000000
-4.460400 0.000000
-4.440100 0.000000
-4.419800 0.000000
-4.399500 0.000000
-4.379200 0.000000
-4.358800 0.000000
-4.338500 0.000000
-4.318200 0.000000
-4.297900 0.000000
-4.277600 0.000000
-4.257300 0.000000
-4.237000 0.000000
-4.216700 0.000000
-4.196400 0.000000
-4.176100 0.000000
-4.155800 0.000000
-4.135500 0.000000
-4.115200 0.000000
-4.094900 0.000000
-4.074600 0.000000
-4.054300 0.000000
-4.034000 0.000000
-4.013600 0.000000
-3.993300 0.000000
-3.973000 0.000000
-3.952700 0.000000
-3.932400 0.000000
-3.912100 0.000000
-3.891800 0.000000
-3.871500 0.000000
-3.851200 0.000000
-3.830900 0.000000
-3.810600 0.000000
-3.790300 0.000000
-3.770000 0.000000
-3.749700 0.000000
-3.729400 0.000000
-3.709100 0.000000
-3.688800 0.000000
-3.668400 0.000000
-3.648100 0.000000
-3.627800 0.000000
-3.607500 0.000000
-3.587200 0.000000
-3.566900 0.000000
-3.546600 0.000000
-3.526300 0.000000
-3.506000 0.000000
-3.485700 0.000000
-3.465400 0.000000
-3.445100 0.000000
-3.424800 0.000000
-3.404500 0.000000
-3.384200 0.000000
-3.363900 0.000000
-3.343600 0.000000
-3.323300 0.000000
-3.302900 0.000000
-3.282600 0.000000
-3.262300 0.000000
-3.242000 0.000000
-3.221700 0.000000
-3.201400 0.000000
-3.181100 0.000000
-3.160800 0.000000
-3.140500 0.000000
-3.120200 0.000000
-3.099900 0.000000
-3.079600 0.000000
-3.059300 0.000000
-3.039000 0.000000
-3.018700 0.000000
-2.998400 0.000000
-2.978100 0.000000
-2.957700 0.000000
-2.937400 0.000000
-2.917100 0.000000
-2.896800 0.000000
-2.876500 0.000000
-2.856200 0.000000
-2.835900 0.000000
-2.815600 0.000000
-2.795300 0.000000
-2.775000 0.000000
-2.754700 0.000000
-2.734400 0.000000
-2.714100 0.000000
-2.693800 0.000000
-2.673500 0.000000
-2.653200 0.000000
-2.632900 0.000000
-2.612500 0.000000
-2.592200 0.000000
-2.571900 0.000000
-2.551600 0.000000
-2.531300 0.000000
-2.511000 0.000000
-2.490700 0.000000
-2.470400 0.000000
-2.450100 0.000000
-2.429800 0.000000
-2.409500 0.000000
-2.389200 0.000000
-2.368900 0.000000
-2.348600 0.000000
-2.328300 0.000000
-2.308000 0.000000
-2.287700 0.000000
-2.267300 0.000000
-2.247000 0.000000
-2.226700 0.000000
-2.206400 0.000000
-2.186100 0.000000
-2.165800 0.000000
-2.145500 0.000000
-2.125200 0.000000
-2.104900 0.000000
-2.084600 0.000000
-2.064300 0.000000
-2.044000 0.000000
-2.023700 0.000000
-2.003400 0.000000
-1.983100 0.000000
-1.962800 0.000000
-1.942500 0.000000
-1.922100 0.000000
-1.901800 0.000000
-1.881500 0.000000
-1.861200 0.000000
-1.840900 0.000000
-1.820600 0.000000
-1.800300 0.000000
-1.780000 0.000000
-1.759700 0.000000
-1.739400 0.000000
-1.719100 0.000000
-1.698800 0.000000
-1.678500 0.000000
-1.658200 0.000000
-1.637900 0.000000
-1.617600 0.000000
-1.597300 0.000000
-1.576900 0.000000
-1.556600 0.000000
-1.536300 0.000000
-1.516000 0.000000
-1.495700 0.000000
-1.475400 0.000000
-1.455100 0.000000
-1.434800 0.000000
-1.414500 0.000000
-1.394200 0.000000
-1.373900 0.000000
-1.353600 0.000000
-1.333300 0.000000
-1.313000 0.000000
-1.292700 0.000000
-1.272400 0.000000
-1.252100 0.000000
-1.231700 0.000000
-1.211400 0.000000
-1.191100 0.000000
-1.170800 0.000000
-1.150500 0.000000
-1.130200 0.000000
-1.109900 0.000000
-1.089600 0.000000
-1.069300 0.000000
-1.049000 0.000000
-1.028700 0.000000
-1.008400 0.000000
-0.988100 0.000000
-0.967800 0.000000
-0.947500 0.000000
-0.927200 0.000000
-0.906900 0.000000
-0.886600 0.000000
-0.866200 0.000000
-0.845900 0.000000
-0.825600 0.000000
-0.805300 0.000000
-0.785000 0.000000
-0.764700 0.000000
-0.744400 0.000000
-0.724100 0.000000
-0.703800 0.008900
-0.683500 0.073900
-0.663200 0.192900
-0.642900 0.284700
-0.622600 0.348700
-0.602300 0.371100
-0.582000 1.436400
-0.561700 2.083700
-0.541400 2.894000
-0.521000 3.821500
-0.500700 4.217200
-0.480400 4.606200
-0.460100 5.033500
-0.439800 5.434300
-0.419500 5.883800
-0.399200 6.585200
-0.378900 7.310700
-0.358600 8.204700
-0.338300 9.412400
-0.318000 11.684200
-0.297700 12.809700
-0.277400 12.159800
-0.257100 10.744400
-0.236800 9.228300
-0.216500 8.068800
-0.196200 7.114000
-0.175800 6.324500
-0.155500 5.773700
-0.135200 5.040700
-0.114900 4.289000
-0.094600 3.449900
-0.074300 3.033900
-0.054000 2.611900
-0.033700 2.272600
-0.013400 1.970900
0.006900 1.735500
0.027200 1.549500
0.047500 1.457300
0.067800 1.363800
0.088100 1.278200
0.108400 1.230700
0.128700 1.156700
0.149000 1.088000
0.169400 1.027200
0.189700 0.972800
0.210000 0.922700
0.230300 1.132600
0.250600 1.201600
0.270900 1.296300
0.291200 1.382500
0.311500 1.511500
0.331800 1.872800
0.352100 2.237800
0.372400 2.464900
0.392700 2.478700
0.413000 2.417600
0.433300 2.331700
0.453600 2.307100
0.473900 2.549300
0.494200 2.777700
0.514600 3.182300
0.534900 3.622300
0.555200 3.978900
0.575500 4.331700
0.595800 4.726300
0.616100 4.991100
0.636400 5.200400
0.656700 5.368800
0.677000 5.537400
0.697300 5.737000
0.717600 5.956800
0.737900 6.736100
0.758200 7.568100
0.778500 9.294500
0.798800 12.265400
0.819100 16.856200
0.839400 21.248500
0.859800 17.000500
0.880100 8.115000
0.900400 4.909400
0.920700 2.489300
0.941000 3.247000
0.961300 4.538200
0.981600 6.283800
1.001900 7.742500
1.022200 7.712400
1.042500 8.140800
1.062800 9.885600
1.083100 10.940400
1.103400 9.353300
1.123700 8.731200
1.144000 8.635700
1.164300 8.500900
1.184600 8.365100
1.205000 8.900600
1.225300 10.205400
1.245600 13.786500
1.265900 12.486200
1.286200 8.232300
1.306500 6.573100
1.326800 6.139900
1.347100 5.877000
1.367400 5.525600
1.387700 5.282800
1.408000 5.135400
1.428300 5.497500
1.448600 6.252100
1.468900 4.836000
1.489200 3.310200
1.509500 2.594600
1.529800 1.867300
1.550100 1.231100
1.570500 0.665300
1.590800 0.244700
1.611100 0.010900
1.631400 0.000000
1.651700 0.000000
1.672000 0.000000
1.692300 0.000000
1.712600 0.000000
1.732900 0.000000
1.753200 0.000000
1.773500 0.000000
1.793800 0.000000
1.814100 0.000000
1.834400 0.000000
1.854700 0.000000
1.875000 0.000000
1.895300 0.000000
1.915700 0.000000
1.936000 0.000000
1.956300 0.000000
1.976600 0.000000
1.996900 0.000000
2.017200 0.000000
2.037500 0.000000
2.057800 0.000000
2.078100 0.000000
2.098400 0.000000
2.118700 0.000000
2.139000 0.000000
2.159300 0.000000
2.179600 0.000000
2.199900 0.000000
2.220200 0.000000
2.240500 0.000000
2.260900 0.000000
2.281200 0.000000
2.301500 0.000000
2.321800 0.000000
2.342100 0.000000
2.362400 0.000000
2.382700 0.000000
2.403000 0.000000
2.423300 0.000000
2.443600 0.000000
2.463900 0.000000
2.484200 0.000000
2.504500 0.000000
2.524800 0.000000
2.545100 0.000000
2.565400 0.000000
2.585700 0.000000
2.606100 0.000000
2.626400 0.000000
2.646700 0.000000
2.667000 0.000000
2.687300 0.000000
2.707600 0.000000
2.727900 0.000000
2.748200 0.000000
2.768500 0.000000
2.788800 0.000000
2.809100 0.000000
2.829400 0.000000
2.849700 0.000000
2.870000 0.000000
2.890300 0.000000
2.910600 0.000000
2.930900 0.000000
2.951300 0.000000
2.971600 0.000000
2.991900 0.000000
3.012200 0.000000
3.032500 0.000000
3.052800 0.000000
3.073100 0.000000
3.093400 0.000000
3.113700 0.000000
3.134000 0.000000
3.154300 0.000000
3.174600 0.000000
3.194900 0.000000
3.215200 0.000000
3.235500 0.000000
3.255800 0.000000
3.276100 0.000000
3.296500 0.000000
3.316800 0.000000
3.337100 0.000000
3.357400 0.000000
3.377700 0.000000
3.398000 0.000000
3.418300 0.000000
3.438600 0.000000
3.458900 0.000000
3.479200 0.000000
3.499500 0.000000
3.519800 0.000000
3.540100 0.000000
3.560400 0.000000
3.580700 0.000000
3.601000 0.000000
3.621300 0.164400
3.641700 0.587200
3.662000 1.082100
3.682300 1.659700
3.702600 2.274600
3.722900 2.800800
3.743200 3.592500
3.763500 5.338100
3.783800 6.358000
3.804100 6.586800
3.824400 7.471700
3.844700 8.114900
3.865000 8.505900
3.885300 8.199500
3.905600 8.065700
3.925900 8.056600
3.946200 8.106100
3.966500 8.298000
3.986800 8.554000
4.007200 8.831100
4.027500 10.027600
4.047800 16.464600
4.068100 11.351100
4.088400 8.620500
4.108700 7.349500
4.129000 6.768900
4.149300 6.131300
4.169600 7.495700
4.189900 5.903500
4.210200 6.400200
4.230500 5.940800
4.250800 5.600800
4.271100 5.752000
4.291400 6.505400
4.311700 8.758800
4.332000 7.093400
4.352400 6.769500
4.372700 7.280700
4.393000 8.428300
4.413300 10.181300
4.433600 11.209800
4.453900 11.564500
4.474200 12.152200
4.494500 13.329400
4.514800 16.958200
4.535100 16.205200
4.555400 12.583600
4.575700 11.646000
4.596000 10.853100
4.616300 10.119300
4.636600 9.548000
4.656900 8.836500
4.677200 8.522300
4.697600 8.448100
4.717900 8.488400
4.738200 5.622500
4.758500 6.109500
4.778800 6.695700
4.799100 6.375000
4.819400 5.519700
4.839700 5.408100
4.860000 5.385300
4.880300 5.086500
4.900600 5.777200
4.920900 5.777600
4.941200 5.233100
4.961500 4.646500
4.981800 4.230700
5.002100 4.081700
5.022400 4.139700
5.042800 4.757400
5.063100 4.337800
5.083400 3.310500
5.103700 2.864800
5.124000 2.563400
5.144300 2.495800
5.164600 2.557800
5.184900 2.713700
5.205200 2.936000
5.225500 3.008100
5.245800 3.558700
5.266100 3.922500
5.286400 4.069400
5.306700 4.200300
5.327000 4.269500
5.347300 4.384800
5.367600 4.516800
5.388000 4.205300
5.408300 3.725400
5.428600 3.654500
5.448900 3.603000
5.469200 3.570900
5.489500 3.557700
5.509800 3.501900
5.530100 3.657400
5.550400 3.788700
5.570700 3.912300
5.591000 4.495000
5.611300 4.986100
5.631600 5.342600
5.651900 5.668800
5.672200 5.982800
5.692500 6.428700
5.712800 7.562400
5.733200 6.080400
5.753500 5.403800
5.773800 5.003800
5.794100 4.491400
5.814400 4.155900
5.834700 3.960900
5.855000 3.238300
5.875300 3.230200
5.895600 3.205800
5.915900 3.230000
5.936200 3.285200
5.956500 3.618400
5.976800 4.055100
5.997100 4.033200
6.017400 3.946100
6.037700 3.944500
6.058000 3.868900
6.078300 3.757900
6.098700 3.714000
6.119000 3.700700
6.139300 3.615900
6.159600 3.544900
6.179900 3.535200
6.200200 3.552200
6.220500 3.581400
6.240800 3.623000
6.261100 3.675600
6.281400 3.722400
6.301700 3.742900
6.322000 3.757800
6.342300 3.841800
6.362600 4.202800
6.382900 4.683600
6.403200 4.167700
6.423500 4.126600
6.443900 4.092700
6.464200 4.198400
6.484500 4.240400
6.504800 4.117500
6.525100 4.029400
6.545400 3.963500
6.565700 3.994600
6.586000 3.877500
6.606300 3.753300
6.626600 3.715800
6.646900 3.871500
6.667200 4.130400
6.687500 4.024100
6.707800 3.896200
6.728100 3.729900
6.748400 3.563600
6.768700 3.444800
6.789100 3.391200
6.809400 3.339000
6.829700 3.284300
6.850000 3.223100
6.870300 3.142000
6.890600 3.065900
6.910900 2.995800
6.931200 2.946400
6.951500 2.898900
6.971800 2.853500
6.992100 2.807400
7.012400 2.765500
7.032700 2.738200
7.053000 2.691500
7.073300 2.681900
7.093600 2.674800
7.113900 2.670100
7.134300 2.668700
7.154600 2.655500
7.174900 2.641900
7.195200 2.650100
7.215500 2.679600
7.235800 2.693100
7.256100 2.693900
7.276400 2.707100
7.296700 3.000900
7.317000 3.051200
7.337300 2.970700
7.357600 2.766500
7.377900 2.434600
7.398200 2.046000
7.418500 1.599600
7.438800 1.488500
7.459100 1.431700
7.479500 1.380900
7.499800 1.332200
7.520100 1.285900
7.540400 1.241300
7.560700 1.198600
7.581000 1.157000
7.601300 1.117000
7.621600 1.078000
7.641900 1.039300
7.662200 0.999400
7.682500 0.963000
7.702800 0.931100
7.723100 0.901200
7.743400 0.878400
7.763700 0.852500
7.784000 0.827000
7.804300 0.802000
7.824700 0.776900
7.845000 0.749900
7.865300 0.718900
7.885600 0.689800
7.905900 0.668100
7.926200 0.648800
7.946500 0.629300
7.966800 0.609600
7.987100 0.589600
8.007400 0.569500
8.027700 0.550400
8.048000 0.549700
8.068300 0.530400
8.088600 0.502200
8.108900 0.494200
8.129200 0.444600
8.149500 0.393000
8.169900 0.345200
8.190200 0.290500
8.210500 0.210000
8.230800 0.143500
8.251100 0.080200
8.271400 0.024000
8.291700 0.031100
8.312000 0.038700
8.332300 0.046800
8.352600 0.055300
8.372900 0.064300
8.393200 0.073800
8.413500 0.083700
8.433800 0.094000
8.454100 0.115200
8.474400 0.160200
8.494700 0.236900
8.515000 0.482600
8.535400 0.779600
8.555700 0.892300
8.576000 0.942400
8.596300 0.991500
8.616600 1.061300
8.636900 1.222500
8.657200 1.241100
8.677500 1.253900
8.697800 1.215300
8.718100 1.180200
8.738400 1.257600
8.758700 1.593900
8.779000 1.875500
8.799300 1.964900
8.819600 2.012900
8.839900 2.057200
8.860200 2.097300
8.880600 2.106200
8.900900 2.091600
8.921200 2.063700
8.941500 1.887700
8.961800 1.781900
8.982100 1.732300
9.002400 1.742900
9.022700 1.757200
9.043000 1.775100
9.063300 1.768100
9.083600 1.765100
9.103900 1.772900
9.124200 1.778300
9.144500 1.781900
9.164800 1.783900
9.185100 1.785500
9.205400 1.789400
9.225800 1.795500
9.246100 1.803200
9.266400 1.811700
9.286700 1.821700
9.307000 1.837600
9.327300 1.854100
9.347600 1.848000
9.367900 1.854200
9.388200 1.857200
9.408500 1.858600
9.428800 1.859300
9.449100 1.860000
9.469400 1.862200
9.489700 1.870900
9.510000 1.884900
9.530300 1.903600
9.550600 1.923700
9.571000 1.944800
9.591300 1.966900
9.611600 1.988100
9.631900 2.004600
9.652200 2.020200
9.672500 2.023000
9.692800 2.025600
9.713100 2.040300
9.733400 2.058400
9.753700 2.073300
9.774000 2.098500
9.794300 2.133100
9.814600 2.171800
9.834900 2.208000
9.855200 2.273100
9.875500 2.245900
9.895800 2.190900
9.916200 2.137300
9.936500 2.159600
9.956800 1.964800
9.977100 1.933000
9.997400 1.905300
10.017700 1.889400
10.038000 1.890700
10.058300 1.905500
10.078600 1.930900
10.098900 1.967900
10.119200 2.020300
10.139500 2.087800
10.159800 2.213800
10.180100 2.549400
10.200400 2.646200
10.220700 2.630100
10.241000 2.662800
10.261400 2.743600
10.281700 2.797300
10.302000 2.801200
10.322300 2.783300
10.342600 2.753300
10.362900 2.743800
10.383200 2.672100
10.403500 2.374600
10.423800 2.064500
10.444100 1.830800
10.464400 1.651700
10.484700 1.500600
10.505000 1.351100
10.525300 1.209200
10.545600 1.073800
10.565900 0.938400
10.586200 0.865300
10.606600 0.890400
10.626900 0.850000
10.647200 0.817800
10.667500 0.849700
10.687800 0.828800
10.708100 0.795300
10.728400 0.780400
10.748700 0.682500
10.769000 0.618700
10.789300 0.831600
10.809600 0.886600
10.829900 1.224500
10.850200 1.679500
10.870500 1.983700
10.890800 2.161300
10.911100 2.210500
10.931400 2.239500
10.951700 2.238400
10.972100 2.149100
10.992400 2.090800
11.012700 2.025400
11.033000 1.936000
11.053300 1.851300
11.073600 1.766600
11.093900 1.688000
11.114200 1.620300
11.134500 1.644100
11.154800 1.677700
11.175100 1.705300
11.195400 1.727400
11.215700 1.746000
11.236000 1.766900
11.256300 1.786800
11.276600 1.805800
11.296900 1.826300
11.317300 1.848800
11.337600 1.875400
11.357900 1.912400
11.378200 1.958900
11.398500 1.972600
11.418800 1.959500
11.439100 1.946700
11.459400 1.932400
11.479700 1.975000
11.500000 2.046400
11.520300 2.184500
11.540600 2.292100
11.560900 2.370900
11.581200 2.491700
11.601500 2.579900
11.621800 2.629300
11.642100 2.720200
11.662500 3.107700
11.682800 3.713400
11.703100 4.259100
11.723400 5.095000
11.743700 5.842200
11.764000 6.242200
11.784300 6.839900
11.804600 7.078600
11.824900 6.947500
11.845200 6.872200
11.865500 6.658800
11.885800 5.469100
11.906100 4.161000
11.926400 3.428000
11.946700 3.017900
11.967000 2.731600
11.987300 2.514900
12.007700 2.247800
12.028000 1.964500
12.048300 1.709200
12.068600 1.477300
12.088900 1.287200
12.109200 1.179200
12.129500 1.094500
12.149800 1.034400
12.170100 1.007600
12.190400 1.042300
12.210700 1.089500
12.231000 1.230300
12.251300 1.631400
12.271600 2.796200
12.291900 4.061300
12.312200 4.065800
12.332500 4.691000
12.352900 4.466400
12.373200 4.614200
12.393500 4.790400
12.413800 4.889800
12.434100 5.050700
12.454400 4.481600
12.474700 4.193000
12.495000 4.470300
12.515300 4.543700
12.535600 4.357000
12.555900 4.006300
12.576200 4.308100
12.596500 4.967000
12.616800 4.542300
12.637100 4.184200
12.657400 3.964500
12.677700 3.876500
12.698100 3.801300
12.718400 3.734200
12.738700 3.675600
12.759000 3.612000
12.779300 3.556300
12.799600 3.479300
12.819900 3.264700
12.840200 2.976700
12.860500 2.964500
12.880800 2.981900
12.901100 2.690100
12.921400 2.467100
12.941700 2.255100
12.962000 2.088200
12.982300 2.001200
13.002600 2.050400
13.022900 2.163100
13.043300 2.322900
13.063600 2.422000
13.083900 2.522000
13.104200 2.627200
13.124500 2.737400
13.144800 2.850800
13.165100 2.992700
13.185400 3.141500
13.205700 3.373300
13.226000 3.747700
13.246300 4.146100
13.266600 4.296400
13.286900 4.491800
13.307200 4.636000
13.327500 4.754000
13.347800 4.833600
13.368100 4.786300
13.388400 4.820100
13.408800 4.834600
13.429100 4.594200
13.449400 3.958800
13.469700 3.464900
13.490000 3.161500
13.510300 3.005700
13.530600 2.920700
13.550900 2.859000
13.571200 2.798000
13.591500 2.718500
13.611800 2.640100
13.632100 2.564400
13.652400 2.507600
13.672700 2.650300
13.693000 2.943400
13.713300 3.182100
13.733600 3.248900
13.754000 2.595000
13.774300 2.235400
13.794600 2.188800
13.814900 2.182200
13.835200 2.184600
13.855500 2.171500
13.875800 2.166100
13.896100 2.245000
13.916400 2.274000
13.936700 2.287600
13.957000 2.309500
13.977300 2.339400
13.997600 2.376000
14.017900 2.409400
14.038200 2.438900
14.058500 2.492000
14.078800 2.641700
14.099200 2.875700
14.119500 3.020800
14.139800 3.103100
14.160100 3.168900
14.180400 3.226100
14.200700 3.228400
14.221000 3.172000
14.241300 2.996400
14.261600 2.827000
14.281900 2.762000
14.302200 2.679800
14.322500 2.609600
14.342800 2.590300
14.363100 2.605300
14.383400 2.684000
14.403700 2.852800
14.424000 3.132000
14.444400 3.372100
14.464700 3.446800
14.485000 3.383700
14.505300 3.186100
14.525600 2.854300
14.545900 2.461300
14.566200 2.160500
14.586500 2.117700
14.606800 2.100100
14.627100 2.073600
14.647400 2.160900
14.667700 2.121900
14.688000 2.073300
14.708300 2.433000
14.728600 2.033200
14.748900 1.771000
14.769200 1.451400
14.789600 1.241500
14.809900 1.180500
14.830200 1.136700
14.850500 1.107600
14.870800 1.090100
14.891100 1.068700
14.911400 1.097200
14.931700 1.119300
14.952000 1.160100
14.972300 1.227700
14.992600 1.323700
15.012900 1.439400
15.033200 1.574800
15.053500 1.695200
15.073800 2.019000
15.094100 2.537100
15.114400 2.726100
15.134800 2.734300
15.155100 2.565200
15.175400 2.607800
15.195700 2.381300
15.216000 2.334500
15.236300 2.294300
15.256600 2.253100
15.276900 2.212100
15.297200 2.170100
15.317500 2.127200
15.337800 2.095300
15.358100 2.066500
15.378400 2.036000
15.398700 2.011700
15.419000 2.020100
15.439300 2.028400
15.459600 2.036300
15.480000 2.037300
15.500300 2.032600
15.520600 2.084600
15.540900 2.143100
15.561200 2.108100
15.581500 2.015800
15.601800 1.952500
15.622100 1.916400
15.642400 2.089300
15.662700 2.305100
15.683000 2.417900
15.703300 2.525000
15.723600 2.634700
15.743900 2.755300
15.764200 2.894500
15.784500 3.041600
15.804800 3.210300
15.825100 3.446300
15.845500 3.713800
15.865800 3.975800
15.886100 4.153900
15.906400 4.419500
15.926700 4.384100
15.947000 4.087400
15.967300 3.843400
15.987600 3.929600
16.007900 3.874000
16.028200 3.669600
16.048500 3.588900
16.068800 3.542200
16.089100 3.510700
16.109400 3.499900
16.129700 3.410300
16.150000 3.284100
16.170300 3.099100
16.190700 2.893100
16.211000 2.671500
16.231300 2.479600
16.251600 2.328800
16.271900 2.187900
16.292200 2.084300
16.312500 2.019200
16.332800 2.025600
16.353100 2.074300
16.373400 2.175300
16.393700 2.301100
16.414000 2.327400
16.434300 2.251700
16.454600 2.234500
16.474900 2.287200
16.495200 2.352200
16.515500 2.416400
16.535900 2.474200
16.556200 2.526500
16.576500 2.629700
16.596800 2.783900
16.617100 2.983900
16.637400 2.950800
16.657700 3.305800
16.678000 3.141300
16.698300 2.475600
16.718600 2.424000
16.738900 2.417700
16.759200 2.645400
16.779500 2.966600
16.799800 3.311600
16.820100 3.633900
16.840400 3.830700
16.860700 3.930100
16.881100 3.951500
16.901400 3.801800
16.921700 3.725900
16.942000 3.644800
16.962300 3.517800
16.982600 3.422200
17.002900 3.364800
17.023200 3.300400
17.043500 3.182300
17.063800 3.083100
17.084100 3.040000
17.104400 3.024000
17.124700 3.020300
17.145000 3.022800
17.165300 3.020200
17.185600 3.011400
17.205900 2.997300
17.226300 2.980500
17.246600 2.978400
17.266900 2.957100
17.287200 2.875200
17.307500 2.931500
17.327800 3.092400
17.348100 3.284000
17.368400 3.598700
17.388700 3.870100
17.409000 4.085900
17.429300 4.187100
17.449600 4.221800
17.469900 4.050400
17.490200 3.878200
17.510500 3.820800
17.530800 3.877900
17.551100 3.939100
17.571500 4.019000
17.591800 4.107800
17.612100 4.329600
17.632400 4.579200
17.652700 4.325300
17.673000 4.475400
17.693300 4.659000
17.713600 4.771000
17.733900 4.693800
17.754200 4.549700
17.774500 4.442200
17.794800 4.264200
17.815100 4.167500
17.835400 4.060300
17.855700 3.965100
17.876000 3.684200
17.896300 3.678300
17.916700 3.699000
17.937000 3.772200
17.957300 3.829600
17.977600 3.883800
17.997900 4.194500
18.018200 4.071800
18.038500 3.898500
18.058800 3.613000
18.079100 3.448800
18.099400 3.171000
18.119700 3.163800
18.140000 3.251200
18.160300 3.452000
18.180600 3.549900
18.200900 3.668000
18.221200 3.817800
18.241500 3.981200
18.261800 4.048400
18.282200 4.041700
18.302500 3.979500
18.322800 3.707500
18.343100 3.489600
18.363400 3.332800
18.383700 3.343300
18.404000 3.378900
18.424300 3.321300
18.444600 3.196600
18.464900 3.233400
18.485200 3.290800
18.505500 3.323700
18.525800 3.334800
18.546100 3.312900
18.566400 3.309400
18.586700 3.353800
18.607000 3.473300
18.627400 3.621800
18.647700 3.599700
18.668000 3.549400
18.688300 3.220300
18.708600 3.156500
18.728900 3.140600
18.749200 3.159000
18.769500 3.173100
18.789800 3.177700
18.810100 3.168300
18.830400 3.423700
18.850700 3.654200
18.871000 3.467100
18.891300 3.302200
18.911600 3.077100
18.931900 2.621100
18.952200 2.390100
18.972600 2.182300
18.992900 2.000000
19.013200 1.843200
19.033500 1.711200
19.053800 1.603400
19.074100 1.531800
19.094400 1.490400
19.114700 1.482400
19.135000 1.512400
19.155300 1.583200
19.175600 1.672800
19.195900 1.779200
19.216200 1.896200
19.236500 2.024500
19.256800 2.150200
19.277100 2.267100
19.297400 2.314800
19.317800 2.353700
19.338100 2.386200
19.358400 2.448400
19.378700 2.563500
19.399000 2.695600
19.419300 2.850600
19.439600 3.086800
19.459900 3.369200
19.480200 3.727500
19.500500 3.991400
19.520800 3.869100
19.541100 3.741500
19.561400 3.619400
19.581700 3.468700
19.602000 3.507800
19.622300 3.712400
19.642600 3.925600
19.663000 4.120700
19.683300 4.306500
19.703600 4.371000
19.723900 4.407700
19.744200 4.474400
19.764500 4.475400
19.784800 4.467400
19.805100 4.486200
19.825400 4.485900
19.845700 4.597600
19.866000 4.496900
19.886300 4.414400
19.906600 4.385600
19.926900 4.468000
19.947200 4.505400
19.967500 4.510300
19.987800 4.557300
20.008200 4.489000
20.028500 4.243800
20.048800 4.085900
20.069100 3.961800
20.089400 3.830200
20.109700 3.747400
20.130000 3.575100
20.150300 3.357500
20.170600 3.214200
20.190900 3.477300
20.211200 3.848600
20.231500 3.735200
20.251800 3.790100
20.272100 3.839400
20.292400 3.890100
20.312700 3.747900
20.333000 3.540900
20.353400 3.511000
20.373700 3.515100
20.394000 3.552000
20.414300 3.656700
20.434600 3.787500
20.454900 3.955300
20.475200 4.306600
20.495500 4.672600
20.515800 5.001700
20.536100 5.174300
20.556400 5.140200
20.576700 5.052200
20.597000 4.940200
20.617300 4.892800
20.637600 4.839100
20.657900 4.786600
20.678200 4.735200
20.698500 4.703600
20.718900 4.695500
20.739200 4.666300
20.759500 4.575100
20.779800 4.421600
20.800100 4.263300
20.820400 4.026400
20.840700 3.857000
20.861000 3.629100
20.881300 3.549800
20.901600 3.518500
20.921900 3.510000
20.942200 3.520700
20.962500 3.708500
20.982800 3.757800
21.003100 3.814600
21.023400 3.895500
21.043700 3.896900
21.064100 3.821800
21.084400 3.732400
21.104700 3.628800
21.125000 3.496200
21.145300 3.343100
21.165600 3.208000
21.185900 3.052200
21.206200 3.051000
21.226500 3.092900
21.246800 3.166900
21.267100 3.250000
21.287400 3.380100
21.307700 3.488700
21.328000 3.601700
21.348300 3.690800
21.368600 3.779400
21.388900 3.860200
21.409300 3.962200
21.429600 4.069900
21.449900 4.094000
21.470200 3.962600
21.490500 3.882700
21.510800 3.928100
21.531100 4.047100
21.551400 4.126600
21.571700 3.627400
21.592000 3.548400
21.612300 3.544700
21.632600 3.541200
21.652900 3.572700
21.673200 3.549600
21.693500 3.510200
21.713800 3.459700
21.734100 3.334100
21.754500 3.313100
21.774800 3.300100
21.795100 3.309700
21.815400 3.316300
21.835700 2.998800
21.856000 2.987300
21.876300 3.004300
21.896600 2.997800
21.916900 3.061700
21.937200 3.138600
21.957500 3.157300
21.977800 3.168700
21.998100 3.169500
22.018400 3.183800
22.038700 3.253700
22.059000 3.280300
22.079300 3.319300
22.099700 3.324600
22.120000 3.449900
22.140300 3.510400
22.160600 3.476300
22.180900 3.660000
22.201200 3.681300
22.221500 3.580000
22.241800 3.439400
22.262100 3.256600
22.282400 3.033600
22.302700 2.983300
22.323000 2.937400
22.343300 2.891600
22.363600 2.886800
22.383900 2.939600
22.404200 2.980000
22.424500 3.018400
22.444900 3.081300
22.465200 3.181800
22.485500 3.291600
22.505800 3.441100
22.526100 3.622700
22.546400 3.743900
22.566700 3.874300
22.587000 4.006100
22.607300 4.137700
22.627600 4.266500
22.647900 4.323700
22.668200 4.168800
22.688500 4.263500
22.708800 4.489600
22.729100 4.901400
22.749400 5.769100
22.769700 5.509800
22.790100 5.436000
22.810400 5.627600
22.830700 5.836400
22.851000 5.757700
22.871300 5.359700
22.891600 5.225300
22.911900 5.029900
22.932200 4.784900
22.952500 4.544000
22.972800 4.278400
22.993100 3.961800
23.013400 3.623400
23.033700 3.268900
23.054000 3.032500
23.074300 2.887100
23.094600 2.836800
23.114900 2.834500
23.135200 2.966900
23.155600 3.373700
23.175900 3.754800
23.196200 3.935200
23.216500 4.040400
23.236800 4.059300
23.257100 4.128400
23.277400 4.179100
23.297700 4.144600
23.318000 3.896100
23.338300 3.671800
23.358600 3.229500
23.378900 2.957100
23.399200 2.880500
23.419500 2.906600
23.439800 2.967000
23.460100 3.062100
23.480400 3.182100
23.500800 3.320300
23.521100 3.530700
23.541400 4.151000
23.561700 4.728400
23.582000 5.002300
23.602300 5.248500
23.622600 6.003500
23.642900 5.607500
23.663200 5.583400
23.683500 5.561600
23.703800 5.527000
23.724100 5.558900
23.744400 5.292100
23.764700 5.141100
23.785000 4.726300
23.805300 4.725200
23.825600 4.752700
23.846000 4.830700
23.866300 4.830000
23.886600 4.765900
23.906900 4.635900
23.927200 4.545800
23.947500 4.551400
23.967800 4.611500
23.988100 4.728100
24.008400 4.838500
24.028700 4.992000
24.049000 5.474100
24.069300 5.284800
24.089600 5.111500
24.109900 5.015200
24.130200 4.813700
24.150500 4.577200
24.170800 4.577800
24.191200 4.678700
24.211500 4.804700
24.231800 5.036600
24.252100 5.162600
24.272400 5.223500
24.292700 5.255600
24.313000 5.278700
24.333300 5.362100
24.353600 5.277000
24.373900 5.338800
24.394200 5.524200
24.414500 5.603800
24.434800 5.616200
24.455100 5.672200
24.475400 5.838300
24.495700 5.795300
24.516000 5.789500
24.536400 5.613500
24.556700 5.433800
24.577000 5.161800
24.597300 5.029700
24.617600 4.890500
24.637900 4.706500
24.658200 4.454500
24.678500 4.433900
24.698800 4.491500
24.719100 4.785600
24.739400 4.397200
24.759700 4.251800
24.780000 3.945500
24.800300 3.788800
24.820600 3.656800
24.840900 3.498800
24.861200 3.319100
24.881600 3.151800
24.901900 2.975700
24.922200 2.870400
24.942500 3.180200
24.962800 4.147000
24.983100 4.301000
25.003400 4.573300
25.023700 4.889100
25.044000 5.223700
25.064300 5.529700
25.084600 5.854000
25.104900 6.037100
25.125200 6.116100
25.145500 6.333900
25.165800 6.573600
25.186100 6.752500
25.206400 7.081200
25.226700 6.452700
25.247100 5.417200
25.267400 5.189400
25.287700 5.116300
25.308000 5.215800
25.328300 5.586000
25.348600 5.522900
25.368900 5.651900
25.389200 5.767100
25.409500 5.872700
25.429800 5.889900
25.450100 5.754100
25.470400 5.589300
25.490700 5.299400
25.511000 4.621300
25.531300 4.120500
25.551600 3.601100
25.571900 3.531500
25.592300 3.458000
25.612600 3.281000
25.632900 3.104200
25.653200 3.017100
25.673500 2.951500
25.693800 2.874900
25.714100 2.815400
25.734400 2.769800
25.754700 2.730600
25.775000 2.729700
25.795300 2.751500
25.815600 2.754300
25.835900 2.701100
25.856200 2.667700
25.876500 2.762400
25.896800 2.896300
25.917100 3.045800
25.937500 3.207900
25.957800 3.381000
25.978100 3.527900
25.998400 3.669900
26.018700 3.968000
26.039000 4.141600
26.059300 4.381000
26.079600 4.534400
26.099900 4.528300
26.120200 4.485500
26.140500 4.398900
26.160800 4.349700
26.181100 4.314000
26.201400 4.204200
26.221700 4.195500
26.242000 4.252300
26.262300 4.312300
26.282700 4.331100
26.303000 4.369000
26.323300 4.455200
26.343600 4.539400
26.363900 4.569900
26.384200 4.576100
26.404500 4.540300
26.424800 4.442900
26.445100 4.533000
26.465400 4.607000
26.485700 3.554000
26.506000 3.142100
26.526300 2.949800
26.546600 2.729000
26.566900 2.532600
26.587200 2.386700
26.607500 2.195800
26.627900 1.983000
26.648200 1.791700
26.668500 1.633900
26.688800 1.485600
26.709100 1.378700
26.729400 1.303100
26.749700 1.223400
26.770000 1.132100
26.790300 1.039100
26.810600 0.985600
26.830900 0.953600
26.851200 0.923900
26.871500 0.887600
26.891800 0.847200
26.912100 0.823000
26.932400 0.801500
26.952700 0.781400
26.973100 0.762100
26.993400 0.743800
27.013700 0.726700
27.034000 0.710500
27.054300 0.695500
27.074600 0.681500
27.094900 0.670500
27.115200 0.664200
27.135500 0.769900
27.155800 0.851000
27.176100 0.807000
27.196400 0.624500
27.216700 0.582100
27.237000 0.551800
27.257300 0.552700
27.277600 0.571000
27.297900 0.568200
27.318300 0.544100
27.338600 0.513000
27.358900 0.486100
27.379200 0.463400
27.399500 0.444900
27.419800 0.445000
27.440100 0.449300
27.460400 0.444100
27.480700 0.428400
27.501000 0.375700
27.521300 0.337700
27.541600 0.305100
27.561900 0.274600
27.582200 0.245600
27.602500 0.211600
27.622800 0.172100
27.643100 0.139700
27.663400 0.114100
27.683800 0.093400
27.704100 0.076400
27.724400 0.059100
27.744700 0.040600
27.765000 0.014400
27.785300 0.000100
27.805600 0.000000
27.825900 0.000000
27.846200 0.000000
27.866500 0.000000
27.886800 0.000000
27.907100 0.000000
27.927400 0.000000
27.947700 0.000000
27.968000 0.000000
27.988300 0.000000
28.008600 0.000000
28.029000 0.000000
28.049300 0.000000
28.069600 0.000000
28.089900 0.000000
28.110200 0.000000
28.130500 0.000000
28.150800 0.000000
28.171100 0.000000
28.191400 0.000000
28.211700 0.000000
28.232000 0.000000
28.252300 0.000000
28.272600 0.000000
28.292900 0.000000
28.313200 0.000000
28.333500 0.000000
28.353800 0.000000
28.374200 0.000000
28.394500 0.000000
28.414800 0.000000
28.435100 0.000000
28.455400 0.000000
28.475700 0.000000
28.496000 0.000000
28.516300 0.000000
28.536600 0.000000
28.556900 0.000000
28.577200 0.000000
28.597500 0.000000
28.617800 0.000000
28.638100 0.000000
28.658400 0.000000
28.678700 0.000000
28.699000 0.000000
28.719400 0.000000
28.739700 0.000000
28.760000 0.000000
28.780300 0.000000
28.800600 0.000000
28.820900 0.000000
28.841200 0.000000
28.861500 0.000000
28.881800 0.000000
28.902100 0.000000
28.922400 0.000000
28.942700 0.000000
28.963000 0.000000
28.983300 0.000000
29.003600 0.000000
29.023900 0.000000
29.044200 0.000000
29.064600 0.000000
29.084900 0.000000
29.105200 0.000000
29.125500 0.000000
29.145800 0.000000
29.166100 0.000000
29.186400 0.000000
29.206700 0.000000
29.227000 0.000000
29.247300 0.000000
29.267600 0.000000
29.287900 0.000000
29.308200 0.000000
29.328500 0.000000
29.348800 0.000000
29.369100 0.000000
29.389400 0.000000
29.409800 0.000000
29.430100 0.000000
29.450400 0.000000
29.470700 0.000000
29.491000 0.000000
29.511300 0.000000
29.531600 0.000000
29.551900 0.000000
29.572200 0.000000
29.592500 0.000000
29.612800 0.000000
29.633100 0.000000
e
