set title 'mp-1183455 - Density of States'
set xlabel 'Energy (eV)'
set ylabel 'DOS (states/eV)'
set grid
set xrange [-10:10]
set yrange [0:6.537]
set xzeroaxis lt -1
set terminal png size 800,600
set output 'mp-1183455_dos_gnuplot.png'
plot '-' using 1:2 with lines title 'DOS'
-44.700200 0.000000
-44.647700 0.000000
-44.595100 0.000000
-44.542500 0.000000
-44.490000 0.000000
-44.437400 0.000000
-44.384900 0.000000
-44.332300 0.000000
-44.279700 0.000000
-44.227200 0.000000
-44.174600 0.000000
-44.122000 0.000000
-44.069500 0.000000
-44.016900 0.000000
-43.964300 0.000000
-43.911800 0.000000
-43.859200 0.000000
-43.806600 0.000000
-43.754100 0.000000
-43.701500 0.000000
-43.648900 0.000000
-43.596400 0.000000
-43.543800 0.000000
-43.491200 0.000000
-43.438700 0.000000
-43.386100 0.000000
-43.333600 0.000000
-43.281000 0.000000
-43.228400 0.000000
-43.175900 0.000000
-43.123300 0.000000
-43.070700 0.000000
-43.018200 0.000000
-42.965600 0.000000
-42.913000 0.000000
-42.860500 0.000000
-42.807900 0.000000
-42.755300 0.000000
-42.702800 0.000000
-42.650200 0.000000
-42.597600 0.000000
-42.545100 0.000000
-42.492500 0.000000
-42.439900 0.000000
-42.387400 0.000000
-42.334800 0.000000
-42.282300 0.000000
-42.229700 0.000000
-42.177100 0.000000
-42.124600 0.000000
-42.072000 0.000000
-42.019400 0.000000
-41.966900 0.000000
-41.914300 0.000000
-41.861700 0.000000
-41.809200 0.000000
-41.756600 0.000000
-41.704000 0.000000
-41.651500 0.000000
-41.598900 0.000000
-41.546300 0.000000
-41.493800 0.000000
-41.441200 0.000000
-41.388600 0.000000
-41.336100 0.000000
-41.283500 0.000000
-41.231000 0.000000
-41.178400 0.000000
-41.125800 0.000000
-41.073300 0.000000
-41.020700 0.000000
-40.968100 0.000000
-40.915600 0.000000
-40.863000 0.000000
-40.810400 0.000000
-40.757900 0.000000
-40.705300 0.000000
-40.652700 0.000000
-40.600200 0.000000
-40.547600 0.000000
-40.495000 0.000000
-40.442500 0.000000
-40.389900 0.000000
-40.337300 0.000000
-40.284800 0.000000
-40.232200 0.000000
-40.179700 0.000000
-40.127100 0.000000
-40.074500 0.000100
-40.022000 0.024400
-39.969400 1.508400
-39.916800 13.382800
-39.864300 18.756400
-39.811700 4.234200
-39.759100 0.141300
-39.706600 0.000600
-39.654000 0.000000
-39.601400 0.000000
-39.548900 0.000000
-39.496300 0.000000
-39.443700 0.000000
-39.391200 0.000000
-39.338600 0.000000
-39.286000 0.000000
-39.233500 0.000000
-39.180900 0.000000
-39.128400 0.000000
-39.075800 0.000000
-39.023200 0.000000
-38.970700 0.000000
-38.918100 0.000000
-38.865500 0.000000
-38.813000 0.000000
-38.760400 0.000000
-38.707800 0.000000
-38.655300 0.000000
-38.602700 0.000000
-38.550100 0.000000
-38.497600 0.000000
-38.445000 0.000000
-38.392400 0.000000
-38.339900 0.000000
-38.287300 0.000000
-38.234700 0.000000
-38.182200 0.000000
-38.129600 0.000000
-38.077100 0.000000
-38.024500 0.000000
-37.971900 0.000000
-37.919400 0.000000
-37.866800 0.000000
-37.814200 0.000000
-37.761700 0.000000
-37.709100 0.000000
-37.656500 0.000000
-37.604000 0.000000
-37.551400 0.000000
-37.498800 0.000000
-37.446300 0.000000
-37.393700 0.000000
-37.341100 0.000000
-37.288600 0.000000
-37.236000 0.000000
-37.183400 0.000000
-37.130900 0.000000
-37.078300 0.000000
-37.025800 0.000000
-36.973200 0.000000
-36.920600 0.000000
-36.868100 0.000000
-36.815500 0.000000
-36.762900 0.000000
-36.710400 0.000000
-36.657800 0.000000
-36.605200 0.000000
-36.552700 0.000000
-36.500100 0.000000
-36.447500 0.000000
-36.395000 0.000000
-36.342400 0.000000
-36.289800 0.000000
-36.237300 0.000000
-36.184700 0.000000
-36.132100 0.000000
-36.079600 0.000000
-36.027000 0.000000
-35.974500 0.000000
-35.921900 0.000000
-35.869300 0.000000
-35.816800 0.000000
-35.764200 0.000000
-35.711600 0.000000
-35.659100 0.000000
-35.606500 0.000000
-35.553900 0.000000
-35.501400 0.000000
-35.448800 0.000000
-35.396200 0.000000
-35.343700 0.000000
-35.291100 0.000000
-35.238500 0.000000
-35.186000 0.000000
-35.133400 0.000000
-35.080800 0.000000
-35.028300 0.000000
-34.975700 0.000000
-34.923200 0.000000
-34.870600 0.000000
-34.818000 0.000000
-34.765500 0.000000
-34.712900 0.000000
-34.660300 0.000000
-34.607800 0.000000
-34.555200 0.000000
-34.502600 0.000000
-34.450100 0.000000
-34.397500 0.000000
-34.344900 0.000000
-34.292400 0.000000
-34.239800 0.000000
-34.187200 0.000000
-34.134700 0.000000
-34.082100 0.000000
-34.029500 0.000000
-33.977000 0.000000
-33.924400 0.000000
-33.871900 0.000000
-33.819300 0.000000
-33.766700 0.000000
-33.714200 0.000000
-33.661600 0.000000
-33.609000 0.000000
-33.556500 0.000000
-33.503900 0.000000
-33.451300 0.000000
-33.398800 0.000000
-33.346200 0.000000
-33.293600 0.000000
-33.241100 0.000000
-33.188500 0.000000
-33.135900 0.000000
-33.083400 0.000000
-33.030800 0.000000
-32.978200 0.000000
-32.925700 0.000000
-32.873100 0.000000
-32.820600 0.000000
-32.768000 0.000000
-32.715400 0.000000
-32.662900 0.000000
-32.610300 0.000000
-32.557700 0.000000
-32.505200 0.000000
-32.452600 0.000000
-32.400000 0.000000
-32.347500 0.000000
-32.294900 0.000000
-32.242300 0.000000
-32.189800 0.000000
-32.137200 0.000000
-32.084600 0.000000
-32.032100 0.000000
-31.979500 0.000000
-31.927000 0.000000
-31.874400 0.000000
-31.821800 0.000000
-31.769300 0.000000
-31.716700 0.000000
-31.664100 0.000000
-31.611600 0.000000
-31.559000 0.000000
-31.506400 0.000000
-31.453900 0.000000
-31.401300 0.000000
-31.348700 0.000000
-31.296200 0.000000
-31.243600 0.000000
-31.191000 0.000000
-31.138500 0.000000
-31.085900 0.000000
-31.033300 0.000000
-30.980800 0.000000
-30.928200 0.000000
-30.875700 0.000000
-30.823100 0.000000
-30.770500 0.000000
-30.718000 0.000000
-30.665400 0.000000
-30.612800 0.000000
-30.560300 0.000000
-30.507700 0.000000
-30.455100 0.000000
-30.402600 0.000000
-30.350000 0.000000
-30.297400 0.000000
-30.244900 0.000000
-30.192300 0.000000
-30.139700 0.000000
-30.087200 0.000000
-30.034600 0.000000
-29.982000 0.000000
-29.929500 0.000000
-29.876900 0.000000
-29.824400 0.000000
-29.771800 0.000000
-29.719200 0.000000
-29.666700 0.000000
-29.614100 0.000000
-29.561500 0.000000
-29.509000 0.000000
-29.456400 0.000000
-29.403800 0.000000
-29.351300 0.000000
-29.298700 0.000000
-29.246100 0.000000
-29.193600 0.000000
-29.141000 0.000000
-29.088400 0.000000
-29.035900 0.000000
-28.983300 0.000000
-28.930700 0.000000
-28.878200 0.000000
-28.825600 0.000000
-28.773100 0.000000
-28.720500 0.000000
-28.667900 0.000000
-28.615400 0.000000
-28.562800 0.000000
-28.510200 0.000000
-28.457700 0.000000
-28.405100 0.000000
-28.352500 0.000000
-28.300000 0.000000
-28.247400 0.000000
-28.194800 0.000000
-28.142300 0.000000
-28.089700 0.000000
-28.037100 0.000000
-27.984600 0.000000
-27.932000 0.000000
-27.879400 0.000000
-27.826900 0.000000
-27.774300 0.000000
-27.721800 0.000000
-27.669200 0.000000
-27.616600 0.000000
-27.564100 0.000000
-27.511500 0.000000
-27.458900 0.000000
-27.406400 0.000000
-27.353800 0.000000
-27.301200 0.000000
-27.248700 0.000000
-27.196100 0.000000
-27.143500 0.000000
-27.091000 0.000000
-27.038400 0.000000
-26.985800 0.000000
-26.933300 0.000000
-26.880700 0.000000
-26.828100 0.000000
-26.775600 0.000000
-26.723000 0.000000
-26.670500 0.000000
-26.617900 0.000000
-26.565300 0.000000
-26.512800 0.000000
-26.460200 0.000000
-26.407600 0.000000
-26.355100 0.000000
-26.302500 0.000000
-26.249900 0.000000
-26.197400 0.000000
-26.144800 0.000000
-26.092200 0.000000
-26.039700 0.000000
-25.987100 0.000000
-25.934500 0.000000
-25.882000 0.000000
-25.829400 0.000000
-25.776800 0.000000
-25.724300 0.000000
-25.671700 0.000000
-25.619200 0.000000
-25.566600 0.000000
-25.514000 0.000000
-25.461500 0.000000
-25.408900 0.000000
-25.356300 0.000000
-25.303800 0.000000
-25.251200 0.000000
-25.198600 0.000000
-25.146100 0.000000
-25.093500 0.000000
-25.040900 0.000000
-24.988400 0.000000
-24.935800 0.000000
-24.883200 0.000000
-24.830700 0.000000
-24.778100 0.000000
-24.725500 0.000000
-24.673000 0.000000
-24.620400 0.000000
-24.567900 0.000000
-24.515300 0.000000
-24.462700 0.000000
-24.410200 0.000000
-24.357600 0.000000
-24.305000 0.000000
-24.252500 0.000000
-24.199900 0.000000
-24.147300 0.000000
-24.094800 0.000000
-24.042200 0.000000
-23.989600 0.000000
-23.937100 0.000000
-23.884500 0.000000
-23.831900 0.000000
-23.779400 0.000000
-23.726800 0.000000
-23.674200 0.000000
-23.621700 0.000000
-23.569100 0.000000
-23.516600 0.000000
-23.464000 0.000000
-23.411400 0.000000
-23.358900 0.000000
-23.306300 0.000000
-23.253700 0.000000
-23.201200 0.000000
-23.148600 0.000000
-23.096000 0.000000
-23.043500 0.000000
-22.990900 0.000000
-22.938300 0.000000
-22.885800 0.000000
-22.833200 0.000000
-22.780600 0.000000
-22.728100 0.000000
-22.675500 0.000000
-22.622900 0.000000
-22.570400 0.000000
-22.517800 0.000000
-22.465300 0.000000
-22.412700 0.000000
-22.360100 0.000000
-22.307600 0.000000
-22.255000 0.000000
-22.202400 0.000000
-22.149900 0.000000
-22.097300 0.000000
-22.044700 0.000000
-21.992200 0.000000
-21.939600 0.000000
-21.887000 0.000000
-21.834500 0.000000
-21.781900 0.000000
-21.729300 0.000000
-21.676800 0.000000
-21.624200 0.000000
-21.571600 0.000000
-21.519100 0.000000
-21.466500 0.000000
-21.414000 0.000000
-21.361400 0.000000
-21.308800 0.000000
-21.256300 0.000000
-21.203700 0.000000
-21.151100 0.001300
-21.098600 0.189300
-21.046000 4.375300
-20.993400 21.174000
-20.940900 37.043900
-20.888300 36.634100
-20.835700 13.538800
-20.783200 1.169800
-20.730600 0.017900
-20.678000 0.000000
-20.625500 0.000000
-20.572900 0.000000
-20.520300 0.000000
-20.467800 0.000000
-20.415200 0.000000
-20.362700 0.000000
-20.310100 0.000000
-20.257500 0.000000
-20.205000 0.000000
-20.152400 0.000000
-20.099800 0.000000
-20.047300 0.000000
-19.994700 0.000000
-19.942100 0.000000
-19.889600 0.000000
-19.837000 0.000000
-19.784400 0.000000
-19.731900 0.000000
-19.679300 0.000000
-19.626700 0.000000
-19.574200 0.000000
-19.521600 0.000000
-19.469000 0.000000
-19.416500 0.000000
-19.363900 0.000000
-19.311400 0.000000
-19.258800 0.000000
-19.206200 0.000000
-19.153700 0.000000
-19.101100 0.000000
-19.048500 0.000000
-18.996000 0.000000
-18.943400 0.000000
-18.890800 0.000000
-18.838300 0.000000
-18.785700 0.000000
-18.733100 0.000000
-18.680600 0.000000
-18.628000 0.000000
-18.575400 0.000000
-18.522900 0.000000
-18.470300 0.000000
-18.417700 0.000000
-18.365200 0.000000
-18.312600 0.000000
-18.260100 0.000000
-18.207500 0.000000
-18.154900 0.000000
-18.102400 0.000000
-18.049800 0.000000
-17.997200 0.000000
-17.944700 0.000000
-17.892100 0.000000
-17.839500 0.000000
-17.787000 0.000000
-17.734400 0.000000
-17.681800 0.000000
-17.629300 0.000000
-17.576700 0.000000
-17.524100 0.000000
-17.471600 0.000000
-17.419000 0.000000
-17.366400 0.000000
-17.313900 0.000000
-17.261300 0.000000
-17.208800 0.000000
-17.156200 0.000000
-17.103600 0.000000
-17.051100 0.000000
-16.998500 0.000000
-16.945900 0.000000
-16.893400 0.000000
-16.840800 0.000000
-16.788200 0.000000
-16.735700 0.000000
-16.683100 0.000000
-16.630500 0.000000
-16.578000 0.000000
-16.525400 0.000000
-16.472800 0.000000
-16.420300 0.000000
-16.367700 0.000000
-16.315100 0.000000
-16.262600 0.000000
-16.210000 0.000000
-16.157500 0.000000
-16.104900 0.000000
-16.052300 0.000000
-15.999800 0.000000
-15.947200 0.000000
-15.894600 0.000000
-15.842100 0.000000
-15.789500 0.000000
-15.736900 0.000000
-15.684400 0.000000
-15.631800 0.000000
-15.579200 0.000000
-15.526700 0.000000
-15.474100 0.000000
-15.421500 0.000000
-15.369000 0.000000
-15.316400 0.000000
-15.263800 0.000000
-15.211300 0.000000
-15.158700 0.000000
-15.106200 0.000000
-15.053600 0.000000
-15.001000 0.000000
-14.948500 0.000000
-14.895900 0.000000
-14.843300 0.000000
-14.790800 0.000000
-14.738200 0.000000
-14.685600 0.000000
-14.633100 0.000000
-14.580500 0.000000
-14.527900 0.000000
-14.475400 0.000000
-14.422800 0.000000
-14.370200 0.000000
-14.317700 0.000000
-14.265100 0.000000
-14.212500 0.000000
-14.160000 0.000000
-14.107400 0.000000
-14.054900 0.000000
-14.002300 0.000000
-13.949700 0.000000
-13.897200 0.000000
-13.844600 0.000000
-13.792000 0.000000
-13.739500 0.000000
-13.686900 0.000000
-13.634300 0.000000
-13.581800 0.000000
-13.529200 0.000000
-13.476600 0.000000
-13.424100 0.000000
-13.371500 0.000000
-13.318900 0.000000
-13.266400 0.000000
-13.213800 0.000000
-13.161200 0.000000
-13.108700 0.000000
-13.056100 0.000000
-13.003600 0.000000
-12.951000 0.000000
-12.898400 0.000000
-12.845900 0.000000
-12.793300 0.000000
-12.740700 0.000000
-12.688200 0.000000
-12.635600 0.000000
-12.583000 0.000000
-12.530500 0.000000
-12.477900 0.000000
-12.425300 0.000000
-12.372800 0.000000
-12.320200 0.000000
-12.267600 0.000000
-12.215100 0.000000
-12.162500 0.000000
-12.109900 0.000000
-12.057400 0.000000
-12.004800 0.000000
-11.952300 0.000000
-11.899700 0.000000
-11.847100 0.000000
-11.794600 0.000000
-11.742000 0.000000
-11.689400 0.000000
-11.636900 0.000000
-11.584300 0.000000
-11.531700 0.000000
-11.479200 0.000000
-11.426600 0.000000
-11.374000 0.000000
-11.321500 0.000000
-11.268900 0.000000
-11.216300 0.000000
-11.163800 0.000000
-11.111200 0.000000
-11.058700 0.000000
-11.006100 0.000000
-10.953500 0.000000
-10.901000 0.000000
-10.848400 0.000000
-10.795800 0.000000
-10.743300 0.000000
-10.690700 0.000000
-10.638100 0.000000
-10.585600 0.000000
-10.533000 0.000000
-10.480400 0.000000
-10.427900 0.000000
-10.375300 0.000000
-10.322700 0.000000
-10.270200 0.000000
-10.217600 0.000000
-10.165000 0.000000
-10.112500 0.000000
-10.059900 0.000000
-10.007400 0.000000
-9.954800 0.000000
-9.902200 0.000000
-9.849700 0.000000
-9.797100 0.000000
-9.744500 0.000000
-9.692000 0.000000
-9.639400 0.000000
-9.586800 0.000000
-9.534300 0.000000
-9.481700 0.000000
-9.429100 0.000000
-9.376600 0.000000
-9.324000 0.000000
-9.271400 0.000000
-9.218900 0.000000
-9.166300 0.000000
-9.113700 0.000000
-9.061200 0.000000
-9.008600 0.000000
-8.956100 0.000000
-8.903500 0.000000
-8.850900 0.000000
-8.798400 0.000000
-8.745800 0.000000
-8.693200 0.000000
-8.640700 0.000000
-8.588100 0.000000
-8.535500 0.000000
-8.483000 0.000000
-8.430400 0.000000
-8.377800 0.000000
-8.325300 0.000000
-8.272700 0.000000
-8.220100 0.000000
-8.167600 0.000000
-8.115000 0.000000
-8.062400 0.000000
-8.009900 0.000000
-7.957300 0.000000
-7.904800 0.000000
-7.852200 0.000000
-7.799600 0.000000
-7.747100 0.000000
-7.694500 0.000000
-7.641900 0.000000
-7.589400 0.000000
-7.536800 0.000000
-7.484200 0.000000
-7.431700 0.000000
-7.379100 0.000000
-7.326500 0.000000
-7.274000 0.000000
-7.221400 0.000000
-7.168800 0.000000
-7.116300 0.000000
-7.063700 0.000000
-7.011100 0.000000
-6.958600 0.000000
-6.906000 0.000000
-6.853500 0.000000
-6.800900 0.000000
-6.748300 0.000000
-6.695800 0.000000
-6.643200 0.000000
-6.590600 0.000000
-6.538100 0.000000
-6.485500 0.000000
-6.432900 0.000000
-6.380400 0.000000
-6.327800 0.000000
-6.275200 0.000000
-6.222700 0.000000
-6.170100 0.000000
-6.117500 0.000000
-6.065000 0.000000
-6.012400 0.000000
-5.959800 0.000000
-5.907300 0.000000
-5.854700 0.000000
-5.802200 0.000000
-5.749600 0.000000
-5.697000 0.000000
-5.644500 0.000000
-5.591900 0.000000
-5.539300 0.000000
-5.486800 0.000000
-5.434200 0.000000
-5.381600 0.000000
-5.329100 0.000000
-5.276500 0.000000
-5.223900 0.000000
-5.171400 0.000000
-5.118800 0.000000
-5.066200 0.000000
-5.013700 0.000000
-4.961100 0.000000
-4.908500 0.000000
-4.856000 0.000000
-4.803400 0.000000
-4.750900 0.000000
-4.698300 0.000000
-4.645700 0.000000
-4.593200 0.000000
-4.540600 0.000000
-4.488000 0.000000
-4.435500 0.000000
-4.382900 0.000000
-4.330300 0.000000
-4.277800 0.000000
-4.225200 0.000000
-4.172600 0.000000
-4.120100 0.000000
-4.067500 0.000000
-4.014900 0.000000
-3.962400 0.000000
-3.909800 0.000000
-3.857200 0.000000
-3.804700 0.000000
-3.752100 0.000000
-3.699600 0.000000
-3.647000 0.000000
-3.594400 0.000000
-3.541900 0.000000
-3.489300 0.000000
-3.436700 0.000000
-3.384200 0.000000
-3.331600 0.000000
-3.279000 0.000000
-3.226500 0.000000
-3.173900 0.000000
-3.121300 0.000000
-3.068800 0.000000
-3.016200 0.000000
-2.963600 0.000000
-2.911100 0.000000
-2.858500 0.000000
-2.805900 0.000000
-2.753400 0.000000
-2.700800 0.000000
-2.648300 0.000000
-2.595700 0.000000
-2.543100 0.000000
-2.490600 0.000000
-2.438000 0.000000
-2.385400 0.000000
-2.332900 0.000000
-2.280300 0.000000
-2.227700 0.000000
-2.175200 0.000000
-2.122600 0.000000
-2.070000 0.001000
-2.017500 0.017100
-1.964900 0.047400
-1.912300 0.053500
-1.859800 0.088100
-1.807200 0.138000
-1.754600 0.143100
-1.702100 0.054300
-1.649500 0.095200
-1.597000 0.230700
-1.544400 0.189900
-1.491800 0.187800
-1.439300 0.191400
-1.386700 0.164200
-1.334100 0.125300
-1.281600 0.113100
-1.229000 0.285200
-1.176400 0.433200
-1.123900 0.207800
-1.071300 0.173100
-1.018700 0.319100
-0.966200 0.261500
-0.913600 0.153800
-0.861000 0.145500
-0.808500 0.287200
-0.755900 0.341900
-0.703300 0.468000
-0.650800 0.539800
-0.598200 0.302700
-0.545700 0.121100
-0.493100 0.352400
-0.440500 0.327100
-0.388000 0.224400
-0.335400 0.277900
-0.282800 0.429000
-0.230300 0.396100
-0.177700 0.493800
-0.125100 0.708800
-0.072600 0.427700
-0.020000 0.314900
0.032600 0.453300
0.085100 0.315400
0.137700 0.353300
0.190300 0.382900
0.242800 0.324900
0.295400 0.491100
0.348000 0.794800
0.400500 0.637400
0.453100 0.455800
0.505600 0.716100
0.558200 0.629600
0.610800 0.483400
0.663300 0.452200
0.715900 0.490600
0.768500 0.602000
0.821000 0.636800
0.873600 0.460900
0.926200 0.712300
0.978700 0.881000
1.031300 0.842900
1.083900 0.797000
1.136400 0.938600
1.189000 1.054900
1.241600 0.819400
1.294100 0.645800
1.346700 0.644000
1.399300 0.757200
1.451800 0.578300
1.504400 0.838100
1.556900 1.172100
1.609500 0.920300
1.662100 0.689300
1.714600 0.956600
1.767200 0.843500
1.819800 0.716200
1.872300 0.873800
1.924900 0.827200
1.977500 1.292600
2.030000 1.712900
2.082600 1.713200
2.135200 1.378900
2.187700 0.983800
2.240300 1.392700
2.292900 1.976100
2.345400 1.843700
2.398000 1.764500
2.450600 2.311400
2.503100 2.422500
2.555700 1.781400
2.608200 1.476200
2.660800 1.535200
2.713400 2.031000
2.765900 2.051600
2.818500 1.566000
2.871100 1.620900
2.923600 1.888900
2.976200 1.936400
3.028800 1.821600
3.081300 2.071800
3.133900 2.066800
3.186500 1.566200
3.239000 1.480100
3.291600 1.795800
3.344200 2.034700
3.396700 1.682000
3.449300 1.466900
3.501900 1.790400
3.554400 1.943900
3.607000 2.037800
3.659500 1.981500
3.712100 1.822800
3.764700 2.025300
3.817200 2.337000
3.869800 1.991100
3.922400 1.812700
3.974900 1.739200
4.027500 1.230300
4.080100 1.297000
4.132600 1.642700
4.185200 1.176100
4.237800 1.090600
4.290300 1.122900
4.342900 0.976200
4.395500 0.686200
4.448000 0.621600
4.500600 1.034700
4.553200 1.455100
4.605700 1.669100
4.658300 1.695700
4.710800 1.691200
4.763400 1.913300
4.816000 2.364200
4.868500 2.701700
4.921100 3.103000
4.973700 3.682300
5.026200 3.553300
5.078800 3.298700
5.131400 2.359000
5.183900 2.370800
5.236500 2.784800
5.289100 2.876100
5.341600 2.596000
5.394200 2.467200
5.446800 2.358400
5.499300 2.156100
5.551900 2.518800
5.604500 3.446800
5.657000 3.993400
5.709600 3.745700
5.762100 3.916700
5.814700 5.328200
5.867300 5.680500
5.919800 5.942500
5.972400 4.726600
6.025000 1.892700
6.077500 0.719100
6.130100 0.561400
6.182700 1.144600
6.235200 2.004800
6.287800 2.717100
6.340400 2.546000
6.392900 1.480100
6.445500 1.316100
6.498100 1.341700
6.550600 1.350700
6.603200 1.772500
6.655800 1.961000
6.708300 1.770700
6.760900 1.492700
6.813400 1.024000
6.866000 0.693300
6.918600 0.574300
6.971100 0.502100
7.023700 0.958600
7.076300 1.344700
7.128800 1.489400
7.181400 1.428200
7.234000 1.474700
7.286500 1.757300
7.339100 1.647000
7.391700 1.407200
7.444200 1.423900
7.496800 1.194200
7.549400 1.156200
7.601900 1.079900
7.654500 0.769500
7.707100 0.946000
7.759600 1.130700
7.812200 1.144400
7.864700 1.075500
7.917300 0.967400
7.969900 0.905800
8.022400 1.154300
8.075000 1.150400
8.127600 1.001300
8.180100 0.847000
8.232700 0.654400
8.285300 0.800000
8.337800 1.336100
8.390400 1.558600
8.443000 1.116300
8.495500 0.994500
8.548100 0.777200
8.600700 0.678700
8.653200 1.118700
8.705800 1.044000
8.758400 1.300700
8.810900 1.333700
8.863500 0.888400
8.916000 0.842400
8.968600 1.195100
9.021200 1.077200
9.073700 0.878300
9.126300 0.960400
9.178900 1.087700
9.231400 1.514500
9.284000 1.258100
9.336600 0.925700
9.389100 0.876200
9.441700 1.136800
9.494300 1.332500
9.546800 1.285400
9.599400 0.923300
9.652000 1.103100
9.704500 1.590800
9.757100 1.776400
9.809700 1.191000
9.862200 1.182400
9.914800 1.420700
9.967300 1.291200
10.019900 0.935200
10.072500 0.926200
10.125000 1.393200
10.177600 1.747000
10.230200 1.708100
10.282700 1.349100
10.335300 1.289100
10.387900 1.141600
10.440400 1.166400
10.493000 1.333100
10.545600 1.153600
10.598100 1.037900
10.650700 0.751400
10.703300 0.817500
10.755800 1.015300
10.808400 1.373900
10.860900 1.267000
10.913500 0.936100
10.966100 1.217100
11.018600 1.699400
11.071200 1.510900
11.123800 1.307500
11.176300 1.070300
11.228900 0.950800
11.281500 0.802900
11.334000 0.880400
11.386600 1.270900
11.439200 1.437400
11.491700 1.622800
11.544300 1.545700
11.596900 1.165000
11.649400 1.213500
11.702000 1.181600
11.754600 0.905900
11.807100 0.778500
11.859700 0.984800
11.912200 1.164100
11.964800 1.029100
12.017400 0.925100
12.069900 0.861500
12.122500 0.820200
12.175100 0.926900
12.227600 0.962500
12.280200 0.800500
12.332800 0.565300
12.385300 0.518200
12.437900 0.637100
12.490500 0.638800
12.543000 0.650700
12.595600 0.902000
12.648200 1.587400
12.700700 1.635200
12.753300 1.129700
12.805900 1.046500
12.858400 1.090500
12.911000 1.047600
12.963500 0.893600
13.016100 1.118800
13.068700 0.968800
13.121200 0.629500
13.173800 0.713700
13.226400 1.062100
13.278900 1.274700
13.331500 1.074700
13.384100 0.923200
13.436600 1.078400
13.489200 1.390800
13.541800 1.506000
13.594300 1.552300
13.646900 1.322500
13.699500 1.065200
13.752000 0.780200
13.804600 1.124300
13.857200 1.041600
13.909700 0.685200
13.962300 0.809300
14.014800 0.912500
14.067400 1.120600
14.120000 1.305000
14.172500 1.010200
14.225100 1.020700
14.277700 1.254600
14.330200 1.192100
14.382800 1.596700
14.435400 1.630200
14.487900 1.220200
14.540500 1.047300
14.593100 1.215700
14.645600 1.029800
14.698200 1.083400
14.750800 1.758400
14.803300 1.969900
14.855900 1.741100
14.908500 1.797900
14.961000 1.581600
15.013600 0.999900
15.066100 1.192300
15.118700 1.389800
15.171300 1.112200
15.223800 1.056000
15.276400 1.212700
15.329000 1.886800
15.381500 1.586300
15.434100 1.181400
15.486700 1.110800
15.539200 1.286000
15.591800 1.482700
15.644400 1.268700
15.696900 1.118400
15.749500 0.950600
15.802100 0.616800
15.854600 0.584300
15.907200 1.037600
15.959800 1.521600
16.012300 1.585900
16.064900 1.641300
16.117400 1.489100
16.170000 1.292500
16.222600 1.222400
16.275100 1.277500
16.327700 1.290300
16.380300 0.956100
16.432800 0.732400
16.485400 0.967700
16.538000 1.299900
16.590500 1.728600
16.643100 1.443300
16.695700 1.103300
16.748200 1.577600
16.800800 1.642900
16.853400 1.347600
16.905900 0.956600
16.958500 0.674600
17.011100 1.459500
17.063600 1.990600
17.116200 1.321600
17.168700 0.857700
17.221300 1.297000
17.273900 1.549400
17.326400 1.489300
17.379000 1.420200
17.431600 1.158200
17.484100 1.195500
17.536700 1.101700
17.589300 1.426400
17.641800 1.536900
17.694400 1.216300
17.747000 1.449000
17.799500 1.571100
17.852100 1.039200
17.904700 0.699200
17.957200 0.964000
18.009800 1.676900
18.062400 1.773800
18.114900 1.364500
18.167500 1.270500
18.220000 1.290700
18.272600 1.374700
18.325200 1.677800
18.377700 1.360000
18.430300 1.255400
18.482900 1.411800
18.535400 1.333700
18.588000 1.393800
18.640600 1.594500
18.693100 1.600700
18.745700 1.598000
18.798300 1.598000
18.850800 1.264300
18.903400 1.156500
18.956000 1.335500
19.008500 1.540200
19.061100 1.756000
19.113700 1.696100
19.166200 1.539800
19.218800 1.585000
19.271300 1.787500
19.323900 1.547100
19.376500 1.390000
19.429000 1.346800
19.481600 1.089000
19.534200 1.340500
19.586700 1.599200
19.639300 1.663700
19.691900 2.234100
19.744400 1.954700
19.797000 1.832700
19.849600 1.656600
19.902100 1.077000
19.954700 1.159500
20.007300 1.645000
20.059800 1.326800
20.112400 0.890900
20.165000 1.217600
20.217500 1.365400
20.270100 1.299800
20.322600 1.257100
20.375200 1.123600
20.427800 1.175200
20.480300 1.595700
20.532900 1.923000
20.585500 1.229200
20.638000 0.628800
20.690600 0.634700
20.743200 1.154300
20.795700 1.787800
20.848300 1.741200
20.900900 1.195200
20.953400 1.184100
21.006000 1.475700
21.058600 1.787300
21.111100 1.799500
21.163700 1.818600
21.216300 1.698700
21.268800 1.472800
21.321400 1.599700
21.373900 1.637700
21.426500 1.415000
21.479100 1.376100
21.531600 1.357100
21.584200 1.152300
21.636800 1.030400
21.689300 1.367600
21.741900 1.706300
21.794500 2.069400
21.847000 1.784700
21.899600 1.296700
21.952200 1.221200
22.004700 1.014000
22.057300 1.080500
22.109900 1.176000
22.162400 1.342800
22.215000 1.408700
22.267600 1.675600
22.320100 1.987300
22.372700 2.172400
22.425200 2.294600
22.477800 1.980200
22.530400 1.412200
22.582900 1.424100
22.635500 1.677600
22.688100 1.766700
22.740600 1.698900
22.793200 1.498700
22.845800 1.517800
22.898300 1.606500
22.950900 1.143400
23.003500 1.000200
23.056000 1.451700
23.108600 1.762500
23.161200 1.390200
23.213700 0.907900
23.266300 1.001600
23.318900 1.222900
23.371400 1.486300
23.424000 1.658100
23.476500 1.366600
23.529100 1.217400
23.581700 1.364500
23.634200 1.330000
23.686800 1.299400
23.739400 1.345000
23.791900 1.486300
23.844500 1.552500
23.897100 1.790000
23.949600 1.720200
24.002200 2.208900
24.054800 2.430600
24.107300 2.136500
24.159900 1.366200
24.212500 1.314800
24.265000 1.376500
24.317600 1.283600
24.370200 1.378300
24.422700 1.851700
24.475300 1.638400
24.527800 1.309500
24.580400 1.227700
24.633000 1.375700
24.685500 1.353600
24.738100 1.466300
24.790700 1.729500
24.843200 1.722700
24.895800 1.955300
24.948400 1.786600
25.000900 1.426900
25.053500 1.988200
25.106100 2.834800
25.158600 1.690100
25.211200 0.919600
25.263800 1.061100
25.316300 1.426400
25.368900 1.449200
25.421500 1.185200
25.474000 1.350100
25.526600 1.621300
25.579100 1.663400
25.631700 1.581400
25.684300 1.695600
25.736800 2.054900
25.789400 1.763900
25.842000 1.480000
25.894500 1.442600
25.947100 1.901800
25.999700 2.115900
26.052200 1.637100
26.104800 1.451900
26.157400 1.245500
26.209900 1.334100
26.262500 1.599600
26.315100 1.574500
26.367600 1.329500
26.420200 1.784600
26.472800 2.030600
26.525300 1.909400
26.577900 2.017300
26.630400 2.169800
26.683000 2.066600
26.735600 1.315200
26.788100 1.023500
26.840700 1.174200
26.893300 1.069400
26.945800 1.188800
26.998400 1.731500
27.051000 1.775600
27.103500 1.519600
27.156100 1.315100
27.208700 1.467800
27.261200 1.433300
27.313800 1.606100
27.366400 1.510000
27.418900 1.607300
27.471500 1.803900
27.524100 1.920200
27.576600 1.947000
27.629200 1.697900
27.681700 1.302700
27.734300 1.315000
27.786900 1.630600
27.839400 2.104000
27.892000 1.758100
27.944600 1.424900
27.997100 1.544800
28.049700 1.740200
28.102300 1.715600
28.154800 1.875900
28.207400 1.745000
28.260000 1.360200
28.312500 1.122000
28.365100 1.452200
28.417700 1.826300
28.470200 1.802700
28.522800 1.222700
28.575400 1.424300
28.627900 1.521600
28.680500 1.515500
28.733000 2.045700
28.785600 2.008400
28.838200 1.823600
28.890700 1.611000
28.943300 1.524300
28.995900 1.576600
29.048400 1.659700
29.101000 2.042400
29.153600 2.331400
29.206100 1.757800
29.258700 1.118800
29.311300 1.212700
29.363800 1.410200
29.416400 1.404400
29.469000 1.782700
29.521500 2.049100
29.574100 1.754300
29.626700 1.636000
29.679200 1.774700
29.731800 1.838300
29.784300 1.317400
29.836900 1.821200
29.889500 2.623400
29.942000 2.277000
29.994600 1.901800
30.047200 1.466500
30.099700 1.360700
30.152300 2.058800
30.204900 2.558600
30.257400 2.140300
30.310000 2.013400
30.362600 1.916900
30.415100 1.910000
30.467700 1.860100
30.520300 1.455800
30.572800 1.272400
30.625400 1.653300
30.678000 1.782200
30.730500 1.752900
30.783100 1.769900
30.835600 1.954800
30.888200 2.086400
30.940800 2.122500
30.993300 2.015500
31.045900 1.608700
31.098500 1.427200
31.151000 1.687000
31.203600 1.720500
31.256200 1.552300
31.308700 1.884700
31.361300 1.876900
31.413900 1.596300
31.466400 1.570300
31.519000 1.460000
31.571600 1.328200
31.624100 1.559600
31.676700 2.086700
31.729300 1.817600
31.781800 1.747000
31.834400 1.645600
31.886900 1.351800
31.939500 1.766600
31.992100 2.142000
32.044600 2.182700
32.097200 2.075100
32.149800 1.944700
32.202300 1.968700
32.254900 1.866700
32.307500 1.988400
32.360000 2.158500
32.412600 1.825000
32.465200 1.878000
32.517700 1.562100
32.570300 1.254700
32.622900 1.270000
32.675400 1.500400
32.728000 1.871700
32.780500 2.052000
32.833100 2.022800
32.885700 1.321900
32.938200 1.309900
32.990800 1.421900
33.043400 1.576700
33.095900 2.058300
33.148500 2.051000
33.201100 1.817100
33.253600 2.164300
33.306200 2.563300
33.358800 2.272800
33.411300 2.191300
33.463900 1.844600
33.516500 1.766100
33.569000 1.704600
33.621600 2.209600
33.674200 1.767700
33.726700 1.553500
33.779300 2.220100
33.831800 2.229100
33.884400 1.505600
33.937000 1.260900
33.989500 1.637700
34.042100 1.543300
34.094700 1.493300
34.147200 1.471200
34.199800 1.035600
34.252400 1.199600
34.304900 1.669500
34.357500 1.692200
34.410100 1.812200
34.462600 1.865300
34.515200 1.901300
34.567800 2.254700
34.620300 2.284700
34.672900 2.306700
34.725500 2.471500
34.778000 2.382100
34.830600 2.143100
34.883100 1.778900
34.935700 1.496700
34.988300 1.414300
35.040800 1.534000
35.093400 2.387300
35.146000 2.511600
35.198500 2.098800
35.251100 1.975200
35.303700 1.778100
35.356200 1.546200
35.408800 1.315500
35.461400 1.350200
35.513900 1.561400
35.566500 1.570900
35.619100 1.647200
35.671600 1.707500
35.724200 1.293100
35.776800 1.641200
35.829300 2.082300
35.881900 1.731900
35.934400 1.734400
35.987000 2.081300
36.039600 2.157800
36.092100 1.579900
36.144700 1.233200
36.197300 1.514100
36.249800 1.635800
36.302400 1.817400
36.355000 1.649600
36.407500 2.098800
36.460100 2.015200
36.512700 1.360100
36.565200 1.367700
36.617800 1.547600
36.670400 1.944100
36.722900 2.047300
36.775500 1.716200
36.828100 1.633500
36.880600 1.777900
36.933200 1.882200
36.985700 2.060200
37.038300 1.882900
37.090900 2.087000
37.143400 2.327500
37.196000 2.323800
37.248600 2.098200
37.301100 2.227600
37.353700 2.688300
37.406300 2.375500
37.458800 1.727200
37.511400 1.386800
37.564000 1.337500
37.616500 1.404500
37.669100 1.691800
37.721700 1.863600
37.774200 2.098300
37.826800 1.819700
37.879400 1.663900
37.931900 1.903400
37.984500 2.420200
38.037000 2.516600
38.089600 1.762600
38.142200 1.233300
38.194700 1.364100
38.247300 1.828900
38.299900 1.682800
38.352400 1.434400
38.405000 1.359100
38.457600 1.709100
38.510100 1.663800
38.562700 2.095800
38.615300 2.045900
38.667800 1.468700
38.720400 1.446400
38.773000 1.626100
38.825500 2.021900
38.878100 2.074100
38.930700 2.036400
38.983200 2.362900
39.035800 2.319600
39.088300 2.188300
39.140900 1.980100
39.193500 1.353600
39.246000 1.177600
39.298600 1.461200
39.351200 2.227200
39.403700 2.263400
39.456300 2.072100
39.508900 1.845000
39.561400 1.868500
39.614000 1.901000
39.666600 1.600000
39.719100 1.710000
39.771700 1.771100
39.824300 2.394900
39.876800 2.836000
39.929400 2.600300
39.982000 2.064400
40.034500 1.736100
40.087100 1.718500
40.139600 1.480600
40.192200 1.742900
40.244800 1.793300
40.297300 1.491000
40.349900 1.251400
40.402500 2.698600
40.455000 2.833300
40.507600 1.552300
40.560200 1.485300
40.612700 2.076300
40.665300 2.442100
40.717900 1.954400
40.770400 1.699800
40.823000 1.721800
40.875600 1.826500
40.928100 2.426800
40.980700 2.235000
41.033300 2.126000
41.085800 2.014500
41.138400 2.182700
41.190900 2.340400
41.243500 2.046700
41.296100 1.339000
41.348600 1.176300
41.401200 1.689000
41.453800 1.719100
41.506300 1.515100
41.558900 1.683300
41.611500 1.854300
41.664000 1.893100
41.716600 1.520400
41.769200 1.492800
41.821700 1.959700
41.874300 2.259500
41.926900 2.305900
41.979400 2.259500
42.032000 2.067100
42.084600 1.934000
42.137100 2.405700
42.189700 2.628600
42.242200 2.339400
42.294800 2.051600
42.347400 1.866900
42.399900 1.720700
42.452500 1.564700
42.505100 1.427100
42.557600 1.688300
42.610200 1.844600
42.662800 2.172100
42.715300 2.732100
42.767900 2.845900
42.820500 2.311100
42.873000 2.211100
42.925600 1.974900
42.978200 2.293500
43.030700 2.387000
43.083300 2.063200
43.135900 1.918300
43.188400 1.787900
43.241000 1.752900
43.293500 2.054200
43.346100 2.403700
43.398700 2.111100
43.451200 2.031900
43.503800 1.930800
43.556400 2.044000
43.608900 2.045600
43.661500 1.718200
43.714100 2.087000
43.766600 1.877000
43.819200 1.552100
43.871800 2.333800
43.924300 2.840000
43.976900 2.292400
44.029500 2.406200
44.082000 2.166000
44.134600 1.724500
44.187200 1.966900
44.239700 2.135300
44.292300 2.405600
44.344800 2.139000
44.397400 1.476400
44.450000 1.413000
44.502500 1.794000
44.555100 2.101200
44.607700 2.288800
44.660200 2.478900
44.712800 2.750100
44.765400 2.485700
44.817900 2.382100
44.870500 2.054500
44.923100 2.258600
44.975600 2.482500
45.028200 2.468800
45.080800 2.282500
45.133300 1.828000
45.185900 1.839000
45.238500 2.124600
45.291000 1.683600
45.343600 1.639200
45.396100 1.950700
45.448700 1.662200
45.501300 1.915000
45.553800 2.155800
45.606400 1.883800
45.659000 1.592000
45.711500 2.306300
45.764100 2.779700
45.816700 2.677400
45.869200 2.689900
45.921800 2.369000
45.974400 1.879200
46.026900 2.050300
46.079500 2.042600
46.132100 2.150300
46.184600 2.212300
46.237200 2.167400
46.289800 1.814300
46.342300 1.597600
46.394900 1.336200
46.447400 0.877600
46.500000 1.031200
46.552600 1.349400
46.605100 1.560900
46.657700 2.291500
46.710300 2.631500
46.762800 2.503700
46.815400 1.986500
46.868000 1.842400
46.920500 1.956900
46.973100 2.257200
47.025700 2.049600
47.078200 1.904300
47.130800 2.184800
47.183400 2.510700
47.235900 2.560200
47.288500 1.862000
47.341100 1.564500
47.393600 1.839300
47.446200 2.356700
47.498700 2.075500
47.551300 2.001700
47.603900 2.289500
47.656400 2.137300
47.709000 2.124100
47.761600 2.275900
47.814100 1.779200
47.866700 1.448600
47.919300 1.552500
47.971800 2.143200
48.024400 2.647900
48.077000 2.553900
48.129500 2.192200
48.182100 2.124800
48.234700 2.157100
48.287200 1.796300
48.339800 1.840700
48.392400 2.150800
48.444900 2.218000
48.497500 2.122600
48.550000 1.846200
48.602600 1.969500
48.655200 1.855100
48.707700 1.637300
48.760300 1.832700
48.812900 2.216500
48.865400 1.830200
48.918000 1.952500
48.970600 2.654000
49.023100 2.284900
49.075700 2.206800
49.128300 2.106500
49.180800 2.013100
49.233400 2.113000
49.286000 2.141900
49.338500 1.927200
49.391100 1.700900
49.443700 1.928000
49.496200 2.226100
49.548800 2.222900
49.601300 2.062100
49.653900 2.487300
49.706500 2.470300
49.759000 1.920800
49.811600 1.696900
49.864200 1.509100
49.916700 1.775000
49.969300 2.213700
50.021900 2.635600
50.074400 2.428900
50.127000 2.451300
50.179600 2.575200
50.232100 2.009900
50.284700 1.973600
50.337300 2.235300
50.389800 2.233400
50.442400 2.156800
50.495000 1.638800
50.547500 1.729300
50.600100 1.951100
50.652600 2.517300
50.705200 2.468400
50.757800 1.898400
50.810300 1.794400
50.862900 2.387100
50.915500 2.317800
50.968000 1.838800
51.020600 2.134200
51.073200 2.494600
51.125700 2.267100
51.178300 1.934800
51.230900 1.837800
51.283400 1.613900
51.336000 1.611100
51.388600 2.173700
51.441100 2.412400
51.493700 1.982600
51.546300 2.083600
51.598800 2.066100
51.651400 1.764100
51.703900 1.642800
51.756500 1.684300
51.809100 1.548400
51.861600 1.829600
51.914200 1.735100
51.966800 1.703400
52.019300 1.596900
52.071900 1.090600
52.124500 1.117900
52.177000 1.556400
52.229600 1.734500
52.282200 1.206200
52.334700 0.932000
52.387300 0.830400
52.439900 0.918200
52.492400 1.422900
52.545000 1.909000
52.597600 1.893300
52.650100 1.197900
52.702700 1.286300
52.755200 1.632300
52.807800 1.167800
52.860400 0.760200
52.912900 0.762500
52.965500 1.049000
53.018100 1.114300
53.070600 1.041400
53.123200 0.922800
53.175800 0.766900
53.228300 0.577000
53.280900 0.475900
53.333500 0.531800
53.386000 0.660000
53.438600 0.603300
53.491200 0.388100
53.543700 0.171200
53.596300 0.186200
53.648800 0.424000
53.701400 0.411200
53.754000 0.338000
53.806500 0.309800
53.859100 0.271000
53.911700 0.169900
53.964200 0.084500
54.016800 0.037100
54.069400 0.009900
54.121900 0.027900
54.174500 0.019200
54.227100 0.009200
54.279600 0.055300
54.332200 0.119300
54.384800 0.116800
54.437300 0.055100
54.489900 0.006700
54.542500 0.004700
54.595000 0.070800
54.647600 0.177200
54.700100 0.075100
54.752700 0.008400
54.805300 0.035400
54.857800 0.057100
54.910400 0.017400
54.963000 0.033900
55.015500 0.068000
55.068100 0.110400
55.120700 0.152900
55.173200 0.047900
55.225800 0.031100
55.278400 0.062100
55.330900 0.050500
55.383500 0.060000
55.436100 0.017800
55.488600 0.000800
55.541200 0.000100
55.593800 0.005700
55.646300 0.043700
55.698900 0.051600
55.751400 0.009500
55.804000 0.000300
55.856600 0.000000
55.909100 0.000000
55.961700 0.000000
56.014300 0.000000
56.066800 0.000000
56.119400 0.000000
56.172000 0.000000
56.224500 0.000000
56.277100 0.000000
56.329700 0.000000
56.382200 0.000000
56.434800 0.000000
56.487400 0.000000
56.539900 0.000000
56.592500 0.000000
56.645100 0.000000
56.697600 0.000000
56.750200 0.000000
56.802700 0.000000
56.855300 0.000000
56.907900 0.000000
56.960400 0.000000
57.013000 0.000000
57.065600 0.000000
57.118100 0.000000
57.170700 0.000000
57.223300 0.000000
57.275800 0.000000
57.328400 0.000000
57.381000 0.000000
57.433500 0.000000
57.486100 0.000000
57.538700 0.000000
57.591200 0.000000
57.643800 0.000000
57.696400 0.000000
57.748900 0.000000
57.801500 0.000000
57.854000 0.000000
57.906600 0.000000
57.959200 0.000000
58.011700 0.000000
58.064300 0.000000
58.116900 0.000000
58.169400 0.000000
58.222000 0.000000
58.274600 0.000000
58.327100 0.000000
58.379700 0.000000
58.432300 0.000000
58.484800 0.000000
58.537400 0.000000
58.590000 0.000000
58.642500 0.000000
58.695100 0.000000
58.747700 0.000000
58.800200 0.000000
58.852800 0.000000
58.905300 0.000000
58.957900 0.000000
59.010500 0.000000
59.063000 0.000000
59.115600 0.000000
59.168200 0.000000
59.220700 0.000000
59.273300 0.000000
59.325900 0.000000
59.378400 0.000000
59.431000 0.000000
59.483600 0.000000
59.536100 0.000000
59.588700 0.000000
59.641300 0.000000
59.693800 0.000000
59.746400 0.000000
59.799000 0.000000
59.851500 0.000000
59.904100 0.000000
59.956600 0.000000
60.009200 0.000000
60.061800 0.000000
60.114300 0.000000
60.166900 0.000000
60.219500 0.000000
60.272000 0.000000
60.324600 0.000000
60.377200 0.000000
60.429700 0.000000
e
