set title 'mp-567296 - Density of States'
set xlabel 'Energy (eV)'
set ylabel 'DOS (states/eV)'
set grid
set xrange [-10:10]
set yrange [0:237.019]
set xzeroaxis lt -1
set terminal png size 800,600
set output 'mp-567296_dos_gnuplot.png'
plot '-' using 1:2 with lines title 'DOS'
-12.103700 0.000000
-12.089500 0.000000
-12.075300 0.000000
-12.061100 0.000000
-12.046900 0.000000
-12.032700 0.000000
-12.018500 0.000000
-12.004200 0.000000
-11.990000 0.000000
-11.975800 0.000000
-11.961600 0.000000
-11.947400 0.000000
-11.933200 0.000000
-11.919000 0.000000
-11.904800 0.000000
-11.890600 0.000000
-11.876400 0.000000
-11.862100 0.000000
-11.847900 0.000000
-11.833700 0.000000
-11.819500 0.000000
-11.805300 0.000000
-11.791100 0.000000
-11.776900 0.000000
-11.762700 0.000000
-11.748500 0.000000
-11.734300 0.000000
-11.720100 0.000000
-11.705800 0.000000
-11.691600 0.000000
-11.677400 0.000000
-11.663200 0.000000
-11.649000 0.000000
-11.634800 0.000000
-11.620600 0.000000
-11.606400 0.000000
-11.592200 0.000000
-11.578000 0.000000
-11.563700 0.000000
-11.549500 0.000000
-11.535300 0.000000
-11.521100 0.000000
-11.506900 0.000000
-11.492700 0.000000
-11.478500 0.000000
-11.464300 0.000000
-11.450100 0.000000
-11.435900 0.000000
-11.421600 0.000000
-11.407400 0.000000
-11.393200 0.000000
-11.379000 0.000000
-11.364800 0.000000
-11.350600 0.000000
-11.336400 0.000000
-11.322200 0.000000
-11.308000 0.000000
-11.293800 0.000000
-11.279500 0.000000
-11.265300 0.000000
-11.251100 0.000000
-11.236900 0.000000
-11.222700 0.000000
-11.208500 0.000000
-11.194300 0.000000
-11.180100 0.000000
-11.165900 0.000000
-11.151700 0.000000
-11.137400 0.000000
-11.123200 0.000000
-11.109000 0.000000
-11.094800 0.000000
-11.080600 0.000000
-11.066400 0.000000
-11.052200 0.000000
-11.038000 0.000000
-11.023800 0.000000
-11.009600 0.000000
-10.995400 0.000000
-10.981100 0.000000
-10.966900 0.000000
-10.952700 0.000000
-10.938500 0.000000
-10.924300 0.000000
-10.910100 0.000000
-10.895900 0.000000
-10.881700 0.000000
-10.867500 0.000000
-10.853300 0.000000
-10.839000 0.000000
-10.824800 0.000000
-10.810600 0.046200
-10.796400 0.553900
-10.782200 1.061700
-10.768000 1.569400
-10.753800 2.077200
-10.739600 2.584900
-10.725400 1.831300
-10.711200 2.420100
-10.696900 3.283000
-10.682700 4.405200
-10.668500 5.527500
-10.654300 6.649700
-10.640100 6.336100
-10.625900 7.013700
-10.611700 6.050900
-10.597500 6.271400
-10.583300 6.499900
-10.569100 6.755500
-10.554800 7.011100
-10.540600 7.266700
-10.526400 7.522100
-10.512200 7.775100
-10.498000 8.044100
-10.483800 8.337200
-10.469600 8.684000
-10.455400 9.030800
-10.441200 9.384300
-10.427000 9.747800
-10.412700 10.103800
-10.398500 10.459700
-10.384300 12.001600
-10.370100 13.152800
-10.355900 14.303900
-10.341700 23.668400
-10.327500 26.530900
-10.313300 26.334700
-10.299100 33.816300
-10.284900 41.042200
-10.270700 64.445500
-10.256400 46.783400
-10.242200 36.273400
-10.228000 41.145400
-10.213800 43.187400
-10.199600 50.254300
-10.185400 138.000200
-10.171200 225.160500
-10.157000 0.000000
-10.142800 0.000000
-10.128600 0.000000
-10.114300 0.000000
-10.100100 0.000000
-10.085900 0.000000
-10.071700 0.000000
-10.057500 0.000000
-10.043300 0.000000
-10.029100 0.000000
-10.014900 0.000000
-10.000700 0.000000
-9.986500 0.000000
-9.972200 0.000000
-9.958000 0.000000
-9.943800 0.000000
-9.929600 0.000000
-9.915400 0.000000
-9.901200 0.000000
-9.887000 0.000000
-9.872800 0.000000
-9.858600 0.000000
-9.844400 0.000000
-9.830100 0.000000
-9.815900 0.000000
-9.801700 0.000000
-9.787500 0.000000
-9.773300 0.000000
-9.759100 0.000000
-9.744900 0.000000
-9.730700 0.000000
-9.716500 0.000000
-9.702300 0.000000
-9.688000 0.000000
-9.673800 0.000000
-9.659600 0.000000
-9.645400 0.000000
-9.631200 0.000000
-9.617000 0.000000
-9.602800 0.000000
-9.588600 0.000000
-9.574400 0.000000
-9.560200 0.000000
-9.546000 0.000000
-9.531700 0.000000
-9.517500 0.000000
-9.503300 0.000000
-9.489100 0.000000
-9.474900 0.000000
-9.460700 0.000000
-9.446500 0.000000
-9.432300 0.000000
-9.418100 0.000000
-9.403900 0.000000
-9.389600 0.000000
-9.375400 0.000000
-9.361200 0.000000
-9.347000 0.000000
-9.332800 0.000000
-9.318600 0.000000
-9.304400 0.000000
-9.290200 0.000000
-9.276000 0.000000
-9.261800 0.000000
-9.247500 0.000000
-9.233300 0.000000
-9.219100 0.000000
-9.204900 0.000000
-9.190700 0.000000
-9.176500 0.000000
-9.162300 0.000000
-9.148100 0.000000
-9.133900 0.000000
-9.119700 0.000000
-9.105400 0.000000
-9.091200 0.000000
-9.077000 0.000000
-9.062800 0.000000
-9.048600 0.000000
-9.034400 0.000000
-9.020200 0.000000
-9.006000 0.000000
-8.991800 0.000000
-8.977600 0.000000
-8.963300 0.000000
-8.949100 0.000000
-8.934900 0.000000
-8.920700 0.000000
-8.906500 0.000000
-8.892300 0.000000
-8.878100 0.000000
-8.863900 0.000000
-8.849700 0.000000
-8.835500 0.000000
-8.821300 0.000000
-8.807000 0.000000
-8.792800 0.000000
-8.778600 0.000000
-8.764400 0.000000
-8.750200 0.000000
-8.736000 0.000000
-8.721800 0.000000
-8.707600 0.000000
-8.693400 0.000000
-8.679200 0.000000
-8.664900 0.000000
-8.650700 0.000000
-8.636500 0.000000
-8.622300 0.000000
-8.608100 0.000000
-8.593900 0.000000
-8.579700 0.000000
-8.565500 0.000000
-8.551300 0.000000
-8.537100 0.000000
-8.522800 0.000000
-8.508600 0.000000
-8.494400 0.000000
-8.480200 0.000000
-8.466000 0.000000
-8.451800 0.000000
-8.437600 0.000000
-8.423400 0.000000
-8.409200 0.000000
-8.395000 0.000000
-8.380700 0.000000
-8.366500 0.000000
-8.352300 0.000000
-8.338100 0.000000
-8.323900 0.000000
-8.309700 0.000000
-8.295500 0.000000
-8.281300 0.000000
-8.267100 0.000000
-8.252900 0.000000
-8.238600 0.000000
-8.224400 0.000000
-8.210200 0.000000
-8.196000 0.000000
-8.181800 0.000000
-8.167600 0.000000
-8.153400 0.000000
-8.139200 0.000000
-8.125000 0.000000
-8.110800 0.000000
-8.096600 0.000000
-8.082300 0.000000
-8.068100 0.000000
-8.053900 0.000000
-8.039700 0.000000
-8.025500 0.000000
-8.011300 0.000000
-7.997100 0.000000
-7.982900 0.000000
-7.968700 0.000000
-7.954500 0.000000
-7.940200 0.000000
-7.926000 0.000000
-7.911800 0.000000
-7.897600 0.000000
-7.883400 0.000000
-7.869200 0.000000
-7.855000 0.000000
-7.840800 0.000000
-7.826600 0.000000
-7.812400 0.000000
-7.798100 0.000000
-7.783900 0.000000
-7.769700 0.000000
-7.755500 0.000000
-7.741300 0.000000
-7.727100 0.000000
-7.712900 0.000000
-7.698700 0.000000
-7.684500 0.000000
-7.670300 0.000000
-7.656000 0.000000
-7.641800 0.000000
-7.627600 0.000000
-7.613400 0.000000
-7.599200 0.000000
-7.585000 0.000000
-7.570800 0.000000
-7.556600 0.000000
-7.542400 0.000000
-7.528200 0.000000
-7.513900 0.000000
-7.499700 0.000000
-7.485500 0.000000
-7.471300 0.000000
-7.457100 0.000000
-7.442900 0.000000
-7.428700 0.000000
-7.414500 0.000000
-7.400300 0.000000
-7.386100 0.000000
-7.371900 0.000000
-7.357600 0.000000
-7.343400 0.000000
-7.329200 0.000000
-7.315000 0.000000
-7.300800 0.000000
-7.286600 0.000000
-7.272400 0.000000
-7.258200 0.000000
-7.244000 0.000000
-7.229800 0.000000
-7.215500 0.000000
-7.201300 0.000000
-7.187100 0.000000
-7.172900 0.000000
-7.158700 0.000000
-7.144500 0.000000
-7.130300 0.000000
-7.116100 0.000000
-7.101900 0.000000
-7.087700 0.000000
-7.073400 0.000000
-7.059200 0.000000
-7.045000 0.000000
-7.030800 0.000000
-7.016600 0.000000
-7.002400 0.000000
-6.988200 0.000000
-6.974000 0.000000
-6.959800 0.000000
-6.945600 0.000000
-6.931300 0.000000
-6.917100 0.000000
-6.902900 0.000000
-6.888700 0.000000
-6.874500 0.000000
-6.860300 0.000000
-6.846100 0.000000
-6.831900 0.000000
-6.817700 0.000000
-6.803500 0.000000
-6.789200 0.000000
-6.775000 0.000000
-6.760800 0.000000
-6.746600 0.000000
-6.732400 0.000000
-6.718200 0.000000
-6.704000 0.000000
-6.689800 0.000000
-6.675600 0.000000
-6.661400 0.000000
-6.647200 0.000000
-6.632900 0.000000
-6.618700 0.000000
-6.604500 0.000000
-6.590300 0.000000
-6.576100 0.000000
-6.561900 0.000000
-6.547700 17.245400
-6.533500 27.343100
-6.519300 48.514800
-6.505100 34.045700
-6.490800 16.341100
-6.476600 15.452000
-6.462400 14.562800
-6.448200 94.650400
-6.434000 90.862200
-6.419800 131.328100
-6.405600 86.789100
-6.391400 68.000900
-6.377200 104.570900
-6.363000 86.967600
-6.348700 155.540700
-6.334500 186.954200
-6.320300 55.587600
-6.306100 45.911400
-6.291900 59.506800
-6.277700 215.471700
-6.263500 123.343100
-6.249300 66.224900
-6.235100 105.182100
-6.220900 73.658800
-6.206600 32.179900
-6.192400 27.293000
-6.178200 22.406100
-6.164000 20.793300
-6.149800 0.000000
-6.135600 0.000000
-6.121400 0.000000
-6.107200 0.000000
-6.093000 0.000000
-6.078800 0.000000
-6.064500 0.000000
-6.050300 0.000000
-6.036100 0.000000
-6.021900 0.000000
-6.007700 0.000000
-5.993500 0.000000
-5.979300 0.000000
-5.965100 0.000000
-5.950900 0.000000
-5.936700 0.000000
-5.922500 0.000000
-5.908200 0.000000
-5.894000 0.000000
-5.879800 0.000000
-5.865600 0.000000
-5.851400 0.000000
-5.837200 0.000000
-5.823000 0.000000
-5.808800 0.000000
-5.794600 0.000000
-5.780400 0.000000
-5.766100 0.000000
-5.751900 0.000000
-5.737700 0.000000
-5.723500 0.000000
-5.709300 0.000000
-5.695100 0.000000
-5.680900 0.000000
-5.666700 0.000000
-5.652500 0.000000
-5.638300 0.000000
-5.624000 0.000000
-5.609800 0.000000
-5.595600 0.000000
-5.581400 0.000000
-5.567200 0.000000
-5.553000 0.000000
-5.538800 0.000000
-5.524600 0.000000
-5.510400 0.000000
-5.496200 0.000000
-5.481900 0.000000
-5.467700 0.000000
-5.453500 0.000000
-5.439300 0.000000
-5.425100 0.000000
-5.410900 0.000000
-5.396700 0.000000
-5.382500 0.000000
-5.368300 0.000000
-5.354100 0.000000
-5.339800 0.000000
-5.325600 0.000000
-5.311400 0.000000
-5.297200 0.000000
-5.283000 0.000000
-5.268800 0.000000
-5.254600 0.000000
-5.240400 0.000000
-5.226200 0.000000
-5.212000 0.000000
-5.197800 0.000000
-5.183500 0.000000
-5.169300 0.000000
-5.155100 0.000000
-5.140900 0.000000
-5.126700 0.000000
-5.112500 0.000000
-5.098300 0.000000
-5.084100 0.000000
-5.069900 0.000000
-5.055700 0.000000
-5.041400 0.000000
-5.027200 0.000000
-5.013000 0.000000
-4.998800 0.000000
-4.984600 0.000000
-4.970400 0.000000
-4.956200 0.000000
-4.942000 0.000000
-4.927800 0.000000
-4.913600 0.000000
-4.899300 0.000000
-4.885100 0.000000
-4.870900 0.000000
-4.856700 0.000000
-4.842500 0.000000
-4.828300 0.000000
-4.814100 0.000000
-4.799900 0.000000
-4.785700 0.000000
-4.771500 0.000000
-4.757200 0.000000
-4.743000 0.000000
-4.728800 0.000000
-4.714600 0.000000
-4.700400 0.000000
-4.686200 0.000000
-4.672000 0.000000
-4.657800 0.000000
-4.643600 0.000000
-4.629400 0.000000
-4.615100 0.000000
-4.600900 0.000000
-4.586700 0.000000
-4.572500 0.000000
-4.558300 0.000000
-4.544100 0.000000
-4.529900 0.000000
-4.515700 0.000000
-4.501500 0.000000
-4.487300 0.000000
-4.473100 0.000000
-4.458800 0.000000
-4.444600 0.000000
-4.430400 0.000000
-4.416200 0.000000
-4.402000 0.000000
-4.387800 0.000000
-4.373600 0.000000
-4.359400 0.000000
-4.345200 0.000000
-4.331000 0.000000
-4.316700 0.000000
-4.302500 0.000000
-4.288300 0.000000
-4.274100 0.000000
-4.259900 0.000000
-4.245700 0.000000
-4.231500 0.000000
-4.217300 0.000000
-4.203100 0.000000
-4.188900 0.000000
-4.174600 0.000000
-4.160400 0.000000
-4.146200 0.000000
-4.132000 0.000000
-4.117800 0.000000
-4.103600 0.000000
-4.089400 0.000000
-4.075200 0.000000
-4.061000 0.000000
-4.046800 0.000000
-4.032500 0.000000
-4.018300 0.000000
-4.004100 0.000000
-3.989900 0.000000
-3.975700 0.000000
-3.961500 0.000000
-3.947300 0.000000
-3.933100 0.000000
-3.918900 0.000000
-3.904700 0.000000
-3.890400 0.000000
-3.876200 0.000000
-3.862000 0.000000
-3.847800 0.000000
-3.833600 0.000000
-3.819400 0.000000
-3.805200 0.000000
-3.791000 0.000000
-3.776800 0.000000
-3.762600 0.000000
-3.748400 0.000000
-3.734100 0.000000
-3.719900 0.000000
-3.705700 0.000000
-3.691500 0.000000
-3.677300 0.000000
-3.663100 0.000000
-3.648900 0.000000
-3.634700 0.000000
-3.620500 0.000000
-3.606300 0.000000
-3.592000 0.000000
-3.577800 0.000000
-3.563600 0.000000
-3.549400 0.000000
-3.535200 0.000000
-3.521000 0.000000
-3.506800 0.000000
-3.492600 0.000000
-3.478400 0.000000
-3.464200 0.000000
-3.449900 0.000000
-3.435700 0.000000
-3.421500 0.000000
-3.407300 0.000000
-3.393100 0.000000
-3.378900 0.000000
-3.364700 0.000000
-3.350500 0.000000
-3.336300 0.000000
-3.322100 0.000000
-3.307800 0.000000
-3.293600 0.000000
-3.279400 0.000000
-3.265200 0.000000
-3.251000 0.000000
-3.236800 0.000000
-3.222600 0.000000
-3.208400 0.000000
-3.194200 0.000000
-3.180000 0.000000
-3.165700 0.000000
-3.151500 0.000000
-3.137300 0.000000
-3.123100 0.000000
-3.108900 0.000000
-3.094700 0.000000
-3.080500 0.000000
-3.066300 0.000000
-3.052100 0.000000
-3.037900 0.000000
-3.023700 0.000000
-3.009400 0.000000
-2.995200 0.000000
-2.981000 0.000000
-2.966800 0.000000
-2.952600 0.000000
-2.938400 0.000000
-2.924200 0.000000
-2.910000 0.000000
-2.895800 0.000000
-2.881600 0.000000
-2.867300 0.000000
-2.853100 0.000000
-2.838900 0.000000
-2.824700 0.000000
-2.810500 0.000000
-2.796300 0.000000
-2.782100 0.000000
-2.767900 0.000000
-2.753700 0.000000
-2.739500 0.000000
-2.725200 0.000000
-2.711000 0.000000
-2.696800 0.000000
-2.682600 0.000000
-2.668400 0.000000
-2.654200 0.000000
-2.640000 0.000000
-2.625800 0.000000
-2.611600 0.000000
-2.597400 0.000000
-2.583100 3.991300
-2.568900 4.925300
-2.554700 5.859300
-2.540500 6.793200
-2.526300 9.053200
-2.512100 9.284900
-2.497900 9.958100
-2.483700 10.631300
-2.469500 32.521400
-2.455300 17.050100
-2.441000 18.809400
-2.426800 15.143400
-2.412600 16.131300
-2.398400 13.047800
-2.384200 12.795000
-2.370000 12.542100
-2.355800 10.087900
-2.341600 9.907100
-2.327400 9.726400
-2.313200 8.054800
-2.299000 8.520300
-2.284700 9.583200
-2.270500 13.132200
-2.256300 16.799400
-2.242100 18.427300
-2.227900 9.470000
-2.213700 5.227900
-2.199500 5.199300
-2.185300 5.337900
-2.171100 5.589600
-2.156900 5.841200
-2.142600 6.092900
-2.128400 6.290200
-2.114200 6.226200
-2.100000 6.156400
-2.085800 6.079500
-2.071600 6.002600
-2.057400 5.925700
-2.043200 2.664900
-2.029000 2.644100
-2.014800 2.623300
-2.000500 0.141800
-1.986300 0.000000
-1.972100 0.000000
-1.957900 0.000000
-1.943700 0.000000
-1.929500 0.000000
-1.915300 0.000000
-1.901100 0.000000
-1.886900 0.000000
-1.872700 0.000000
-1.858400 0.000000
-1.844200 0.000000
-1.830000 0.000000
-1.815800 0.000000
-1.801600 0.000000
-1.787400 0.000000
-1.773200 0.000000
-1.759000 0.000000
-1.744800 0.000000
-1.730600 0.000000
-1.716300 0.000000
-1.702100 0.000000
-1.687900 0.000000
-1.673700 0.000000
-1.659500 0.000000
-1.645300 5.260400
-1.631100 3.919000
-1.616900 2.577500
-1.602700 1.850400
-1.588500 1.956100
-1.574300 2.061800
-1.560000 8.107800
-1.545800 5.981800
-1.531600 4.169600
-1.517400 4.396000
-1.503200 11.147100
-1.489000 9.487100
-1.474800 7.827100
-1.460600 7.079000
-1.446400 7.372600
-1.432200 7.666300
-1.417900 7.959900
-1.403700 8.253500
-1.389500 8.547200
-1.375300 8.840800
-1.361100 9.134500
-1.346900 6.881000
-1.332700 7.050900
-1.318500 7.220800
-1.304300 7.390800
-1.290100 8.745300
-1.275800 18.405700
-1.261600 5.000800
-1.247400 5.037600
-1.233200 5.074400
-1.219000 5.111200
-1.204800 9.549800
-1.190600 8.174600
-1.176400 6.799400
-1.162200 5.424200
-1.148000 4.049000
-1.133700 3.157200
-1.119500 3.722000
-1.105300 3.729500
-1.091100 3.739700
-1.076900 3.753700
-1.062700 4.337200
-1.048500 4.381500
-1.034300 4.425700
-1.020100 4.470000
-1.005900 5.129700
-0.991600 5.202300
-0.977400 5.275000
-0.963200 5.345600
-0.949000 5.416300
-0.934800 5.486900
-0.920600 5.557600
-0.906400 5.625400
-0.892200 5.689200
-0.878000 5.753100
-0.863800 5.817000
-0.849600 5.880900
-0.835300 5.944800
-0.821100 6.008700
-0.806900 6.072600
-0.792700 6.136500
-0.778500 6.200400
-0.764300 6.264300
-0.750100 6.328100
-0.735900 7.122200
-0.721700 7.638300
-0.707500 8.064100
-0.693200 9.209500
-0.679000 9.275100
-0.664800 9.340700
-0.650600 9.406300
-0.636400 9.471800
-0.622200 9.654000
-0.608000 10.083500
-0.593800 12.190200
-0.579600 12.918500
-0.565400 13.097700
-0.551100 13.289600
-0.536900 13.205000
-0.522700 13.935700
-0.508500 13.916100
-0.494300 13.896500
-0.480100 13.821000
-0.465900 13.779300
-0.451700 13.854500
-0.437500 13.998100
-0.423300 14.211400
-0.409000 14.424700
-0.394800 14.638000
-0.380600 14.851300
-0.366400 15.171800
-0.352200 15.526700
-0.338000 14.848100
-0.323800 15.253400
-0.309600 15.683200
-0.295400 16.048000
-0.281200 15.593100
-0.266900 14.254100
-0.252700 14.020900
-0.238500 13.866300
-0.224300 13.793400
-0.210100 13.720500
-0.195900 12.730200
-0.181700 12.611300
-0.167500 12.430500
-0.153300 10.566100
-0.139100 11.062100
-0.124900 10.642600
-0.110600 10.199800
-0.096400 10.594800
-0.082200 10.181800
-0.068000 9.768700
-0.053800 9.355700
-0.039600 8.942700
-0.025400 8.529600
-0.011200 8.116600
0.003000 7.751100
0.017200 7.386900
0.031500 7.022700
0.045700 6.648000
0.059900 6.378100
0.074100 6.108100
0.088300 5.885700
0.102500 5.704400
0.116700 5.625500
0.130900 5.558400
0.145100 5.491300
0.159300 5.424200
0.173600 6.544400
0.187800 6.804300
0.202000 7.246500
0.216200 7.499600
0.230400 7.765100
0.244600 8.033300
0.258800 8.301500
0.273000 8.569700
0.287200 8.837900
0.301400 9.287500
0.315700 9.287700
0.329900 9.966100
0.344100 10.644400
0.358300 11.355800
0.372500 17.277000
0.386700 21.109500
0.400900 25.351200
0.415100 22.105600
0.429300 26.391500
0.443500 27.725400
0.457800 28.823200
0.472000 30.230200
0.486200 27.638000
0.500400 25.655400
0.514600 13.237500
0.528800 12.827800
0.543000 12.418000
0.557200 12.008300
0.571400 16.381000
0.585600 26.286700
0.599800 13.516800
0.614100 18.002800
0.628300 18.200000
0.642500 18.224900
0.656700 24.099500
0.670900 21.860300
0.685100 19.697400
0.699300 26.469100
0.713500 25.050500
0.727700 36.666400
0.741900 24.684100
0.756200 24.758500
0.770400 23.232900
0.784600 21.982500
0.798800 16.885700
0.813000 15.255300
0.827200 14.493600
0.841400 13.751700
0.855600 16.705800
0.869800 16.184200
0.884000 13.557700
0.898300 14.064900
0.912500 12.266600
0.926700 10.468300
0.940900 8.670000
0.955100 6.915900
0.969300 5.269300
0.983500 9.164100
0.997700 4.250200
1.011900 12.588400
1.026100 0.000000
1.040400 0.000000
1.054600 0.000000
1.068800 0.000000
1.083000 0.000000
1.097200 0.000000
1.111400 0.000000
1.125600 0.000000
1.139800 0.000000
1.154000 0.000000
1.168200 0.000000
1.182500 0.000000
1.196700 0.000000
1.210900 0.000000
1.225100 0.000000
1.239300 0.000000
1.253500 0.000000
1.267700 0.000000
1.281900 0.000000
1.296100 0.000000
1.310300 0.000000
1.324600 0.000000
1.338800 0.000000
1.353000 0.000000
1.367200 0.000000
1.381400 0.000000
1.395600 0.000000
1.409800 0.000000
1.424000 0.000000
1.438200 0.000000
1.452400 0.000000
1.466600 0.000000
1.480900 0.000000
1.495100 0.000000
1.509300 0.000000
1.523500 0.000000
1.537700 0.000000
1.551900 0.000000
1.566100 0.000000
1.580300 0.000000
1.594500 0.000000
1.608700 0.000000
1.623000 0.000000
1.637200 0.000000
1.651400 0.000000
1.665600 0.000000
1.679800 0.000000
1.694000 0.000000
1.708200 0.000000
1.722400 0.000000
1.736600 0.000000
1.750800 0.000000
1.765100 0.000000
1.779300 0.000000
1.793500 0.000000
1.807700 0.000000
1.821900 0.000000
1.836100 0.000000
1.850300 0.000000
1.864500 0.000000
1.878700 0.000000
1.892900 0.000000
1.907200 0.000000
1.921400 0.000000
1.935600 0.000000
1.949800 0.000000
1.964000 0.000000
1.978200 0.000000
1.992400 0.000000
2.006600 0.000000
2.020800 0.000000
2.035000 0.000000
2.049300 0.000000
2.063500 0.000000
2.077700 0.000000
2.091900 0.000000
2.106100 0.000000
2.120300 0.000000
2.134500 0.000000
2.148700 0.000000
2.162900 0.000000
2.177100 0.000000
2.191300 0.000000
2.205600 0.000000
2.219800 0.000000
2.234000 0.000000
2.248200 0.000000
2.262400 0.000000
2.276600 0.000000
2.290800 0.000000
2.305000 0.000000
2.319200 0.000000
2.333400 0.000000
2.347700 0.000000
2.361900 0.000000
2.376100 0.000000
2.390300 0.000000
2.404500 0.000000
2.418700 0.000000
2.432900 0.000000
2.447100 0.000000
2.461300 0.000000
2.475500 0.000000
2.489800 0.000000
2.504000 0.000000
2.518200 0.000000
2.532400 0.000000
2.546600 0.000000
2.560800 0.000000
2.575000 0.000000
2.589200 0.000000
2.603400 0.000000
2.617600 0.000000
2.631900 0.000000
2.646100 0.000000
2.660300 0.000000
2.674500 0.000000
2.688700 0.000000
2.702900 0.000000
2.717100 0.000000
2.731300 0.000000
2.745500 0.000000
2.759700 0.000000
2.774000 0.000000
2.788200 0.000000
2.802400 0.000000
2.816600 0.000000
2.830800 0.000000
2.845000 0.000000
2.859200 0.000000
2.873400 0.000000
2.887600 0.000000
2.901800 0.000000
2.916000 0.000000
2.930300 0.000000
2.944500 0.000000
2.958700 0.000000
2.972900 0.000000
2.987100 0.000000
3.001300 0.000000
3.015500 0.000000
3.029700 0.000000
3.043900 0.000000
3.058100 0.000000
3.072400 0.000000
3.086600 0.000000
3.100800 0.000000
3.115000 0.000000
3.129200 0.000000
3.143400 0.000000
3.157600 0.000000
3.171800 0.000000
3.186000 0.000000
3.200200 0.000000
3.214500 0.000000
3.228700 0.000000
3.242900 0.000000
3.257100 0.000000
3.271300 0.000000
3.285500 0.000000
3.299700 0.000000
3.313900 0.000000
3.328100 0.000000
3.342300 0.000000
3.356600 0.000000
3.370800 0.000000
3.385000 0.000000
3.399200 0.924200
3.413400 0.961400
3.427600 1.003500
3.441800 1.045700
3.456000 1.087800
3.470200 1.129900
3.484400 1.172000
3.498700 1.214200
3.512900 1.256300
3.527100 1.298400
3.541300 2.442700
3.555500 2.521700
3.569700 2.600800
3.583900 2.679900
3.598100 2.758900
3.612300 2.838000
3.626500 2.917000
3.640700 2.996100
3.655000 4.109000
3.669200 4.251100
3.683400 4.425000
3.697600 4.598900
3.711800 4.772700
3.726000 4.946600
3.740200 5.120500
3.754400 5.294300
3.768600 5.517200
3.782800 5.785900
3.797100 6.054600
3.811300 6.323400
3.825500 6.592100
3.839700 6.860900
3.853900 7.129600
3.868100 7.398400
3.882300 7.667100
3.896500 11.010600
3.910700 11.229300
3.924900 11.267600
3.939200 11.305900
3.953400 11.344200
3.967600 16.160200
3.981800 15.360600
3.996000 13.568200
4.010200 11.426900
4.024400 10.057200
4.038600 8.845200
4.052800 8.812700
4.067000 8.804800
4.081300 8.827700
4.095500 8.850500
4.109700 16.620600
4.123900 9.518900
4.138100 7.552600
4.152300 7.340900
4.166500 7.129300
4.180700 6.917600
4.194900 6.705900
4.209100 6.494200
4.223400 6.382400
4.237600 6.425600
4.251800 10.762000
4.266000 8.277600
4.280200 5.793200
4.294400 3.308800
4.308600 3.292100
4.322800 0.000000
4.337000 0.000000
4.351200 0.000000
4.365400 0.000000
4.379700 0.000000
4.393900 0.000000
4.408100 0.000000
4.422300 0.000000
4.436500 0.000000
4.450700 0.000000
4.464900 0.000000
4.479100 0.000000
4.493300 0.000000
4.507500 0.000000
4.521800 0.000000
4.536000 0.000000
4.550200 0.000000
4.564400 0.000000
4.578600 0.000000
4.592800 0.000000
4.607000 0.000000
4.621200 0.000000
4.635400 0.000000
4.649600 0.000000
4.663900 0.000000
4.678100 0.000000
4.692300 0.000000
4.706500 0.000000
4.720700 0.000000
4.734900 0.000000
4.749100 0.000000
4.763300 0.000000
4.777500 0.000000
4.791700 0.000000
4.806000 0.000000
4.820200 0.000000
4.834400 0.000000
4.848600 0.000000
4.862800 0.000000
4.877000 0.000000
4.891200 0.000000
4.905400 0.000000
4.919600 0.000000
4.933800 0.000000
4.948100 0.000000
4.962300 0.000000
4.976500 0.000000
4.990700 0.000000
5.004900 0.000000
5.019100 0.000000
5.033300 0.000000
5.047500 0.000000
5.061700 0.000000
5.075900 0.000000
5.090100 0.000000
5.104400 0.000000
5.118600 0.000000
5.132800 0.000000
5.147000 0.000000
5.161200 0.000000
5.175400 0.000000
5.189600 0.000000
5.203800 0.000000
5.218000 0.000000
5.232200 0.000000
5.246500 0.000000
5.260700 0.000000
5.274900 0.000000
5.289100 0.000000
5.303300 0.000000
5.317500 0.000000
5.331700 0.000000
5.345900 0.000000
5.360100 0.000000
5.374300 0.000000
5.388600 0.000000
5.402800 0.000000
5.417000 0.000000
5.431200 0.000000
5.445400 0.000000
5.459600 0.000000
5.473800 0.008700
5.488000 0.019300
5.502200 0.030000
5.516400 0.040600
5.530700 0.051300
5.544900 0.066500
5.559100 0.093000
5.573300 0.123700
5.587500 0.154400
5.601700 0.185000
5.615900 0.215700
5.630100 0.246400
5.644300 0.277000
5.658500 0.307700
5.672800 0.338400
5.687000 0.369000
5.701200 0.399700
5.715400 0.430400
5.729600 0.461100
5.743800 0.491700
5.758000 0.522400
5.772200 0.553100
5.786400 0.583700
5.800600 0.614400
5.814800 0.645100
5.829100 0.675700
5.843300 0.706400
5.857500 0.737100
5.871700 0.767700
5.885900 0.798400
5.900100 0.829100
5.914300 0.859800
5.928500 0.890400
5.942700 0.921100
5.956900 1.845600
5.971200 2.385900
5.985400 2.670700
5.999600 2.926700
6.013800 3.182700
6.028000 3.438800
6.042200 3.621200
6.056400 3.610400
6.070600 3.599500
6.084800 3.588600
6.099000 3.575000
6.113300 3.609300
6.127500 3.643700
6.141700 3.678100
6.155900 4.296600
6.170100 4.472500
6.184300 4.755400
6.198500 4.955400
6.212700 5.155500
6.226900 5.355600
6.241100 5.555600
6.255400 5.755700
6.269600 5.955700
6.283800 6.105900
6.298000 6.090500
6.312200 6.599100
6.326400 6.657300
6.340600 6.715500
6.354800 6.773800
6.369000 6.832000
6.383200 6.890200
6.397500 6.948400
6.411700 7.006600
6.425900 7.064800
6.440100 7.123100
6.454300 7.181300
6.468500 12.553900
6.482700 10.805200
6.496900 9.003000
6.511100 7.624800
6.525300 7.483600
6.539500 7.342400
6.553800 7.201300
6.568000 7.060100
6.582200 6.918900
6.596400 11.133900
6.610600 10.909100
6.624800 9.766600
6.639000 8.624000
6.653200 7.481400
6.667400 6.480500
6.681600 6.169600
6.695900 5.859500
6.710100 5.549500
6.724300 4.319200
6.738500 6.404200
6.752700 6.074200
6.766900 5.744300
6.781100 3.999000
6.795300 3.856400
6.809500 3.713700
6.823700 3.626400
6.838000 3.775700
6.852200 3.925100
6.866400 4.074400
6.880600 4.328700
6.894800 4.646200
6.909000 4.963600
6.923200 5.281000
6.937400 6.132500
6.951600 5.615800
6.965800 5.099200
6.980100 7.560200
6.994300 6.848300
7.008500 6.136500
7.022700 5.424600
7.036900 3.891100
7.051100 3.742400
7.065300 8.419600
7.079500 7.316800
7.093700 6.251300
7.107900 5.393800
7.122200 5.161100
7.136400 17.547500
7.150600 16.262800
7.164800 11.280300
7.179000 10.320000
7.193200 9.897500
7.207400 9.474900
7.221600 9.052400
7.235800 8.629800
7.250000 9.245100
7.264200 33.083900
7.278500 18.916100
7.292700 17.569100
7.306900 19.578400
7.321100 15.058200
7.335300 10.537900
7.349500 5.554600
7.363700 5.167000
7.377900 5.159500
7.392100 5.954000
7.406300 6.748500
7.420600 7.543000
7.434800 8.337400
7.449000 9.131900
7.463200 10.274100
7.477400 11.241500
7.491600 10.112600
7.505800 10.542000
7.520000 10.971300
7.534200 11.400700
7.548400 14.029900
7.562700 8.714100
7.576900 7.899400
7.591100 7.084800
7.605300 10.635400
7.619500 10.565800
7.633700 10.818000
7.647900 11.070200
7.662100 11.322400
7.676300 11.677900
7.690500 24.052500
7.704800 18.095600
7.719000 16.106700
7.733200 13.420500
7.747400 10.734300
7.761600 14.158000
7.775800 14.211200
7.790000 13.211900
7.804200 12.822000
7.818400 12.689900
7.832600 13.415000
7.846900 14.140200
7.861100 14.865300
7.875300 15.590400
7.889500 9.682300
7.903700 7.286600
7.917900 5.335200
7.932100 3.383800
7.946300 3.289200
7.960500 22.646000
7.974700 19.006000
7.988900 13.318300
8.003200 9.533000
8.017400 11.983200
8.031600 12.019600
8.045800 12.056000
8.060000 12.092500
8.074200 12.128900
8.088400 11.984200
8.102600 11.702600
8.116800 11.426900
8.131000 11.168200
8.145300 10.893700
8.159500 10.569700
8.173700 12.023800
8.187900 11.600500
8.202100 11.177100
8.216300 10.364300
8.230500 9.968900
8.244700 9.573500
8.258900 9.178100
8.273100 8.812600
8.287400 8.555600
8.301600 9.735400
8.315800 9.791100
8.330000 9.349300
8.344200 9.007500
8.358400 8.796900
8.372600 8.165800
8.386800 7.984400
8.401000 7.803100
8.415200 7.621700
8.429500 6.568600
8.443700 6.292300
8.457900 6.015900
8.472100 5.739500
8.486300 5.463200
8.500500 5.186800
8.514700 4.971800
8.528900 4.599300
8.543100 4.397800
8.557300 4.196300
8.571600 3.994800
8.585800 3.793300
8.600000 3.218200
8.614200 3.036700
8.628400 2.855200
8.642600 2.673700
8.656800 2.492200
8.671000 2.466900
8.685200 2.501200
8.699400 2.535400
8.713600 2.569700
8.727900 2.675900
8.742100 2.465300
8.756300 2.642900
8.770500 2.452800
8.784700 3.414300
8.798900 4.432700
8.813100 5.451100
8.827300 6.469600
8.841500 2.745200
8.855700 2.888800
8.870000 2.914000
8.884200 3.061000
8.898400 3.414400
8.912600 3.767800
8.926800 4.121100
8.941000 4.474500
8.955200 4.827900
8.969400 5.181200
8.983600 5.534600
8.997800 5.888000
9.012100 6.241300
9.026300 6.594700
9.040500 6.948100
9.054700 8.915700
9.068900 8.745000
9.083100 8.474100
9.097300 7.753300
9.111500 7.032600
9.125700 6.311800
9.139900 6.294500
9.154200 10.077900
9.168400 18.446900
9.182600 6.827500
9.196800 8.970600
9.211000 9.335000
9.225200 9.699300
9.239400 10.063700
9.253600 9.749100
9.267800 9.215900
9.282000 8.682800
9.296300 8.149600
9.310500 7.616400
9.324700 7.889500
9.338900 7.911000
9.353100 7.932400
9.367300 7.953900
9.381500 7.545800
9.395700 10.965800
9.409900 14.943900
9.424100 19.069000
9.438300 16.632200
9.452600 14.623000
9.466800 21.559700
9.481000 19.124000
9.495200 13.066700
9.509400 11.801500
9.523600 10.536300
9.537800 9.271100
9.552000 8.703900
9.566200 8.366000
9.580400 8.035900
9.594700 7.802300
9.608900 7.568700
9.623100 7.335100
9.637300 7.101500
9.651500 6.867900
9.665700 6.662400
9.679900 6.555000
9.694100 6.447600
9.708300 6.340200
9.722500 6.879200
9.736800 7.300600
9.751000 7.531900
9.765200 8.333800
9.779400 9.400400
9.793600 10.466900
9.807800 9.660100
9.822000 10.633600
9.836200 11.607200
9.850400 9.910300
9.864600 10.619600
9.878900 15.398800
9.893100 7.987700
9.907300 6.848100
9.921500 6.066600
9.935700 6.333900
9.949900 6.706700
9.964100 7.418600
9.978300 7.889900
9.992500 17.264700
10.006700 7.209000
10.021000 8.603800
10.035200 10.578100
10.049400 12.552300
10.063600 9.419800
10.077800 10.265600
10.092000 11.111300
10.106200 11.957100
10.120400 9.088100
10.134600 8.134200
10.148800 9.079500
10.163000 9.169000
10.177300 9.258500
10.191500 9.347900
10.205700 6.882700
10.219900 6.702400
10.234100 8.113600
10.248300 8.209600
10.262500 8.305500
10.276700 8.574000
10.290900 8.873800
10.305100 9.173700
10.319400 9.473600
10.333600 9.773500
10.347800 10.073400
10.362000 7.410700
10.376200 7.346600
10.390400 7.282500
10.404600 7.218500
10.418800 7.154400
10.433000 7.090300
10.447200 7.026300
10.461500 6.962200
10.475700 6.898100
10.489900 6.834000
10.504100 6.770000
10.518300 5.695000
10.532500 5.627300
10.546700 5.559600
10.560900 5.491900
10.575100 5.424200
10.589300 5.388300
10.603600 5.357800
10.617800 5.327300
10.632000 5.296800
10.646200 5.564400
10.660400 6.389900
10.674600 7.218600
10.688800 8.047300
10.703000 8.876000
10.717200 5.510600
10.731400 5.428400
10.745700 5.348500
10.759900 5.268600
10.774100 5.188700
10.788300 5.110900
10.802500 5.045200
10.816700 4.979500
10.830900 4.913900
10.845100 4.849700
10.859300 4.830600
10.873500 4.811600
10.887700 4.792600
10.902000 6.502500
10.916200 6.572300
10.930400 6.642000
10.944600 6.711800
10.958800 9.467200
10.973000 9.627200
10.987200 9.787300
11.001400 9.661500
11.015600 10.089800
11.029800 10.203800
11.044100 9.709400
11.058300 9.827800
11.072500 9.914300
11.086700 9.669600
11.100900 9.425000
11.115100 9.180400
11.129300 8.758400
11.143500 8.081300
11.157700 7.590900
11.171900 7.175300
11.186200 6.759600
11.200400 6.474100
11.214600 6.385800
11.228800 6.297900
11.243000 6.897200
11.257200 6.794500
11.271400 6.691800
11.285600 6.589100
11.299800 6.486500
11.314000 6.383800
11.328300 6.289600
11.342500 6.212500
11.356700 6.135400
11.370900 6.058300
11.385100 5.981200
11.399300 5.544100
11.413500 5.469700
11.427700 5.081200
11.441900 4.916500
11.456100 4.834400
11.470400 4.752300
11.484600 4.670200
11.498800 5.144200
11.513000 6.520000
11.527200 8.191000
11.541400 9.907400
11.555600 9.148200
11.569800 10.048900
11.584000 10.949500
11.598200 9.344500
11.612400 7.839400
11.626700 8.131900
11.640900 8.424500
11.655100 8.717000
11.669300 9.009600
11.683500 9.304200
11.697700 14.713400
11.711900 9.006000
11.726100 8.546700
11.740300 8.087300
11.754500 8.114500
11.768800 8.250500
11.783000 7.069400
11.797200 8.707800
11.811400 10.763000
11.825600 12.818100
11.839800 7.224200
11.854000 7.247100
11.868200 7.270100
11.882400 7.293000
11.896600 7.315900
11.910900 7.338800
11.925100 7.361700
11.939300 7.384600
11.953500 7.407500
11.967700 7.430400
11.981900 8.212900
11.996100 8.386100
12.010300 8.537600
12.024500 8.784100
12.038700 9.044500
12.053000 9.304800
12.067200 9.565200
12.081400 11.942700
12.095600 12.536400
12.109800 12.366100
12.124000 13.919500
12.138200 13.361200
12.152400 12.682100
12.166600 12.219000
12.180800 10.209000
12.195100 9.890300
12.209300 9.580300
12.223500 9.270300
12.237700 9.050300
12.251900 9.182500
12.266100 9.327400
12.280300 9.476100
12.294500 9.628000
12.308700 9.780300
12.322900 9.932600
12.337100 10.088800
12.351400 10.247000
12.365600 10.271800
12.379800 13.101600
12.394000 14.182300
12.408200 14.168300
12.422400 14.154300
12.436600 10.427300
12.450800 5.807200
12.465000 5.456500
12.479200 5.338600
12.493500 5.502300
12.507700 5.666000
12.521900 5.829600
12.536100 6.676300
12.550300 6.889200
12.564500 6.996500
12.578700 7.211000
12.592900 7.425500
12.607100 7.640000
12.621300 8.909600
12.635600 9.346900
12.649800 9.784200
12.664000 11.257600
12.678200 10.210900
12.692400 10.151300
12.706600 10.091700
12.720800 10.032100
12.735000 9.972500
12.749200 9.912900
12.763400 10.670500
12.777700 10.602300
12.791900 10.733800
12.806100 10.632400
12.820300 10.581900
12.834500 10.531500
12.848700 11.654800
12.862900 11.669600
12.877100 11.684300
12.891300 11.699000
12.905500 7.594800
12.919800 7.760100
12.934000 7.925500
12.948200 8.090800
12.962400 8.256100
12.976600 8.409100
12.990800 8.555900
13.005000 11.381300
13.019200 11.178800
13.033400 10.976300
13.047600 10.728500
13.061800 10.329400
13.076100 9.593000
13.090300 9.169200
13.104500 8.830500
13.118700 8.507000
13.132900 8.183500
13.147100 7.860000
13.161300 6.777200
13.175500 6.671400
13.189700 6.565700
13.203900 6.643100
13.218200 6.771000
13.232400 6.898900
13.246600 7.026800
13.260800 7.154700
13.275000 7.369500
13.289200 7.499700
13.303400 7.629900
13.317600 7.760100
13.331800 7.891000
13.346000 8.029200
13.360300 7.249200
13.374500 16.543200
13.388700 12.499200
13.402900 9.931800
13.417100 11.408400
13.431300 12.879100
13.445500 14.447000
13.459700 15.916000
13.473900 17.385000
13.488100 12.875100
13.502400 10.700700
13.516600 10.457800
13.530800 10.210700
13.545000 9.963500
13.559200 9.716400
13.573400 9.469300
13.587600 9.222200
13.601800 8.975100
13.616000 6.521200
13.630200 6.552500
13.644500 6.583800
13.658700 6.615200
13.672900 6.646500
13.687100 6.677900
13.701300 6.709200
13.715500 6.740500
13.729700 6.771900
13.743900 6.803200
13.758100 6.834600
13.772300 6.865900
13.786500 14.445800
13.800800 8.913000
13.815000 4.903600
13.829200 4.974500
13.843400 5.045300
13.857600 5.116200
13.871800 6.353600
13.886000 6.737400
13.900200 7.121200
13.914400 7.505000
13.928600 7.888700
13.942900 8.972400
13.957100 13.916900
13.971300 13.356200
13.985500 12.795500
13.999700 12.254300
14.013900 12.008100
14.028100 11.812300
14.042300 11.587000
14.056500 16.232400
14.070700 12.830500
14.085000 9.428600
14.099200 11.296100
14.113400 13.056800
14.127600 12.503600
14.141800 12.882600
14.156000 12.467200
14.170200 12.051900
14.184400 11.640000
14.198600 8.261700
14.212800 7.759100
14.227100 7.551300
14.241300 7.518400
14.255500 7.485500
14.269700 7.452600
14.283900 7.419700
14.298100 7.386800
14.312300 7.353800
14.326500 8.692300
14.340700 8.592100
14.354900 8.491800
14.369200 6.721900
14.383400 6.704700
14.397600 6.687400
14.411800 6.670200
14.426000 9.042300
14.440200 10.728200
14.454400 11.451800
14.468600 10.724200
14.482800 9.996500
14.497000 7.217600
14.511200 6.470700
14.525500 2.584400
14.539700 2.592200
14.553900 2.600000
14.568100 2.607800
14.582300 2.615600
14.596500 2.623300
14.610700 2.631100
14.624900 2.638900
14.639100 2.663400
14.653300 2.983400
14.667600 3.534800
14.681800 4.497200
14.696000 5.551600
14.710200 7.444900
14.724400 8.421600
14.738600 4.847900
14.752800 4.192400
14.767000 4.057500
14.781200 3.922700
14.795400 3.787900
14.809700 3.653100
14.823900 3.518200
14.838100 3.383400
14.852300 3.248600
14.866500 3.113800
14.880700 2.979000
14.894900 2.844100
14.909100 2.709300
14.923300 2.574500
14.937500 2.439700
14.951800 2.304800
14.966000 2.170000
14.980200 2.035200
14.994400 1.579600
15.008600 4.773000
15.022800 45.957000
15.037000 0.000000
15.051200 0.000000
15.065400 0.000000
15.079600 0.000000
15.093900 0.000000
15.108100 0.000000
15.122300 0.000000
15.136500 0.000000
15.150700 0.000000
15.164900 0.000000
15.179100 0.000000
15.193300 0.000000
15.207500 0.000000
15.221700 0.000000
15.235900 0.000000
15.250200 0.000000
15.264400 0.000000
15.278600 0.000000
15.292800 0.000000
15.307000 0.000000
15.321200 0.000000
15.335400 0.000000
15.349600 0.000000
15.363800 0.000000
15.378000 0.000000
15.392300 0.000000
15.406500 0.000000
15.420700 0.000000
15.434900 0.000000
15.449100 0.000000
15.463300 0.000000
15.477500 0.000000
15.491700 0.000000
15.505900 0.000000
15.520100 0.000000
15.534400 0.000000
15.548600 0.000000
15.562800 0.000000
15.577000 0.000000
15.591200 0.000000
15.605400 0.000000
15.619600 0.000000
15.633800 0.000000
15.648000 0.000000
15.662200 0.000000
15.676500 0.000000
15.690700 0.000000
15.704900 0.000000
15.719100 0.000000
15.733300 0.000000
15.747500 0.000000
15.761700 0.000000
15.775900 0.000000
15.790100 0.000000
15.804300 0.000000
15.818600 0.000000
15.832800 0.000000
15.847000 0.000000
15.861200 0.000000
15.875400 0.000000
15.889600 0.000000
15.903800 0.000000
15.918000 0.000000
15.932200 0.000000
15.946400 0.000000
15.960600 0.000000
15.974900 0.000000
15.989100 0.000000
16.003300 0.000000
16.017500 0.000000
16.031700 0.000000
16.045900 0.000000
16.060100 0.000000
16.074300 0.000000
16.088500 0.000000
16.102700 0.000000
16.117000 0.000000
16.131200 0.000000
16.145400 0.000000
16.159600 0.000000
16.173800 0.000000
16.188000 0.000000
16.202200 0.000000
16.216400 0.000000
16.230600 0.000000
16.244800 0.000000
16.259100 0.000000
16.273300 0.000000
16.287500 0.000000
16.301700 0.000000
16.315900 0.000000
e
