set title 'mp-1115 - Density of States'
set xlabel 'Energy (eV)'
set ylabel 'DOS (states/eV)'
set grid
set xrange [-10:10]
set yrange [0:20.803]
set xzeroaxis lt -1
set terminal png size 800,600
set output 'mp-1115_dos_gnuplot.png'
plot '-' using 1:2 with lines title 'DOS'
-12.675400 0.000000
-12.660300 0.000000
-12.645200 0.000000
-12.630100 0.000000
-12.615000 0.000000
-12.599900 0.000000
-12.584800 0.000000
-12.569700 0.000000
-12.554600 0.000000
-12.539500 0.000000
-12.524400 0.000000
-12.509300 0.000000
-12.494200 0.000000
-12.479100 0.000000
-12.464000 0.000000
-12.448800 0.000000
-12.433700 0.000000
-12.418600 0.000000
-12.403500 0.000000
-12.388400 0.000000
-12.373300 0.000000
-12.358200 0.000000
-12.343100 0.000000
-12.328000 0.000000
-12.312900 0.000000
-12.297800 0.000000
-12.282700 0.000000
-12.267600 0.000000
-12.252500 0.000000
-12.237400 0.000000
-12.222300 0.000000
-12.207100 0.000000
-12.192000 0.000000
-12.176900 0.000000
-12.161800 0.000000
-12.146700 0.000000
-12.131600 0.000000
-12.116500 0.000000
-12.101400 0.000000
-12.086300 0.000000
-12.071200 0.000000
-12.056100 0.000000
-12.041000 0.000000
-12.025900 0.000000
-12.010800 0.000000
-11.995700 0.000000
-11.980500 0.000000
-11.965400 0.000000
-11.950300 0.000000
-11.935200 0.000000
-11.920100 0.000000
-11.905000 0.000000
-11.889900 0.000000
-11.874800 0.000000
-11.859700 0.000000
-11.844600 0.000000
-11.829500 0.000000
-11.814400 0.000000
-11.799300 0.000000
-11.784200 0.000000
-11.769100 0.000000
-11.753900 0.000000
-11.738800 0.000000
-11.723700 0.000000
-11.708600 0.000000
-11.693500 0.000000
-11.678400 0.000000
-11.663300 0.000000
-11.648200 0.000000
-11.633100 0.000000
-11.618000 0.000000
-11.602900 0.000000
-11.587800 0.000000
-11.572700 0.000000
-11.557600 0.000000
-11.542500 0.000000
-11.527400 0.000000
-11.512200 0.000000
-11.497100 0.000000
-11.482000 0.000000
-11.466900 0.000000
-11.451800 0.000000
-11.436700 0.000000
-11.421600 0.000000
-11.406500 0.000000
-11.391400 0.000000
-11.376300 0.000000
-11.361200 0.000000
-11.346100 0.000000
-11.331000 0.000000
-11.315900 0.000000
-11.300800 0.000700
-11.285600 0.089400
-11.270500 0.255900
-11.255400 0.313300
-11.240300 0.382000
-11.225200 0.463200
-11.210100 0.576200
-11.195000 0.712900
-11.179900 0.757500
-11.164800 0.703500
-11.149700 0.712200
-11.134600 0.724000
-11.119500 0.733400
-11.104400 0.736000
-11.089300 0.730700
-11.074200 0.733500
-11.059000 0.748900
-11.043900 0.751200
-11.028800 0.756400
-11.013700 0.761100
-10.998600 0.764100
-10.983500 0.765000
-10.968400 0.760300
-10.953300 0.764100
-10.938200 0.770100
-10.923100 0.777200
-10.908000 0.785600
-10.892900 0.795700
-10.877800 0.802300
-10.862700 0.806100
-10.847600 0.810300
-10.832500 0.814900
-10.817300 0.818800
-10.802200 0.820800
-10.787100 0.823000
-10.772000 0.828100
-10.756900 0.835000
-10.741800 0.842300
-10.726700 0.849800
-10.711600 0.857500
-10.696500 0.865600
-10.681400 0.873800
-10.666300 0.880900
-10.651200 0.888300
-10.636100 0.895600
-10.621000 0.902600
-10.605900 0.909800
-10.590700 0.916900
-10.575600 0.924900
-10.560500 0.933100
-10.545400 0.941700
-10.530300 0.950700
-10.515200 0.959700
-10.500100 0.968700
-10.485000 0.977900
-10.469900 0.987100
-10.454800 0.997600
-10.439700 1.010500
-10.424600 1.023700
-10.409500 1.037200
-10.394400 1.051600
-10.379300 1.067700
-10.364100 1.083000
-10.349000 1.097200
-10.333900 1.111300
-10.318800 1.125300
-10.303700 1.139300
-10.288600 1.153300
-10.273500 1.167300
-10.258400 1.181300
-10.243300 1.195300
-10.228200 1.214600
-10.213100 1.239800
-10.198000 1.267700
-10.182900 1.297700
-10.167800 1.332200
-10.152700 1.367000
-10.137600 1.398500
-10.122400 1.428500
-10.107300 1.458000
-10.092200 1.487600
-10.077100 1.517400
-10.062000 1.548300
-10.046900 1.579600
-10.031800 1.611100
-10.016700 1.660800
-10.001600 1.732600
-9.986500 1.812600
-9.971400 1.912700
-9.956300 2.021000
-9.941200 2.120300
-9.926100 2.230400
-9.911000 2.362900
-9.895800 2.528300
-9.880700 2.782400
-9.865600 3.323000
-9.850500 3.475700
-9.835400 3.092000
-9.820300 3.179800
-9.805200 2.740300
-9.790100 2.416000
-9.775000 2.146500
-9.759900 1.874400
-9.744800 1.733400
-9.729700 2.739300
-9.714600 1.970400
-9.699500 1.938200
-9.684400 5.192800
-9.669200 8.707600
-9.654100 18.402200
-9.639000 13.671400
-9.623900 13.116800
-9.608800 12.562500
-9.593700 12.519600
-9.578600 10.014200
-9.563500 7.590600
-9.548400 6.335300
-9.533300 5.368200
-9.518200 4.465600
-9.503100 3.823500
-9.488000 3.239200
-9.472900 2.721900
-9.457800 2.256200
-9.442700 1.769100
-9.427500 1.335300
-9.412400 0.848900
-9.397300 0.008900
-9.382200 0.000000
-9.367100 0.000000
-9.352000 0.000000
-9.336900 0.000000
-9.321800 0.000000
-9.306700 0.000000
-9.291600 0.000000
-9.276500 0.000000
-9.261400 0.000000
-9.246300 0.000000
-9.231200 0.000000
-9.216100 0.000000
-9.200900 0.000000
-9.185800 0.000000
-9.170700 0.000000
-9.155600 0.000000
-9.140500 0.000000
-9.125400 0.000000
-9.110300 0.000000
-9.095200 0.000000
-9.080100 0.000000
-9.065000 0.000000
-9.049900 0.000000
-9.034800 0.000000
-9.019700 0.000000
-9.004600 0.000000
-8.989500 0.000000
-8.974300 0.000000
-8.959200 0.000000
-8.944100 0.000000
-8.929000 0.000000
-8.913900 0.000000
-8.898800 0.000000
-8.883700 0.000000
-8.868600 0.000000
-8.853500 0.000000
-8.838400 0.000000
-8.823300 0.000000
-8.808200 0.000000
-8.793100 0.000000
-8.778000 0.000000
-8.762900 0.000000
-8.747800 0.000000
-8.732600 0.000000
-8.717500 0.000000
-8.702400 0.000000
-8.687300 0.000000
-8.672200 0.000000
-8.657100 0.000000
-8.642000 0.000000
-8.626900 0.000000
-8.611800 0.000000
-8.596700 0.000000
-8.581600 0.000000
-8.566500 0.000000
-8.551400 0.000000
-8.536300 0.000000
-8.521200 0.000000
-8.506000 0.000000
-8.490900 0.000000
-8.475800 0.000000
-8.460700 0.000000
-8.445600 0.000000
-8.430500 0.000000
-8.415400 0.000000
-8.400300 0.000000
-8.385200 0.000000
-8.370100 0.000000
-8.355000 0.000000
-8.339900 0.000000
-8.324800 0.000000
-8.309700 0.000000
-8.294600 0.000000
-8.279400 0.000000
-8.264300 0.000000
-8.249200 0.000000
-8.234100 0.000000
-8.219000 0.000000
-8.203900 0.000000
-8.188800 0.000000
-8.173700 0.000000
-8.158600 0.000000
-8.143500 0.000000
-8.128400 0.000000
-8.113300 0.000000
-8.098200 0.000000
-8.083100 0.000000
-8.068000 0.000000
-8.052800 0.000000
-8.037700 0.000000
-8.022600 0.000000
-8.007500 0.000000
-7.992400 0.000000
-7.977300 0.000000
-7.962200 0.000000
-7.947100 0.000000
-7.932000 0.000000
-7.916900 0.000000
-7.901800 0.000000
-7.886700 0.000000
-7.871600 0.000000
-7.856500 0.000000
-7.841400 0.000000
-7.826300 0.000000
-7.811100 0.000000
-7.796000 0.000000
-7.780900 0.000000
-7.765800 0.000000
-7.750700 0.000000
-7.735600 0.000000
-7.720500 0.000000
-7.705400 0.000000
-7.690300 0.000000
-7.675200 0.000000
-7.660100 0.000000
-7.645000 0.000000
-7.629900 0.000000
-7.614800 0.000000
-7.599700 0.000000
-7.584500 0.000000
-7.569400 0.000000
-7.554300 0.000000
-7.539200 0.000000
-7.524100 0.000000
-7.509000 0.000000
-7.493900 0.000000
-7.478800 0.000000
-7.463700 0.000000
-7.448600 0.000000
-7.433500 0.000000
-7.418400 0.000000
-7.403300 0.000000
-7.388200 0.000000
-7.373100 0.000000
-7.357900 0.000000
-7.342800 0.000000
-7.327700 0.000000
-7.312600 0.000000
-7.297500 0.000000
-7.282400 0.000000
-7.267300 0.000000
-7.252200 0.000000
-7.237100 0.000000
-7.222000 0.000000
-7.206900 0.000000
-7.191800 0.000000
-7.176700 0.000000
-7.161600 0.000000
-7.146500 0.000000
-7.131400 0.000000
-7.116200 0.000000
-7.101100 0.000000
-7.086000 0.000000
-7.070900 0.000000
-7.055800 0.000000
-7.040700 0.000000
-7.025600 0.000000
-7.010500 0.000000
-6.995400 0.000000
-6.980300 0.000000
-6.965200 0.000000
-6.950100 0.000000
-6.935000 0.000000
-6.919900 0.000000
-6.904800 0.000000
-6.889600 0.000000
-6.874500 0.000000
-6.859400 0.000000
-6.844300 0.000000
-6.829200 0.000000
-6.814100 0.000000
-6.799000 0.000000
-6.783900 0.000000
-6.768800 0.000000
-6.753700 0.000000
-6.738600 0.000000
-6.723500 0.000000
-6.708400 0.000000
-6.693300 0.000000
-6.678200 0.000000
-6.663000 0.000000
-6.647900 0.000000
-6.632800 0.000000
-6.617700 0.000000
-6.602600 0.000000
-6.587500 0.000000
-6.572400 0.000000
-6.557300 0.000000
-6.542200 0.000000
-6.527100 0.000000
-6.512000 0.000000
-6.496900 0.000000
-6.481800 0.000000
-6.466700 0.000000
-6.451600 0.000000
-6.436500 0.000000
-6.421300 0.000000
-6.406200 0.000000
-6.391100 0.000000
-6.376000 0.000000
-6.360900 0.000000
-6.345800 0.000000
-6.330700 0.000000
-6.315600 0.000000
-6.300500 0.000000
-6.285400 0.000000
-6.270300 0.000000
-6.255200 0.000000
-6.240100 0.000000
-6.225000 0.000000
-6.209900 0.000000
-6.194700 0.000000
-6.179600 0.000000
-6.164500 0.000000
-6.149400 0.000000
-6.134300 0.000000
-6.119200 0.000000
-6.104100 0.000000
-6.089000 0.000000
-6.073900 0.000000
-6.058800 0.000000
-6.043700 0.000000
-6.028600 0.000000
-6.013500 0.000000
-5.998400 0.000000
-5.983300 0.000000
-5.968100 0.000000
-5.953000 0.000000
-5.937900 0.000000
-5.922800 0.000000
-5.907700 0.000000
-5.892600 0.000000
-5.877500 0.000000
-5.862400 0.000000
-5.847300 0.000000
-5.832200 0.000000
-5.817100 0.000000
-5.802000 0.000000
-5.786900 0.000000
-5.771800 0.000000
-5.756700 0.000000
-5.741600 0.000000
-5.726400 0.000000
-5.711300 0.000000
-5.696200 0.000000
-5.681100 0.000000
-5.666000 0.000000
-5.650900 0.000000
-5.635800 0.000000
-5.620700 0.000000
-5.605600 0.000000
-5.590500 0.000000
-5.575400 0.000000
-5.560300 0.000000
-5.545200 0.000000
-5.530100 0.000000
-5.515000 0.000000
-5.499800 0.000000
-5.484700 0.000000
-5.469600 0.000000
-5.454500 0.000000
-5.439400 0.000000
-5.424300 0.000000
-5.409200 0.000000
-5.394100 0.000000
-5.379000 0.000000
-5.363900 0.000000
-5.348800 0.000000
-5.333700 0.000000
-5.318600 0.000000
-5.303500 0.000000
-5.288400 0.000000
-5.273200 0.000000
-5.258100 0.000000
-5.243000 0.000000
-5.227900 0.000000
-5.212800 0.000000
-5.197700 0.000000
-5.182600 0.000000
-5.167500 0.000000
-5.152400 0.000000
-5.137300 0.000000
-5.122200 0.000000
-5.107100 0.000000
-5.092000 0.000000
-5.076900 0.000000
-5.061800 0.000000
-5.046700 0.000000
-5.031500 0.000000
-5.016400 0.000000
-5.001300 0.000000
-4.986200 0.000000
-4.971100 0.000000
-4.956000 0.000000
-4.940900 0.000000
-4.925800 0.000000
-4.910700 0.000000
-4.895600 0.000000
-4.880500 0.000000
-4.865400 0.000000
-4.850300 0.000000
-4.835200 0.000000
-4.820100 0.000000
-4.804900 0.000000
-4.789800 0.000000
-4.774700 0.000000
-4.759600 0.000000
-4.744500 0.000000
-4.729400 0.000000
-4.714300 0.000000
-4.699200 0.000000
-4.684100 0.000000
-4.669000 0.000000
-4.653900 0.000000
-4.638800 0.000000
-4.623700 0.000000
-4.608600 0.000000
-4.593500 0.000000
-4.578300 0.000000
-4.563200 0.000000
-4.548100 0.000000
-4.533000 0.000000
-4.517900 0.000000
-4.502800 0.000000
-4.487700 0.000000
-4.472600 0.000000
-4.457500 0.000000
-4.442400 0.000000
-4.427300 0.000000
-4.412200 0.000000
-4.397100 0.000000
-4.382000 0.000000
-4.366900 0.000000
-4.351800 0.000000
-4.336600 0.000000
-4.321500 0.000000
-4.306400 0.000000
-4.291300 0.000000
-4.276200 0.000000
-4.261100 0.000000
-4.246000 0.000000
-4.230900 0.000000
-4.215800 0.000000
-4.200700 0.000000
-4.185600 0.000000
-4.170500 0.000000
-4.155400 0.000000
-4.140300 0.000000
-4.125200 0.000000
-4.110000 0.000000
-4.094900 0.000000
-4.079800 0.000000
-4.064700 0.000000
-4.049600 0.000000
-4.034500 0.000000
-4.019400 0.000000
-4.004300 0.000000
-3.989200 0.000000
-3.974100 0.000000
-3.959000 0.000000
-3.943900 0.000000
-3.928800 0.000000
-3.913700 0.000000
-3.898600 0.000000
-3.883400 0.000000
-3.868300 0.000000
-3.853200 0.000000
-3.838100 0.000000
-3.823000 0.000000
-3.807900 0.000000
-3.792800 0.000000
-3.777700 0.000000
-3.762600 0.000000
-3.747500 0.000000
-3.732400 0.000000
-3.717300 0.000000
-3.702200 0.000000
-3.687100 0.000000
-3.672000 0.000000
-3.656900 0.000000
-3.641700 0.000000
-3.626600 0.000000
-3.611500 0.000000
-3.596400 0.000000
-3.581300 0.000000
-3.566200 0.000000
-3.551100 0.000000
-3.536000 0.000000
-3.520900 0.000000
-3.505800 0.000000
-3.490700 0.000000
-3.475600 0.000000
-3.460500 0.000000
-3.445400 0.000000
-3.430300 0.000000
-3.415100 0.000000
-3.400000 0.000000
-3.384900 0.000000
-3.369800 0.000000
-3.354700 0.395600
-3.339600 0.452300
-3.324500 0.567300
-3.309400 0.722800
-3.294300 0.962800
-3.279200 0.963200
-3.264100 1.046100
-3.249000 1.128500
-3.233900 1.178600
-3.218800 1.198900
-3.203700 1.197500
-3.188500 1.195800
-3.173400 1.174200
-3.158300 1.124900
-3.143200 1.137800
-3.128100 1.152700
-3.113000 1.169200
-3.097900 1.187200
-3.082800 1.206800
-3.067700 1.228600
-3.052600 1.252000
-3.037500 1.276700
-3.022400 1.298500
-3.007300 1.314900
-2.992200 1.326300
-2.977100 1.336800
-2.961900 1.348500
-2.946800 1.354400
-2.931700 1.374600
-2.916600 1.397200
-2.901500 1.420800
-2.886400 1.445400
-2.871300 1.471300
-2.856200 1.498100
-2.841100 1.525000
-2.826000 1.580100
-2.810900 1.651500
-2.795800 1.723300
-2.780700 1.795300
-2.765600 1.871700
-2.750500 1.981600
-2.735400 2.451500
-2.720200 2.896700
-2.705100 2.521600
-2.690000 2.119800
-2.674900 1.989000
-2.659800 2.013800
-2.644700 1.826300
-2.629600 1.666600
-2.614500 1.564000
-2.599400 1.494100
-2.584300 1.323700
-2.569200 1.369000
-2.554100 1.419200
-2.539000 1.498500
-2.523900 1.596300
-2.508800 1.706200
-2.493600 1.828700
-2.478500 2.452400
-2.463400 3.470900
-2.448300 4.959500
-2.433200 6.940800
-2.418100 6.126600
-2.403000 4.930700
-2.387900 3.894300
-2.372800 3.294800
-2.357700 3.371000
-2.342600 4.287300
-2.327500 3.561800
-2.312400 3.483400
-2.297300 3.423700
-2.282200 2.940600
-2.267000 2.525700
-2.251900 2.310700
-2.236800 2.442300
-2.221700 2.716800
-2.206600 2.926400
-2.191500 3.247700
-2.176400 3.660100
-2.161300 5.760000
-2.146200 6.626700
-2.131100 7.281300
-2.116000 8.587000
-2.100900 9.743200
-2.085800 9.977800
-2.070700 9.456300
-2.055600 9.024200
-2.040500 8.546300
-2.025300 7.155600
-2.010200 6.609600
-1.995100 6.238900
-1.980000 5.862000
-1.964900 5.579300
-1.949800 5.423100
-1.934700 5.406300
-1.919600 5.818600
-1.904500 6.396000
-1.889400 5.092300
-1.874300 3.229200
-1.859200 2.653600
-1.844100 2.895200
-1.829000 3.193100
-1.813900 3.624600
-1.798700 3.915400
-1.783600 4.390000
-1.768500 3.556700
-1.753400 3.437000
-1.738300 3.315300
-1.723200 3.249200
-1.708100 3.789100
-1.693000 3.448800
-1.677900 3.477100
-1.662800 3.618000
-1.647700 3.637700
-1.632600 3.499800
-1.617500 3.158400
-1.602400 2.720600
-1.587300 2.267200
-1.572100 2.007700
-1.557000 1.922500
-1.541900 1.868000
-1.526800 1.807000
-1.511700 1.742600
-1.496600 1.675400
-1.481500 1.605700
-1.466400 1.533300
-1.451300 1.462100
-1.436200 1.420100
-1.421100 1.399300
-1.406000 1.404200
-1.390900 1.434200
-1.375800 1.485800
-1.360700 1.562800
-1.345600 1.620100
-1.330400 1.667000
-1.315300 1.759700
-1.300200 1.865000
-1.285100 2.066100
-1.270000 2.358000
-1.254900 2.308800
-1.239800 1.463000
-1.224700 1.116300
-1.209600 1.042400
-1.194500 1.136300
-1.179400 1.264800
-1.164300 1.427000
-1.149200 1.608400
-1.134100 1.872600
-1.119000 2.152700
-1.103800 2.389400
-1.088700 2.711800
-1.073600 3.115800
-1.058500 3.647400
-1.043400 3.846000
-1.028300 4.255500
-1.013200 4.692000
-0.998100 5.087100
-0.983000 5.304100
-0.967900 5.362900
-0.952800 5.316700
-0.937700 5.158600
-0.922600 4.962400
-0.907500 5.615700
-0.892400 6.172200
-0.877200 6.842200
-0.862100 7.124300
-0.847000 7.098300
-0.831900 7.609800
-0.816800 6.970300
-0.801700 5.703200
-0.786600 5.165000
-0.771500 5.531600
-0.756400 6.577700
-0.741300 5.935800
-0.726200 4.987100
-0.711100 2.669300
-0.696000 2.527500
-0.680900 2.551900
-0.665800 2.524100
-0.650700 2.469600
-0.635500 2.427100
-0.620400 2.416200
-0.605300 2.416900
-0.590200 2.435400
-0.575100 2.464500
-0.560000 2.491700
-0.544900 2.518300
-0.529800 2.543600
-0.514700 2.534200
-0.499600 2.582700
-0.484500 2.900800
-0.469400 3.439100
-0.454300 3.831600
-0.439200 4.079100
-0.424100 4.294000
-0.408900 4.242400
-0.393800 3.721600
-0.378700 3.308800
-0.363600 3.020400
-0.348500 2.877200
-0.333400 2.750300
-0.318300 2.623200
-0.303200 2.489400
-0.288100 2.356300
-0.273000 2.578700
-0.257900 2.360500
-0.242800 2.131900
-0.227700 2.236500
-0.212600 2.077400
-0.197500 1.774900
-0.182300 0.738700
-0.167200 0.696700
-0.152100 0.680800
-0.137000 0.664900
-0.121900 0.649100
-0.106800 0.633200
-0.091700 0.617300
-0.076600 0.601500
-0.061500 0.585600
-0.046400 0.569600
-0.031300 0.541100
-0.016200 0.508300
-0.001100 0.491200
0.014000 0.481500
0.029100 0.471800
0.044200 0.462100
0.059400 0.452400
0.074500 0.442700
0.089600 0.433000
0.104700 0.423300
0.119800 2.580300
0.134900 1.175000
0.150000 1.349600
0.165100 1.524300
0.180200 1.699200
0.195300 1.762900
0.210400 1.991500
0.225500 2.091300
0.240600 1.898300
0.255700 1.480100
0.270800 1.670800
0.286000 1.900900
0.301100 2.130700
0.316200 4.060200
0.331300 6.966300
0.346400 8.608000
0.361500 12.755200
0.376600 15.613300
0.391700 18.435900
0.406800 18.912000
0.421900 9.644000
0.437000 5.758500
0.452100 4.595100
0.467200 4.130300
0.482300 3.829200
0.497400 3.596200
0.512600 3.403400
0.527700 3.285500
0.542800 3.205800
0.557900 3.171200
0.573000 3.119500
0.588100 3.078800
0.603200 2.815100
0.618300 2.376400
0.633400 2.243900
0.648500 2.104600
0.663600 1.897300
0.678700 1.746300
0.693800 1.656300
0.708900 1.592100
0.724000 1.542000
0.739100 1.496500
0.754300 1.452600
0.769400 1.405600
0.784500 1.378600
0.799600 1.351000
0.814700 1.321700
0.829800 1.362700
0.844900 1.376800
0.860000 1.385200
0.875100 1.381900
0.890200 1.402400
0.905300 1.435900
0.920400 1.487600
0.935500 1.531200
0.950600 1.571600
0.965700 1.618300
0.980900 1.662900
0.996000 1.719800
1.011100 1.779400
1.026200 1.837700
1.041300 1.897900
1.056400 1.970800
1.071500 2.045900
1.086600 2.130700
1.101700 2.222500
1.116800 2.348500
1.131900 2.527300
1.147000 2.700300
1.162100 2.847000
1.177200 3.057200
1.192300 3.139100
1.207500 3.156600
1.222600 3.217300
1.237700 3.332400
1.252800 3.457600
1.267900 3.559800
1.283000 3.576700
1.298100 3.552300
1.313200 3.533900
1.328300 3.524500
1.343400 3.566400
1.358500 3.593900
1.373600 3.619900
1.388700 3.686200
1.403800 3.920800
1.418900 3.623000
1.434000 3.197000
1.449200 2.822500
1.464300 2.548400
1.479400 2.413900
1.494500 2.310000
1.509600 2.254600
1.524700 2.225500
1.539800 2.211900
1.554900 2.284900
1.570000 2.359900
1.585100 2.424500
1.600200 2.574900
1.615300 2.646800
1.630400 2.821700
1.645500 2.989300
1.660600 3.089400
1.675800 3.151500
1.690900 3.139000
1.706000 3.059300
1.721100 3.018400
1.736200 3.023200
1.751300 3.035500
1.766400 3.057900
1.781500 3.130200
1.796600 3.128500
1.811700 3.219700
1.826800 3.290600
1.841900 3.292100
1.857000 3.335400
1.872100 3.376000
1.887200 3.417700
1.902400 3.447100
1.917500 3.478900
1.932600 3.518500
1.947700 3.565400
1.962800 3.624900
1.977900 3.668600
1.993000 3.646900
2.008100 3.620800
2.023200 3.595700
2.038300 3.581600
2.053400 3.638600
2.068500 3.676300
2.083600 3.655600
2.098700 3.295700
2.113800 3.125200
2.128900 2.847900
2.144100 2.590300
2.159200 2.417200
2.174300 2.350700
2.189400 2.297300
2.204500 2.266800
2.219600 2.236400
2.234700 2.205100
2.249800 2.182900
2.264900 2.168000
2.280000 2.166700
2.295100 2.167300
2.310200 2.155100
2.325300 2.134200
2.340400 2.102100
2.355500 2.074400
2.370700 2.058400
2.385800 2.061400
2.400900 2.034300
2.416000 1.997800
2.431100 1.961700
2.446200 1.928100
2.461300 1.926900
2.476400 1.948800
2.491500 1.997700
2.506600 2.125300
2.521700 2.303600
2.536800 2.622000
2.551900 2.773400
2.567000 3.492500
2.582100 2.568500
2.597300 2.448800
2.612400 2.119100
2.627500 1.077200
2.642600 1.119500
2.657700 1.164100
2.672800 1.205200
2.687900 1.246900
2.703000 1.304200
2.718100 1.372300
2.733200 1.460100
2.748300 2.066700
2.763400 1.530600
2.778500 1.343800
2.793600 1.274200
2.808700 1.218500
2.823900 1.142900
2.839000 1.061700
2.854100 1.015400
2.869200 0.973800
2.884300 0.932300
2.899400 0.889200
2.914500 0.862800
2.929600 0.864900
2.944700 0.868900
2.959800 0.865300
2.974900 0.845300
2.990000 0.822000
3.005100 0.819100
3.020200 0.776300
3.035300 0.731100
3.050400 0.675900
3.065600 0.497000
3.080700 0.000000
3.095800 0.000000
3.110900 0.000000
3.126000 0.000000
3.141100 0.000000
3.156200 0.000000
3.171300 0.000000
3.186400 0.000000
3.201500 0.000000
3.216600 0.000000
3.231700 0.000000
3.246800 0.000000
3.261900 0.000000
3.277000 0.000000
3.292200 0.000000
3.307300 0.000000
3.322400 0.000000
3.337500 0.000000
3.352600 0.000000
3.367700 0.000000
3.382800 0.000000
3.397900 0.000000
3.413000 0.000000
3.428100 0.000000
3.443200 0.000000
3.458300 0.000000
3.473400 0.000000
3.488500 0.000000
3.503600 0.000000
3.518800 0.000000
3.533900 0.000000
3.549000 0.000000
3.564100 0.000000
3.579200 0.000000
3.594300 0.000000
3.609400 0.000000
3.624500 0.000000
3.639600 0.000000
3.654700 0.000000
3.669800 0.000000
3.684900 0.000000
3.700000 0.000000
3.715100 0.003100
3.730200 0.031900
3.745300 0.090500
3.760500 0.133100
3.775600 0.163700
3.790700 0.189600
3.805800 0.205600
3.820900 0.218800
3.836000 0.245100
3.851100 0.270900
3.866200 0.296000
3.881300 0.320700
3.896400 0.348300
3.911500 0.379700
3.926600 0.412600
3.941700 0.449200
3.956800 0.853900
3.971900 0.940300
3.987100 1.104100
4.002200 1.314200
4.017300 1.558200
4.032400 1.801200
4.047500 1.889000
4.062600 1.904600
4.077700 1.944700
4.092800 1.953400
4.107900 1.963700
4.123000 1.973500
4.138100 1.989800
4.153200 2.020600
4.168300 2.048700
4.183400 2.065700
4.198500 2.086200
4.213700 2.105200
4.228800 2.129200
4.243900 2.123600
4.259000 2.152200
4.274100 2.178800
4.289200 2.204800
4.304300 2.224200
4.319400 2.254200
4.334500 2.292500
4.349600 2.335100
4.364700 2.386100
4.379800 2.440900
4.394900 2.500200
4.410000 2.569800
4.425100 2.653400
4.440200 2.800200
4.455400 2.885600
4.470500 2.908300
4.485600 2.894000
4.500700 2.893000
4.515800 2.877500
4.530900 2.842600
4.546000 2.795700
4.561100 2.731400
4.576200 2.702200
4.591300 2.712600
4.606400 2.719300
4.621500 2.716000
4.636600 2.697200
4.651700 2.658200
4.666800 2.641100
4.682000 2.701300
4.697100 2.812800
4.712200 3.004300
4.727300 3.163800
4.742400 3.325800
4.757500 3.403300
4.772600 3.548000
4.787700 3.581200
4.802800 3.653700
4.817900 3.861100
4.833000 4.151400
4.848100 4.514700
4.863200 4.948500
4.878300 4.917500
4.893400 4.850800
4.908600 4.600900
4.923700 4.565000
4.938800 4.658000
4.953900 4.343300
4.969000 4.184400
4.984100 4.143400
4.999200 4.151000
5.014300 4.202300
5.029400 4.210100
5.044500 4.164600
5.059600 4.332200
5.074700 3.810600
5.089800 3.522200
5.104900 3.338700
5.120000 3.167200
5.135100 3.010000
5.150300 2.795800
5.165400 2.562400
5.180500 2.413400
5.195600 2.283000
5.210700 2.146200
5.225800 2.009000
5.240900 1.873500
5.256000 1.741800
5.271100 1.558900
5.286200 1.419200
5.301300 1.320600
5.316400 1.218400
5.331500 1.116000
5.346600 1.013600
5.361700 0.908600
5.376900 0.809200
5.392000 0.718300
5.407100 0.660100
5.422200 0.607100
5.437300 0.523800
5.452400 0.430900
5.467500 0.358400
5.482600 0.307200
5.497700 0.260700
5.512800 0.224600
5.527900 0.196400
5.543000 0.161700
5.558100 0.094800
5.573200 0.043100
5.588300 0.006600
5.603500 0.000000
5.618600 0.000000
5.633700 0.000000
5.648800 0.000000
5.663900 0.000000
5.679000 0.000000
5.694100 0.000000
5.709200 0.000000
5.724300 0.000000
5.739400 0.000000
5.754500 0.000000
5.769600 0.000000
5.784700 0.000000
5.799800 0.000000
5.814900 0.000000
5.830000 0.000000
5.845200 0.000000
5.860300 0.000000
5.875400 0.000000
5.890500 0.000000
5.905600 0.000000
5.920700 0.000000
5.935800 0.000000
5.950900 0.000000
5.966000 0.000000
5.981100 0.000000
5.996200 0.000000
6.011300 0.000000
6.026400 0.000000
6.041500 0.000000
6.056600 0.000000
6.071800 0.000000
6.086900 0.000000
6.102000 0.000000
6.117100 0.000000
6.132200 0.000000
6.147300 0.000000
6.162400 0.000000
6.177500 0.000000
6.192600 0.000000
6.207700 0.000000
6.222800 0.000000
6.237900 0.000000
6.253000 0.000000
6.268100 0.000000
6.283200 0.000000
6.298400 0.000000
6.313500 0.000000
6.328600 0.000000
6.343700 0.000000
6.358800 0.000000
6.373900 0.000000
6.389000 0.000000
6.404100 0.000000
6.419200 0.000000
6.434300 0.000000
6.449400 0.000000
6.464500 0.000000
6.479600 0.000000
6.494700 0.000000
6.509800 0.000000
6.524900 0.000000
6.540100 0.000000
6.555200 0.000000
6.570300 0.000000
6.585400 0.000000
6.600500 0.000000
6.615600 0.000000
6.630700 0.000000
6.645800 0.000000
6.660900 0.000000
6.676000 0.000000
6.691100 0.000000
6.706200 0.000000
6.721300 0.000000
6.736400 0.000000
6.751500 0.000000
6.766700 0.000000
6.781800 0.000000
6.796900 0.000000
6.812000 0.000000
6.827100 0.000000
6.842200 0.000000
6.857300 0.000000
6.872400 0.000000
6.887500 0.000000
6.902600 0.000000
6.917700 0.000000
6.932800 0.000000
6.947900 0.000000
6.963000 0.000000
6.978100 0.000000
6.993300 0.000000
7.008400 0.000000
7.023500 0.000000
7.038600 0.000000
7.053700 0.000000
7.068800 0.000000
7.083900 0.000000
7.099000 0.000000
7.114100 0.000000
7.129200 0.000000
7.144300 0.000000
7.159400 0.000000
7.174500 0.000100
7.189600 0.000400
7.204700 0.001300
7.219800 0.013200
7.235000 0.042700
7.250100 0.089600
7.265200 0.162100
7.280300 0.229800
7.295400 0.303100
7.310500 0.383700
7.325600 0.468300
7.340700 0.534200
7.355800 0.589900
7.370900 0.615400
7.386000 0.627600
7.401100 0.629000
7.416200 0.627800
7.431300 0.630700
7.446400 0.640900
7.461600 0.659100
7.476700 0.685500
7.491800 0.713800
7.506900 0.743300
7.522000 0.765100
7.537100 0.780500
7.552200 0.801300
7.567300 0.827400
7.582400 0.860400
7.597500 0.901900
7.612600 0.952100
7.627700 1.006700
7.642800 1.075300
7.657900 1.107000
7.673000 1.111600
7.688200 1.109400
7.703300 1.099800
7.718400 1.083600
7.733500 1.077900
7.748600 1.072900
7.763700 1.061200
7.778800 1.052600
7.793900 1.053100
7.809000 1.058400
7.824100 1.064400
7.839200 1.071100
7.854300 1.078200
7.869400 1.087700
7.884500 1.098800
7.899600 1.108400
7.914800 1.116400
7.929900 1.125100
7.945000 1.133000
7.960100 1.138900
7.975200 1.142500
7.990300 1.143800
8.005400 1.148100
8.020500 1.156900
8.035600 1.167000
8.050700 1.196500
8.065800 1.306300
8.080900 1.470300
8.096000 1.623000
8.111100 1.676200
8.126200 1.712400
8.141300 1.731400
8.156500 1.710700
8.171600 1.633800
8.186700 1.621100
8.201800 1.605400
8.216900 1.591200
8.232000 1.580000
8.247100 1.572000
8.262200 1.572200
8.277300 1.573600
8.292400 1.568100
8.307500 1.562700
8.322600 1.558900
8.337700 1.554600
8.352800 1.552300
8.367900 1.551900
8.383100 1.553800
8.398200 1.558400
8.413300 1.560400
8.428400 1.566300
8.443500 1.576900
8.458600 1.588500
8.473700 1.593700
8.488800 1.614200
8.503900 1.661900
8.519000 1.690900
8.534100 1.704000
8.549200 1.703600
8.564300 1.679400
8.579400 1.664400
8.594500 1.649900
8.609700 1.649400
8.624800 1.663900
8.639900 1.684800
8.655000 1.710800
8.670100 1.738400
8.685200 1.748100
8.700300 1.733700
8.715400 1.706500
8.730500 1.692700
8.745600 1.690100
8.760700 1.668400
8.775800 1.640200
8.790900 1.643200
8.806000 1.656500
8.821100 1.685600
8.836200 1.669800
8.851400 1.650100
8.866500 1.599500
8.881600 1.559400
8.896700 1.254500
8.911800 0.989400
8.926900 0.934200
8.942000 0.901400
8.957100 0.905900
8.972200 0.777500
8.987300 0.744700
9.002400 0.761800
9.017500 0.784600
9.032600 0.818500
9.047700 0.863700
9.062800 0.903000
9.078000 0.915600
9.093100 0.927200
9.108200 0.939200
9.123300 0.951000
9.138400 0.961400
9.153500 0.970800
9.168600 0.979200
9.183700 0.986000
9.198800 0.984400
9.213900 0.997000
9.229000 1.006600
9.244100 1.017800
9.259200 1.027400
9.274300 1.032400
9.289400 1.038700
9.304600 1.046800
9.319700 1.062000
9.334800 1.078100
9.349900 1.094400
9.365000 1.112800
9.380100 1.133700
9.395200 1.158000
9.410300 1.184400
9.425400 1.212300
9.440500 1.243300
9.455600 1.281100
9.470700 1.323600
9.485800 1.371900
9.500900 1.478600
9.516000 1.577900
9.531100 1.652600
9.546300 1.707500
9.561400 1.841700
9.576500 2.082000
9.591600 2.128300
9.606700 2.120600
9.621800 2.083900
9.636900 2.059000
9.652000 2.000000
9.667100 1.967400
9.682200 1.965700
9.697300 1.946800
9.712400 1.916000
9.727500 1.871900
9.742600 1.815400
9.757700 1.760100
9.772900 1.712400
9.788000 1.698400
9.803100 1.624500
9.818200 1.594100
9.833300 1.603000
9.848400 1.584600
9.863500 1.525800
9.878600 1.452600
9.893700 1.380300
9.908800 1.316700
9.923900 1.269600
9.939000 1.230300
9.954100 1.205800
9.969200 1.194100
9.984300 1.188900
9.999500 1.185800
10.014600 1.184600
10.029700 1.186000
10.044800 1.189800
10.059900 1.195700
10.075000 1.204500
10.090100 1.217100
10.105200 1.231400
10.120300 1.241000
10.135400 1.244600
10.150500 1.240200
10.165600 1.227900
10.180700 1.218800
10.195800 1.197700
10.210900 1.182700
10.226000 1.181800
10.241200 1.175400
10.256300 1.170200
10.271400 1.163800
10.286500 1.175200
10.301600 1.195900
10.316700 1.221600
10.331800 1.244100
10.346900 1.280300
10.362000 1.320600
10.377100 1.371800
10.392200 1.420000
10.407300 1.437200
10.422400 1.467700
10.437500 1.487000
10.452600 1.511700
10.467800 1.553100
10.482900 1.586000
10.498000 1.622200
10.513100 1.681800
10.528200 1.758600
10.543300 1.850800
10.558400 1.977000
10.573500 2.161200
10.588600 2.350500
10.603700 2.619900
10.618800 2.853100
10.633900 3.065100
10.649000 3.173400
10.664100 3.244600
10.679200 3.304200
10.694400 3.360700
10.709500 3.529900
10.724600 3.482900
10.739700 3.441700
10.754800 3.406400
10.769900 3.507600
10.785000 3.639600
10.800100 3.676500
10.815200 3.593700
10.830300 3.450800
10.845400 3.302600
10.860500 3.199400
10.875600 3.194000
10.890700 3.192100
10.905800 3.117300
10.920900 2.918900
10.936100 2.733800
10.951200 2.556800
10.966300 2.448900
10.981400 2.380600
10.996500 2.302000
11.011600 2.239400
11.026700 2.180900
11.041800 2.106800
11.056900 2.038300
11.072000 1.977300
11.087100 1.972300
11.102200 1.955600
11.117300 1.971400
11.132400 1.946300
11.147500 1.876200
11.162700 1.757300
11.177800 1.618500
11.192900 1.319300
11.208000 1.046900
11.223100 0.945200
11.238200 0.877500
11.253300 0.838000
11.268400 0.759000
11.283500 0.729300
11.298600 0.708400
11.313700 0.696000
11.328800 0.699000
11.343900 0.723900
11.359000 0.775100
11.374100 0.883500
11.389300 1.008200
11.404400 1.155900
11.419500 1.319400
11.434600 1.478700
11.449700 1.628000
11.464800 1.755600
11.479900 1.875500
11.495000 1.983000
11.510100 2.117900
11.525200 2.191300
11.540300 2.227000
11.555400 2.238400
11.570500 2.250700
11.585600 2.284500
11.600700 2.316500
11.615800 2.328600
11.631000 2.315600
11.646100 2.306100
11.661200 2.326400
11.676300 2.350400
11.691400 2.367500
11.706500 2.394000
11.721600 2.431400
11.736700 2.467500
11.751800 2.514700
11.766900 2.568600
11.782000 2.610800
11.797100 2.688600
11.812200 2.838300
11.827300 2.904300
11.842400 2.848100
11.857600 2.808000
11.872700 2.802900
11.887800 2.827300
11.902900 2.865300
11.918000 2.897500
11.933100 2.924900
11.948200 2.941400
11.963300 2.953300
11.978400 2.971600
11.993500 3.027600
12.008600 3.095400
12.023700 3.161700
12.038800 3.239400
12.053900 3.289600
12.069000 3.362600
12.084200 3.400900
12.099300 3.391500
12.114400 3.401800
12.129500 3.332600
12.144600 3.299000
12.159700 3.179000
12.174800 3.143900
12.189900 3.092700
12.205000 3.026000
12.220100 2.971400
12.235200 2.954300
12.250300 2.944000
12.265400 2.942400
12.280500 2.959000
12.295600 3.020800
12.310700 3.249700
12.325900 3.434900
12.341000 3.414100
12.356100 3.397600
12.371200 3.359100
12.386300 3.316300
12.401400 3.248300
12.416500 3.116300
12.431600 2.946000
12.446700 2.856400
12.461800 2.803200
12.476900 2.774200
12.492000 2.746600
12.507100 2.729100
12.522200 2.735200
12.537300 2.763500
12.552500 2.808200
12.567600 2.895800
12.582700 2.936000
12.597800 2.914300
12.612900 2.839000
12.628000 2.836300
12.643100 2.835300
12.658200 2.838000
12.673300 2.826100
12.688400 2.791900
12.703500 2.743900
12.718600 2.697300
12.733700 2.674400
12.748800 2.651600
12.763900 2.637100
12.779100 2.616500
12.794200 2.658200
12.809300 2.596600
12.824400 2.485600
12.839500 2.379700
12.854600 2.268700
12.869700 2.185100
12.884800 2.097900
12.899900 2.049400
12.915000 2.029000
12.930100 2.022000
12.945200 1.989800
12.960300 1.952700
12.975400 1.940600
12.990500 1.938400
13.005700 1.951700
13.020800 1.993900
13.035900 2.058900
13.051000 2.132700
13.066100 2.206600
13.081200 2.282200
13.096300 2.370500
13.111400 2.463400
13.126500 2.549300
13.141600 2.631000
13.156700 2.683200
13.171800 2.709900
13.186900 2.688400
13.202000 2.643100
13.217100 2.573700
13.232200 2.488000
13.247400 2.403400
13.262500 2.329400
13.277600 2.265000
13.292700 2.258800
13.307800 2.222200
13.322900 2.137600
13.338000 2.097300
13.353100 2.178800
13.368200 1.813600
13.383300 1.722500
13.398400 1.741700
13.413500 1.670300
13.428600 1.619200
13.443700 1.582100
13.458800 1.551800
13.474000 1.545900
13.489100 1.554300
13.504200 1.571900
13.519300 1.721400
13.534400 1.722200
13.549500 1.807600
13.564600 1.834200
13.579700 1.897700
13.594800 2.025700
13.609900 2.167800
13.625000 2.356400
13.640100 2.558800
13.655200 2.747900
13.670300 2.906100
13.685400 3.511100
13.700600 3.052300
13.715700 3.168000
13.730800 3.324500
13.745900 3.420400
13.761000 3.460200
13.776100 3.488500
13.791200 3.541600
13.806300 3.579100
13.821400 3.602000
13.836500 3.649700
13.851600 3.887100
13.866700 3.948100
13.881800 3.906400
13.896900 3.831400
13.912000 3.655700
13.927100 3.428600
13.942300 3.251700
13.957400 3.078700
13.972500 2.955200
13.987600 2.867900
14.002700 2.738200
14.017800 2.556900
14.032900 2.338800
14.048000 2.151700
14.063100 1.955500
14.078200 1.857900
14.093300 1.781400
14.108400 1.716900
14.123500 1.658900
14.138600 1.607600
14.153700 1.567000
14.168900 1.526100
14.184000 1.483100
14.199100 1.454600
14.214200 1.430900
14.229300 1.409700
14.244400 1.391100
14.259500 1.384800
14.274600 1.376900
14.289700 1.327300
14.304800 1.267900
14.319900 1.199200
14.335000 1.122900
14.350100 1.047100
14.365200 0.985300
14.380300 0.937400
14.395500 0.898900
14.410600 0.860300
14.425700 0.822800
14.440800 0.788100
14.455900 0.756900
14.471000 0.731000
14.486100 0.707000
14.501200 0.684100
14.516300 0.663000
14.531400 0.643400
14.546500 0.624600
14.561600 0.606600
14.576700 0.589200
14.591800 0.572200
14.606900 0.555500
14.622000 0.539000
14.637200 0.522600
14.652300 0.507300
14.667400 0.493400
14.682500 0.480000
14.697600 0.467200
14.712700 0.455100
14.727800 0.443800
14.742900 0.432700
14.758000 0.424400
14.773100 0.427600
14.788200 0.435200
14.803300 0.446400
14.818400 0.446200
14.833500 0.431300
14.848600 0.415900
14.863800 0.395500
14.878900 0.371400
14.894000 0.346500
14.909100 0.325500
14.924200 0.307400
14.939300 0.291200
14.954400 0.275900
14.969500 0.261500
14.984600 0.247800
14.999700 0.235200
15.014800 0.223800
15.029900 0.213800
15.045000 0.204900
15.060100 0.197000
15.075200 0.189500
15.090400 0.182300
15.105500 0.175600
15.120600 0.169200
15.135700 0.162900
15.150800 0.156900
15.165900 0.151100
15.181000 0.145500
15.196100 0.140400
15.211200 0.135700
15.226300 0.131500
15.241400 0.107500
15.256500 0.085800
15.271600 0.080400
15.286700 0.075100
15.301800 0.070000
15.316900 0.064900
15.332100 0.059800
15.347200 0.055000
15.362300 0.050500
15.377400 0.046300
15.392500 0.042400
15.407600 0.038900
15.422700 0.035600
15.437800 0.032700
15.452900 0.030100
15.468000 0.027700
15.483100 0.026000
15.498200 0.024800
15.513300 0.023700
15.528400 0.022600
15.543500 0.021500
15.558700 0.020500
15.573800 0.019500
15.588900 0.018500
15.604000 0.017500
15.619100 0.016600
15.634200 0.015700
15.649300 0.014800
15.664400 0.014000
15.679500 0.013100
15.694600 0.012300
15.709700 0.011500
15.724800 0.010800
15.739900 0.010100
15.755000 0.009400
15.770100 0.008700
15.785300 0.008000
15.800400 0.007400
15.815500 0.006800
15.830600 0.006200
15.845700 0.005700
15.860800 0.005100
15.875900 0.004600
15.891000 0.004200
15.906100 0.003700
15.921200 0.003300
15.936300 0.002900
15.951400 0.002500
15.966500 0.002200
15.981600 0.001900
15.996700 0.001600
16.011800 0.001300
16.027000 0.001100
16.042100 0.000800
16.057200 0.000600
16.072300 0.000500
16.087400 0.000300
16.102500 0.000200
16.117600 0.000100
16.132700 0.000100
16.147800 0.000000
16.162900 0.000000
16.178000 0.000000
16.193100 0.000000
16.208200 0.000000
16.223300 0.000000
16.238400 0.000000
16.253600 0.000000
16.268700 0.000000
16.283800 0.000000
16.298900 0.000000
16.314000 0.000000
16.329100 0.000000
16.344200 0.000000
16.359300 0.000000
16.374400 0.000000
16.389500 0.000000
16.404600 0.000000
16.419700 0.000000
16.434800 0.000000
16.449900 0.000000
16.465000 0.000000
16.480200 0.000000
16.495300 0.000000
16.510400 0.000000
16.525500 0.000000
16.540600 0.000000
16.555700 0.000000
16.570800 0.000000
16.585900 0.000000
16.601000 0.000000
16.616100 0.000000
16.631200 0.000000
16.646300 0.000000
16.661400 0.000000
16.676500 0.000000
16.691600 0.000000
16.706700 0.000000
16.721900 0.000000
16.737000 0.000000
16.752100 0.000000
16.767200 0.000000
16.782300 0.000000
16.797400 0.000000
16.812500 0.000000
16.827600 0.000000
16.842700 0.000000
16.857800 0.000000
16.872900 0.000000
16.888000 0.000000
16.903100 0.000000
16.918200 0.000000
16.933300 0.000000
16.948500 0.000000
16.963600 0.000000
16.978700 0.000000
16.993800 0.000000
17.008900 0.000000
17.024000 0.000000
17.039100 0.000000
17.054200 0.000000
17.069300 0.000000
17.084400 0.000000
17.099500 0.000000
17.114600 0.000000
17.129700 0.000000
17.144800 0.000000
17.159900 0.000000
17.175100 0.000000
17.190200 0.000000
17.205300 0.000000
17.220400 0.000000
17.235500 0.000000
17.250600 0.000000
17.265700 0.000000
17.280800 0.000000
17.295900 0.000000
17.311000 0.000000
17.326100 0.000000
17.341200 0.000000
17.356300 0.000000
17.371400 0.000000
17.386500 0.000000
17.401600 0.000000
17.416800 0.000000
17.431900 0.000000
17.447000 0.000000
17.462100 0.000000
17.477200 0.000000
17.492300 0.000000
17.507400 0.000000
17.522500 0.000000
17.537600 0.000000
e
