set title 'mp-1059256 - Density of States'
set xlabel 'Energy (eV)'
set ylabel 'DOS (states/eV)'
set grid
set xrange [-10:10]
set yrange [0:6.126]
set xzeroaxis lt -1
set terminal png size 800,600
set output 'mp-1059256_dos_gnuplot.png'
plot '-' using 1:2 with lines title 'DOS'
-37.088600 0.000000
-37.041300 0.000000
-36.993900 0.000000
-36.946500 0.000000
-36.899100 0.000000
-36.851700 0.000000
-36.804300 0.000000
-36.756900 0.000000
-36.709500 0.000000
-36.662100 0.000000
-36.614700 0.000000
-36.567300 0.000000
-36.519900 0.000000
-36.472500 0.000000
-36.425100 0.000000
-36.377800 0.000000
-36.330400 0.000000
-36.283000 0.000000
-36.235600 0.000000
-36.188200 0.000000
-36.140800 0.000000
-36.093400 0.000000
-36.046000 0.000000
-35.998600 0.000000
-35.951200 0.000000
-35.903800 0.000000
-35.856400 0.000000
-35.809000 0.000000
-35.761600 0.000000
-35.714300 0.000000
-35.666900 0.000000
-35.619500 0.000000
-35.572100 0.000000
-35.524700 0.000000
-35.477300 0.000000
-35.429900 0.000000
-35.382500 0.000000
-35.335100 0.000000
-35.287700 0.000000
-35.240300 0.000000
-35.192900 0.000000
-35.145500 0.000000
-35.098100 0.000000
-35.050800 0.000000
-35.003400 0.000000
-34.956000 0.000000
-34.908600 0.000000
-34.861200 0.000000
-34.813800 0.000000
-34.766400 0.000000
-34.719000 0.000000
-34.671600 0.000000
-34.624200 0.000000
-34.576800 0.000000
-34.529400 0.000000
-34.482000 0.000000
-34.434600 0.000000
-34.387300 0.000000
-34.339900 0.000000
-34.292500 0.000000
-34.245100 0.000000
-34.197700 0.000000
-34.150300 0.000000
-34.102900 0.000000
-34.055500 0.000000
-34.008100 0.000000
-33.960700 0.000000
-33.913300 0.000000
-33.865900 0.000000
-33.818500 0.000000
-33.771200 0.000000
-33.723800 0.000000
-33.676400 0.000000
-33.629000 0.000000
-33.581600 0.000000
-33.534200 0.000000
-33.486800 0.000000
-33.439400 0.000000
-33.392000 0.000000
-33.344600 0.000000
-33.297200 0.000000
-33.249800 0.000000
-33.202400 0.000000
-33.155000 0.000000
-33.107700 0.000000
-33.060300 0.000000
-33.012900 0.000000
-32.965500 0.000000
-32.918100 0.000000
-32.870700 0.000000
-32.823300 0.000000
-32.775900 0.802300
-32.728500 7.354000
-32.681100 17.237800
-32.633700 49.962100
-32.586300 0.000000
-32.538900 0.000000
-32.491500 0.000000
-32.444200 0.000000
-32.396800 0.000000
-32.349400 0.000000
-32.302000 0.000000
-32.254600 0.000000
-32.207200 0.000000
-32.159800 0.000000
-32.112400 0.000000
-32.065000 0.000000
-32.017600 0.000000
-31.970200 0.000000
-31.922800 0.000000
-31.875400 0.000000
-31.828000 0.000000
-31.780700 0.000000
-31.733300 0.000000
-31.685900 0.000000
-31.638500 0.000000
-31.591100 0.000000
-31.543700 0.000000
-31.496300 0.000000
-31.448900 0.000000
-31.401500 0.000000
-31.354100 0.000000
-31.306700 0.000000
-31.259300 0.000000
-31.211900 0.000000
-31.164500 0.000000
-31.117200 0.000000
-31.069800 0.000000
-31.022400 0.000000
-30.975000 0.000000
-30.927600 0.000000
-30.880200 0.000000
-30.832800 0.000000
-30.785400 0.000000
-30.738000 0.000000
-30.690600 0.000000
-30.643200 0.000000
-30.595800 0.000000
-30.548400 0.000000
-30.501000 0.000000
-30.453700 0.000000
-30.406300 0.000000
-30.358900 0.000000
-30.311500 0.000000
-30.264100 0.000000
-30.216700 0.000000
-30.169300 0.000000
-30.121900 0.000000
-30.074500 0.000000
-30.027100 0.000000
-29.979700 0.000000
-29.932300 0.000000
-29.884900 0.000000
-29.837600 0.000000
-29.790200 0.000000
-29.742800 0.000000
-29.695400 0.000000
-29.648000 0.000000
-29.600600 0.000000
-29.553200 0.000000
-29.505800 0.000000
-29.458400 0.000000
-29.411000 0.000000
-29.363600 0.000000
-29.316200 0.000000
-29.268800 0.000000
-29.221400 0.000000
-29.174100 0.000000
-29.126700 0.000000
-29.079300 0.000000
-29.031900 0.000000
-28.984500 0.000000
-28.937100 0.000000
-28.889700 0.000000
-28.842300 0.000000
-28.794900 0.000000
-28.747500 0.000000
-28.700100 0.000000
-28.652700 0.000000
-28.605300 0.000000
-28.557900 0.000000
-28.510600 0.000000
-28.463200 0.000000
-28.415800 0.000000
-28.368400 0.000000
-28.321000 0.000000
-28.273600 0.000000
-28.226200 0.000000
-28.178800 0.000000
-28.131400 0.000000
-28.084000 0.000000
-28.036600 0.000000
-27.989200 0.000000
-27.941800 0.000000
-27.894400 0.000000
-27.847100 0.000000
-27.799700 0.000000
-27.752300 0.000000
-27.704900 0.000000
-27.657500 0.000000
-27.610100 0.000000
-27.562700 0.000000
-27.515300 0.000000
-27.467900 0.000000
-27.420500 0.000000
-27.373100 0.000000
-27.325700 0.000000
-27.278300 0.000000
-27.230900 0.000000
-27.183600 0.000000
-27.136200 0.000000
-27.088800 0.000000
-27.041400 0.000000
-26.994000 0.000000
-26.946600 0.000000
-26.899200 0.000000
-26.851800 0.000000
-26.804400 0.000000
-26.757000 0.000000
-26.709600 0.000000
-26.662200 0.000000
-26.614800 0.000000
-26.567400 0.000000
-26.520100 0.000000
-26.472700 0.000000
-26.425300 0.000000
-26.377900 0.000000
-26.330500 0.000000
-26.283100 0.000000
-26.235700 0.000000
-26.188300 0.000000
-26.140900 0.000000
-26.093500 0.000000
-26.046100 0.000000
-25.998700 0.000000
-25.951300 0.000000
-25.903900 0.000000
-25.856600 0.000000
-25.809200 0.000000
-25.761800 0.000000
-25.714400 0.000000
-25.667000 0.000000
-25.619600 0.000000
-25.572200 0.000000
-25.524800 0.000000
-25.477400 0.000000
-25.430000 0.000000
-25.382600 0.000000
-25.335200 0.000000
-25.287800 0.000000
-25.240500 0.000000
-25.193100 0.000000
-25.145700 0.000000
-25.098300 0.000000
-25.050900 0.000000
-25.003500 0.000000
-24.956100 0.000000
-24.908700 0.000000
-24.861300 0.000000
-24.813900 0.000000
-24.766500 0.000000
-24.719100 0.000000
-24.671700 0.000000
-24.624300 0.000000
-24.577000 0.000000
-24.529600 0.000000
-24.482200 0.000000
-24.434800 0.000000
-24.387400 0.000000
-24.340000 0.000000
-24.292600 0.000000
-24.245200 0.000000
-24.197800 0.000000
-24.150400 0.000000
-24.103000 0.000000
-24.055600 0.000000
-24.008200 0.000000
-23.960800 0.000000
-23.913500 0.000000
-23.866100 0.000000
-23.818700 0.000000
-23.771300 0.000000
-23.723900 0.000000
-23.676500 0.000000
-23.629100 0.000000
-23.581700 0.000000
-23.534300 0.000000
-23.486900 0.000000
-23.439500 0.000000
-23.392100 0.000000
-23.344700 0.000000
-23.297300 0.000000
-23.250000 0.000000
-23.202600 0.000000
-23.155200 0.000000
-23.107800 0.000000
-23.060400 0.000000
-23.013000 0.000000
-22.965600 0.000000
-22.918200 0.000000
-22.870800 0.000000
-22.823400 0.000000
-22.776000 0.000000
-22.728600 0.000000
-22.681200 0.000000
-22.633800 0.000000
-22.586500 0.000000
-22.539100 0.000000
-22.491700 0.000000
-22.444300 0.000000
-22.396900 0.000000
-22.349500 0.000000
-22.302100 0.000000
-22.254700 0.000000
-22.207300 0.000000
-22.159900 0.000000
-22.112500 0.000000
-22.065100 0.000000
-22.017700 0.000000
-21.970300 0.000000
-21.923000 0.000000
-21.875600 0.000000
-21.828200 0.000000
-21.780800 0.000000
-21.733400 0.000000
-21.686000 0.000000
-21.638600 0.000000
-21.591200 0.000000
-21.543800 0.000000
-21.496400 0.000000
-21.449000 0.000000
-21.401600 0.000000
-21.354200 0.000000
-21.306900 0.000000
-21.259500 0.000000
-21.212100 0.000000
-21.164700 0.000000
-21.117300 0.000000
-21.069900 0.000000
-21.022500 0.000000
-20.975100 0.000000
-20.927700 0.000000
-20.880300 0.000000
-20.832900 0.000000
-20.785500 0.000000
-20.738100 0.000000
-20.690700 0.000000
-20.643400 0.000000
-20.596000 0.000000
-20.548600 0.000000
-20.501200 0.000000
-20.453800 0.000000
-20.406400 0.000000
-20.359000 0.000000
-20.311600 0.000000
-20.264200 0.000000
-20.216800 0.000000
-20.169400 0.000000
-20.122000 0.000000
-20.074600 0.000000
-20.027200 0.000000
-19.979900 0.000000
-19.932500 0.000000
-19.885100 0.000000
-19.837700 0.000000
-19.790300 0.000000
-19.742900 0.000000
-19.695500 0.000000
-19.648100 0.000000
-19.600700 0.000000
-19.553300 0.000000
-19.505900 0.000000
-19.458500 0.000000
-19.411100 0.000000
-19.363700 0.000000
-19.316400 0.000000
-19.269000 0.000000
-19.221600 0.000000
-19.174200 0.000000
-19.126800 0.000000
-19.079400 0.000000
-19.032000 0.000000
-18.984600 0.000000
-18.937200 0.000000
-18.889800 0.000000
-18.842400 0.000000
-18.795000 0.000000
-18.747600 0.000000
-18.700200 0.000000
-18.652900 0.000000
-18.605500 0.000000
-18.558100 0.000000
-18.510700 0.000000
-18.463300 0.000000
-18.415900 0.000000
-18.368500 0.000000
-18.321100 0.000000
-18.273700 0.000000
-18.226300 0.000000
-18.178900 0.000000
-18.131500 0.000000
-18.084100 0.000000
-18.036700 0.000000
-17.989400 0.000000
-17.942000 0.000000
-17.894600 0.000000
-17.847200 0.000000
-17.799800 0.000000
-17.752400 0.000000
-17.705000 0.000000
-17.657600 0.000000
-17.610200 0.000000
-17.562800 0.000000
-17.515400 0.000000
-17.468000 0.000000
-17.420600 0.000000
-17.373200 0.000000
-17.325900 0.000000
-17.278500 0.000000
-17.231100 0.000000
-17.183700 0.000000
-17.136300 0.000000
-17.088900 0.000000
-17.041500 0.000000
-16.994100 0.000000
-16.946700 0.000000
-16.899300 0.000000
-16.851900 0.000000
-16.804500 0.000000
-16.757100 0.000000
-16.709800 0.000000
-16.662400 0.000000
-16.615000 0.000000
-16.567600 0.000000
-16.520200 0.000000
-16.472800 0.000000
-16.425400 0.000000
-16.378000 0.000000
-16.330600 0.000000
-16.283200 0.000000
-16.235800 0.000000
-16.188400 0.000000
-16.141000 0.000000
-16.093600 0.000000
-16.046300 0.000000
-15.998900 0.000000
-15.951500 0.000000
-15.904100 0.000000
-15.856700 0.000000
-15.809300 0.000000
-15.761900 0.000000
-15.714500 0.000000
-15.667100 0.000000
-15.619700 0.000000
-15.572300 0.000000
-15.524900 0.000000
-15.477500 0.000000
-15.430100 0.000000
-15.382800 0.012600
-15.335400 0.646300
-15.288000 4.805200
-15.240600 9.116000
-15.193200 15.654600
-15.145800 14.467300
-15.098400 8.393000
-15.051000 6.943200
-15.003600 7.731600
-14.956200 4.180300
-14.908800 8.293400
-14.861400 8.071000
-14.814000 7.978900
-14.766600 11.038000
-14.719300 12.911900
-14.671900 15.322400
-14.624500 15.226100
-14.577100 14.629300
-14.529700 22.292900
-14.482300 25.301700
-14.434900 18.348600
-14.387500 10.350200
-14.340100 4.968200
-14.292700 1.245600
-14.245300 0.000000
-14.197900 0.000000
-14.150500 0.000000
-14.103100 0.000000
-14.055800 0.000000
-14.008400 0.000000
-13.961000 0.000000
-13.913600 0.000000
-13.866200 0.000000
-13.818800 0.000000
-13.771400 0.000000
-13.724000 0.000000
-13.676600 0.000000
-13.629200 0.000000
-13.581800 0.000000
-13.534400 0.000000
-13.487000 0.000000
-13.439600 0.000000
-13.392300 0.000000
-13.344900 0.000000
-13.297500 0.000000
-13.250100 0.000000
-13.202700 0.000000
-13.155300 0.000000
-13.107900 0.000000
-13.060500 0.000000
-13.013100 0.000000
-12.965700 0.000000
-12.918300 0.000000
-12.870900 0.000000
-12.823500 0.000000
-12.776200 0.000000
-12.728800 0.000000
-12.681400 0.000000
-12.634000 0.000000
-12.586600 0.000000
-12.539200 0.000000
-12.491800 0.000000
-12.444400 0.000000
-12.397000 0.000000
-12.349600 0.000000
-12.302200 0.000000
-12.254800 0.000000
-12.207400 0.000000
-12.160000 0.000000
-12.112700 0.000000
-12.065300 0.000000
-12.017900 0.000000
-11.970500 0.000000
-11.923100 0.000000
-11.875700 0.000000
-11.828300 0.000000
-11.780900 0.000000
-11.733500 0.000000
-11.686100 0.000000
-11.638700 0.000000
-11.591300 0.000000
-11.543900 0.000000
-11.496500 0.000000
-11.449200 0.000000
-11.401800 0.000000
-11.354400 0.000000
-11.307000 0.000000
-11.259600 0.000000
-11.212200 0.000000
-11.164800 0.000000
-11.117400 0.000000
-11.070000 0.000000
-11.022600 0.000000
-10.975200 0.000000
-10.927800 0.000000
-10.880400 0.000000
-10.833000 0.000000
-10.785700 0.000000
-10.738300 0.000000
-10.690900 0.000000
-10.643500 0.000000
-10.596100 0.000000
-10.548700 0.000000
-10.501300 0.000000
-10.453900 0.000000
-10.406500 0.000000
-10.359100 0.000000
-10.311700 0.000000
-10.264300 0.000000
-10.216900 0.000000
-10.169500 0.000000
-10.122200 0.000000
-10.074800 0.000000
-10.027400 0.000000
-9.980000 0.000000
-9.932600 0.000000
-9.885200 0.000000
-9.837800 0.000000
-9.790400 0.000000
-9.743000 0.000000
-9.695600 0.000000
-9.648200 0.000000
-9.600800 0.000000
-9.553400 0.000000
-9.506000 0.000000
-9.458700 0.000000
-9.411300 0.000000
-9.363900 0.000000
-9.316500 0.000000
-9.269100 0.000000
-9.221700 0.000000
-9.174300 0.000000
-9.126900 0.000000
-9.079500 0.000000
-9.032100 0.000000
-8.984700 0.000000
-8.937300 0.000000
-8.889900 0.000000
-8.842500 0.000000
-8.795200 0.000000
-8.747800 0.000000
-8.700400 0.000000
-8.653000 0.000000
-8.605600 0.000000
-8.558200 0.000000
-8.510800 0.000000
-8.463400 0.000000
-8.416000 0.000000
-8.368600 0.000000
-8.321200 0.000000
-8.273800 0.000000
-8.226400 0.000000
-8.179100 0.000000
-8.131700 0.000000
-8.084300 0.000000
-8.036900 0.000000
-7.989500 0.000000
-7.942100 0.000000
-7.894700 0.000000
-7.847300 0.000000
-7.799900 0.000000
-7.752500 0.000000
-7.705100 0.000000
-7.657700 0.000000
-7.610300 0.000000
-7.562900 0.000000
-7.515600 0.000000
-7.468200 0.000000
-7.420800 0.000000
-7.373400 0.000000
-7.326000 0.000000
-7.278600 0.000000
-7.231200 0.000000
-7.183800 0.000000
-7.136400 0.000000
-7.089000 0.000000
-7.041600 0.000000
-6.994200 0.000000
-6.946800 0.000000
-6.899400 0.000000
-6.852100 0.000000
-6.804700 0.000000
-6.757300 0.000000
-6.709900 0.000000
-6.662500 0.000000
-6.615100 0.000000
-6.567700 0.000000
-6.520300 0.000000
-6.472900 0.000000
-6.425500 0.000000
-6.378100 0.000000
-6.330700 0.000000
-6.283300 0.000000
-6.235900 0.000000
-6.188600 0.000000
-6.141200 0.000000
-6.093800 0.000000
-6.046400 0.000000
-5.999000 0.000000
-5.951600 0.000000
-5.904200 0.000000
-5.856800 0.000000
-5.809400 0.000000
-5.762000 0.000000
-5.714600 0.000000
-5.667200 0.000000
-5.619800 0.000000
-5.572400 0.000000
-5.525100 0.000000
-5.477700 0.000000
-5.430300 0.000000
-5.382900 0.000000
-5.335500 0.000000
-5.288100 0.000000
-5.240700 0.000000
-5.193300 0.000000
-5.145900 0.000000
-5.098500 0.000000
-5.051100 0.000000
-5.003700 0.000000
-4.956300 0.000000
-4.908900 0.000000
-4.861600 0.000000
-4.814200 0.000000
-4.766800 0.000000
-4.719400 0.000000
-4.672000 0.000000
-4.624600 0.000000
-4.577200 0.000000
-4.529800 0.000000
-4.482400 0.000000
-4.435000 0.000000
-4.387600 0.000000
-4.340200 0.000000
-4.292800 0.000000
-4.245500 0.000000
-4.198100 0.000000
-4.150700 0.000000
-4.103300 0.000000
-4.055900 0.000000
-4.008500 0.000000
-3.961100 0.000000
-3.913700 0.000000
-3.866300 0.000000
-3.818900 0.000000
-3.771500 0.000000
-3.724100 0.000000
-3.676700 0.000000
-3.629300 0.000000
-3.582000 0.000000
-3.534600 0.000000
-3.487200 0.000000
-3.439800 0.000000
-3.392400 0.000000
-3.345000 0.000000
-3.297600 0.000000
-3.250200 0.000000
-3.202800 0.000000
-3.155400 0.000000
-3.108000 0.000000
-3.060600 0.000000
-3.013200 0.000000
-2.965800 0.000000
-2.918500 0.000000
-2.871100 0.000000
-2.823700 0.000000
-2.776300 0.000000
-2.728900 0.000000
-2.681500 0.000000
-2.634100 0.000000
-2.586700 0.000000
-2.539300 0.000000
-2.491900 0.000000
-2.444500 0.000000
-2.397100 0.000000
-2.349700 0.000000
-2.302300 0.000000
-2.255000 0.000000
-2.207600 0.000000
-2.160200 0.000000
-2.112800 0.000000
-2.065400 0.000000
-2.018000 0.000000
-1.970600 0.000000
-1.923200 0.000000
-1.875800 0.000000
-1.828400 0.000000
-1.781000 0.000000
-1.733600 0.000000
-1.686200 0.000000
-1.638800 0.000000
-1.591500 0.000000
-1.544100 0.000000
-1.496700 0.000000
-1.449300 0.000000
-1.401900 0.000000
-1.354500 0.000000
-1.307100 0.000000
-1.259700 0.000000
-1.212300 0.000000
-1.164900 0.000000
-1.117500 0.000000
-1.070100 0.000000
-1.022700 0.000000
-0.975300 0.000000
-0.928000 0.000000
-0.880600 0.000000
-0.833200 0.000000
-0.785800 0.000000
-0.738400 0.000000
-0.691000 0.000000
-0.643600 0.000000
-0.596200 0.000000
-0.548800 0.000000
-0.501400 0.000000
-0.454000 0.000000
-0.406600 0.000000
-0.359200 0.000000
-0.311800 0.000000
-0.264500 0.000000
-0.217100 0.000000
-0.169700 0.004500
-0.122300 0.024800
-0.074900 0.061200
-0.027500 0.087300
0.019900 0.096400
0.067300 0.101200
0.114700 0.115800
0.162100 0.131100
0.209500 0.147100
0.256900 0.162500
0.304300 0.174000
0.351600 0.181700
0.399000 0.190800
0.446400 0.202200
0.493800 0.214500
0.541200 0.227100
0.588600 0.239800
0.636000 0.252700
0.683400 0.266700
0.730800 0.281500
0.778200 0.295800
0.825600 0.310400
0.873000 0.325700
0.920400 0.341200
0.967800 0.357400
1.015100 0.374500
1.062500 0.393200
1.109900 0.415300
1.157300 0.438400
1.204700 0.462600
1.252100 0.489400
1.299500 0.520300
1.346900 0.554600
1.394300 0.592400
1.441700 0.635000
1.489100 0.689700
1.536500 0.767800
1.583900 0.881700
1.631300 1.417200
1.678600 2.220000
1.726000 2.640800
1.773400 2.444200
1.820800 2.525900
1.868200 2.713000
1.915600 2.764100
1.963000 2.666300
2.010400 2.645900
2.057800 2.939600
2.105200 3.141700
2.152600 3.328800
2.200000 3.283500
2.247400 3.253300
2.294800 3.348100
2.342100 4.636600
2.389500 4.142100
2.436900 3.327000
2.484300 3.151300
2.531700 2.814300
2.579100 2.618500
2.626500 2.814300
2.673900 2.598100
2.721300 2.339200
2.768700 2.194100
2.816100 1.901100
2.863500 1.808200
2.910900 1.960800
2.958300 2.362600
3.005600 2.631800
3.053000 2.848200
3.100400 3.345500
3.147800 3.534700
3.195200 3.204000
3.242600 2.782300
3.290000 2.378400
3.337400 2.437600
3.384800 3.549500
3.432200 3.753600
3.479600 4.087900
3.527000 4.210800
3.574400 4.217100
3.621800 4.359600
3.669100 4.579800
3.716500 4.678400
3.763900 4.495800
3.811300 3.288200
3.858700 1.834900
3.906100 1.374300
3.953500 1.214200
4.000900 1.069100
4.048300 0.944900
4.095700 0.836600
4.143100 0.978600
4.190500 1.393900
4.237900 1.694700
4.285200 2.721400
4.332600 3.332400
4.380000 4.950800
4.427400 5.569200
4.474800 4.580400
4.522200 4.183400
4.569600 4.493600
4.617000 4.453700
4.664400 4.135700
4.711800 3.761600
4.759200 3.555700
4.806600 3.287900
4.854000 3.331600
4.901400 3.639000
4.948700 4.074700
4.996100 4.264100
5.043500 4.240100
5.090900 4.646700
5.138300 4.366600
5.185700 3.800600
5.233100 3.251800
5.280500 4.558400
5.327900 5.274400
5.375300 5.211900
5.422700 4.619300
5.470100 4.292300
5.517500 3.700300
5.564900 3.452800
5.612200 3.442300
5.659600 3.014600
5.707000 2.726900
5.754400 2.658800
5.801800 2.059100
5.849200 1.850200
5.896600 1.868200
5.944000 1.930100
5.991400 1.936700
6.038800 1.910000
6.086200 1.860200
6.133600 1.793900
6.181000 1.617600
6.228400 1.576600
6.275700 1.567500
6.323100 1.578700
6.370500 1.590900
6.417900 1.601400
6.465300 1.599500
6.512700 1.592600
6.560100 1.543500
6.607500 1.535100
6.654900 1.535000
6.702300 1.535800
6.749700 1.531600
6.797100 1.522300
6.844500 1.508000
6.891900 1.507900
6.939200 1.510600
6.986600 1.523800
7.034000 1.550200
7.081400 1.567000
7.128800 1.578400
7.176200 1.599600
7.223600 1.621500
7.271000 1.639800
7.318400 1.663800
7.365800 1.707200
7.413200 1.751700
7.460600 1.797000
7.508000 1.855200
7.555400 1.936000
7.602700 2.030900
7.650100 2.116300
7.697500 1.938700
7.744900 1.822200
7.792300 1.913100
7.839700 2.005700
7.887100 2.161300
7.934500 2.501700
7.981900 2.459000
8.029300 2.854500
8.076700 3.052100
8.124100 3.107200
8.171500 3.161100
8.218900 3.268300
8.266200 3.440300
8.313600 3.375600
8.361000 3.451000
8.408400 3.422900
8.455800 3.272900
8.503200 3.242700
8.550600 3.449800
8.598000 3.639600
8.645400 3.694800
8.692800 3.893300
8.740200 3.738400
8.787600 3.553200
8.835000 3.691700
8.882300 3.380400
8.929700 3.008200
8.977100 2.683200
9.024500 2.358100
9.071900 1.926600
9.119300 1.805900
9.166700 1.873400
9.214100 1.790600
9.261500 1.645500
9.308900 1.576200
9.356300 1.487300
9.403700 1.521100
9.451100 1.567900
9.498500 1.583400
9.545800 1.569400
9.593200 1.599300
9.640600 1.654200
9.688000 1.704600
9.735400 1.741100
9.782800 1.754600
9.830200 1.759100
9.877600 1.481100
9.925000 1.237200
9.972400 1.242600
10.019800 1.290200
10.067200 1.373200
10.114600 1.451300
10.162000 1.510200
10.209300 1.464400
10.256700 1.399200
10.304100 1.267900
10.351500 1.031800
10.398900 0.951700
10.446300 0.891100
10.493700 0.840500
10.541100 0.829800
10.588500 0.813800
10.635900 0.798100
10.683300 0.779000
10.730700 0.758500
10.778100 0.751400
10.825500 0.757600
10.872800 0.768900
10.920200 0.777000
10.967600 0.786800
11.015000 0.801900
11.062400 0.793700
11.109800 0.852700
11.157200 1.107200
11.204600 1.174100
11.252000 1.967800
11.299400 1.402700
11.346800 1.284800
11.394200 1.216200
11.441600 1.190300
11.489000 1.237700
11.536300 1.326200
11.583700 1.478100
11.631100 1.700100
11.678500 1.883400
11.725900 2.018900
11.773300 2.168200
11.820700 2.317800
11.868100 2.479800
11.915500 2.474100
11.962900 2.397300
12.010300 2.400100
12.057700 2.450400
12.105100 2.581800
12.152500 2.592200
12.199800 2.588900
12.247200 2.468500
12.294600 2.418700
12.342000 2.377900
12.389400 2.285400
12.436800 1.977700
12.484200 1.802200
12.531600 1.751000
12.579000 1.756300
12.626400 1.709500
12.673800 1.599600
12.721200 1.484500
12.768600 1.467900
12.815900 1.519400
12.863300 1.590600
12.910700 1.672200
12.958100 1.768400
13.005500 1.857000
13.052900 1.892000
13.100300 1.878500
13.147700 1.856800
13.195100 1.997500
13.242500 2.151900
13.289900 2.292500
13.337300 2.391100
13.384700 2.440000
13.432100 2.492500
13.479400 2.563000
13.526800 2.604200
13.574200 2.640400
13.621600 2.705800
13.669000 2.729300
13.716400 2.804900
13.763800 2.829600
13.811200 2.874400
13.858600 2.939200
13.906000 2.954800
13.953400 2.919600
14.000800 2.736000
14.048200 2.508600
14.095600 2.451600
14.142900 2.564700
14.190300 2.561100
14.237700 2.569600
14.285100 2.673900
14.332500 2.872200
14.379900 2.917700
14.427300 2.868300
14.474700 2.727800
14.522100 2.677200
14.569500 2.658100
14.616900 2.733800
14.664300 2.876500
14.711700 2.908800
14.759100 3.061300
14.806400 3.290900
14.853800 3.318700
14.901200 3.186000
14.948600 2.998600
14.996000 2.772100
15.043400 2.561800
15.090800 2.472700
15.138200 2.359900
15.185600 2.381000
15.233000 2.526300
15.280400 2.465800
15.327800 2.406200
15.375200 2.391900
15.422600 2.546200
15.469900 2.823800
15.517300 2.995100
15.564700 3.232600
15.612100 2.866700
15.659500 2.724600
15.706900 2.808900
15.754300 2.875400
15.801700 2.744200
15.849100 2.488200
15.896500 2.370300
15.943900 2.419200
15.991300 2.469900
16.038700 2.566100
16.086100 2.648300
16.133400 2.516800
16.180800 2.172900
16.228200 1.819800
16.275600 1.535200
16.323000 1.351400
16.370400 1.293900
16.417800 1.292200
16.465200 1.390300
16.512600 1.526400
16.560000 2.071900
16.607400 2.498800
16.654800 2.665000
16.702200 2.764600
16.749600 2.929700
16.796900 2.750700
16.844300 2.534100
16.891700 2.376100
16.939100 2.205300
16.986500 2.196200
17.033900 2.056300
17.081300 2.221900
17.128700 2.141500
17.176100 2.044400
17.223500 1.935200
17.270900 1.827000
17.318300 1.480700
17.365700 1.550500
17.413000 1.702400
17.460400 2.051700
17.507800 2.221700
17.555200 2.317200
17.602600 2.637100
17.650000 2.629800
17.697400 2.670000
17.744800 2.814500
17.792200 2.344600
17.839600 2.172000
17.887000 2.020600
17.934400 1.750700
17.981800 1.475900
18.029200 1.505200
18.076500 1.511500
18.123900 1.493100
18.171300 1.440400
18.218700 1.397100
18.266100 1.361300
18.313500 1.340700
18.360900 1.347400
18.408300 1.372800
18.455700 1.429800
18.503100 1.476600
18.550500 1.512000
18.597900 1.519700
18.645300 1.566600
18.692700 1.822100
18.740000 2.068800
18.787400 1.853600
18.834800 1.870800
18.882200 2.123700
18.929600 2.190400
18.977000 2.265100
19.024400 2.355900
19.071800 2.463500
19.119200 2.585100
19.166600 2.793200
19.214000 2.809100
19.261400 2.737900
19.308800 2.653800
19.356200 2.575000
19.403500 2.663700
19.450900 2.494800
19.498300 2.399100
19.545700 2.389100
19.593100 2.390600
19.640500 2.459800
19.687900 2.426200
19.735300 2.412800
19.782700 2.611600
19.830100 2.924500
19.877500 2.978700
19.924900 2.861100
19.972300 2.593100
20.019700 2.499600
20.067000 2.432300
20.114400 2.371600
20.161800 2.402300
20.209200 2.388600
20.256600 2.462000
20.304000 2.583400
20.351400 2.770400
20.398800 2.909700
20.446200 2.975900
20.493600 3.218500
20.541000 3.544700
20.588400 3.400700
20.635800 3.091300
20.683200 2.759600
20.730500 2.448200
20.777900 2.313000
20.825300 2.324400
20.872700 2.351700
20.920100 2.403000
20.967500 2.444300
21.014900 2.490000
21.062300 2.545500
21.109700 2.825400
21.157100 2.697300
21.204500 2.614900
21.251900 2.870700
21.299300 2.817000
21.346600 2.825800
21.394000 3.106100
21.441400 2.944100
21.488800 2.864900
21.536200 2.793800
21.583600 2.759400
21.631000 2.749700
21.678400 2.872900
21.725800 3.143700
21.773200 3.314000
21.820600 3.569300
21.868000 3.717600
21.915400 3.640800
21.962800 3.488400
22.010100 3.187500
22.057500 2.901000
22.104900 2.666900
22.152300 2.464200
22.199700 2.342300
22.247100 2.361600
22.294500 2.223700
22.341900 2.630400
22.389300 2.638600
22.436700 2.346500
22.484100 2.160000
22.531500 1.918800
22.578900 1.744200
22.626300 1.674800
22.673600 1.653400
22.721000 1.738600
22.768400 1.861300
22.815800 2.003100
22.863200 2.259300
22.910600 2.407000
22.958000 2.377900
23.005400 2.446900
23.052800 2.526900
23.100200 2.588200
23.147600 2.535800
23.195000 2.452700
23.242400 2.330900
23.289800 2.230600
23.337100 2.150800
23.384500 2.124000
23.431900 2.174900
23.479300 2.306900
23.526700 2.589800
23.574100 2.647500
23.621500 2.741300
23.668900 2.804700
23.716300 2.906300
23.763700 3.140500
23.811100 3.259300
23.858500 3.289000
23.905900 3.373800
23.953300 3.362300
24.000600 3.390800
24.048000 3.214600
24.095400 2.997800
24.142800 2.867200
24.190200 2.813100
24.237600 2.631100
24.285000 2.484200
24.332400 2.422900
24.379800 2.368000
24.427200 2.436600
24.474600 2.474300
24.522000 2.726100
24.569400 2.631600
24.616800 2.558000
24.664100 2.511300
24.711500 2.568800
24.758900 2.876500
24.806300 3.508000
24.853700 3.536600
24.901100 3.409800
24.948500 3.380400
24.995900 3.322700
25.043300 3.266400
25.090700 3.104600
25.138100 2.912200
25.185500 2.949000
25.232900 3.008100
25.280300 3.145200
25.327600 3.364300
25.375000 3.167600
25.422400 2.994500
25.469800 2.930500
25.517200 2.881400
25.564600 2.894300
25.612000 2.906400
25.659400 2.994100
25.706800 2.989000
25.754200 3.039100
25.801600 3.120900
25.849000 3.192100
25.896400 3.208700
25.943700 3.033300
25.991100 2.868400
26.038500 2.661400
26.085900 2.440600
26.133300 2.453400
26.180700 2.590400
26.228100 2.594000
26.275500 2.888100
26.322900 3.181100
26.370300 3.110400
26.417700 3.083200
26.465100 3.014900
26.512500 2.981300
26.559900 2.996500
26.607200 2.982500
26.654600 2.977700
26.702000 3.026400
26.749400 3.186400
26.796800 3.444400
26.844200 3.513800
26.891600 3.424700
26.939000 3.359200
26.986400 3.244500
27.033800 2.740500
27.081200 2.553100
27.128600 2.529400
27.176000 2.695800
27.223400 2.962500
27.270700 3.251700
27.318100 3.289200
27.365500 3.277600
27.412900 3.016700
27.460300 3.004100
27.507700 2.994400
27.555100 2.950400
27.602500 2.784400
27.649900 2.788800
27.697300 2.615600
27.744700 2.643800
27.792100 2.590200
27.839500 2.576000
27.886900 2.578400
27.934200 2.613200
27.981600 2.637900
28.029000 2.661600
28.076400 2.589200
28.123800 2.520900
28.171200 2.579900
28.218600 2.648100
28.266000 2.834600
28.313400 3.006900
28.360800 3.035200
28.408200 3.133700
28.455600 2.865800
28.503000 2.649500
28.550400 2.409400
28.597700 2.367100
28.645100 2.447500
28.692500 2.497200
28.739900 2.504500
28.787300 2.575500
28.834700 2.733200
28.882100 2.944100
28.929500 3.050500
28.976900 2.777400
29.024300 2.601300
29.071700 2.519100
29.119100 2.494800
29.166500 2.483300
29.213900 2.497800
29.261200 2.545300
29.308600 2.599400
29.356000 2.749400
29.403400 3.029800
29.450800 3.113700
29.498200 3.052200
29.545600 3.086200
29.593000 3.301100
29.640400 3.083000
29.687800 3.149300
29.735200 3.387100
29.782600 3.457700
29.830000 3.542700
29.877300 3.556800
29.924700 3.446300
29.972100 3.188300
30.019500 3.004500
30.066900 2.845900
30.114300 2.826900
30.161700 2.909200
30.209100 2.992700
30.256500 3.063400
30.303900 3.050000
30.351300 3.040100
30.398700 2.974500
30.446100 3.020500
30.493500 3.104400
30.540800 3.167200
30.588200 3.012700
30.635600 2.959200
30.683000 2.905400
30.730400 2.879000
30.777800 2.872800
30.825200 2.893300
30.872600 2.849900
30.920000 2.826700
30.967400 2.902100
31.014800 3.044900
31.062200 3.273800
31.109600 3.645600
31.157000 3.779400
31.204300 3.793300
31.251700 3.963100
31.299100 4.069000
31.346500 4.333600
31.393900 4.303400
31.441300 4.075400
31.488700 3.811600
31.536100 3.564800
31.583500 3.359800
31.630900 3.308500
31.678300 3.401800
31.725700 3.559100
31.773100 3.582100
31.820500 3.532800
31.867800 3.292100
31.915200 3.047200
31.962600 3.011300
32.010000 3.067400
32.057400 2.915500
32.104800 2.692100
32.152200 2.543400
32.199600 2.486400
32.247000 2.338300
32.294400 2.469000
32.341800 2.833100
32.389200 2.999800
32.436600 2.896000
32.484000 2.842000
32.531300 2.749300
32.578700 2.693500
32.626100 2.788200
32.673500 3.055000
32.720900 3.345400
32.768300 3.513100
32.815700 3.566600
32.863100 3.732200
32.910500 3.547200
32.957900 3.392700
33.005300 3.300100
33.052700 3.189200
33.100100 3.204400
33.147500 3.237100
33.194800 3.238800
33.242200 3.244000
33.289600 3.344500
33.337000 3.422800
33.384400 3.320700
33.431800 3.254300
33.479200 3.130700
33.526600 3.210300
33.574000 3.569900
33.621400 3.513700
33.668800 3.536800
33.716200 3.644400
33.763600 3.697800
33.811000 3.602700
33.858300 3.490400
33.905700 3.474500
33.953100 3.475600
34.000500 3.344500
34.047900 3.226100
34.095300 3.115800
34.142700 3.117100
34.190100 3.144900
34.237500 3.159300
34.284900 3.059000
34.332300 2.975300
34.379700 3.121600
34.427100 3.264600
34.474400 3.095800
34.521800 2.978800
34.569200 2.957100
34.616600 3.060300
34.664000 2.824500
34.711400 2.613700
34.758800 2.415700
34.806200 2.394400
34.853600 2.449400
34.901000 2.547600
34.948400 2.658700
34.995800 2.751100
35.043200 2.902200
35.090600 3.120700
35.137900 3.298500
35.185300 3.409100
35.232700 3.517200
35.280100 3.396900
35.327500 3.163800
35.374900 2.884400
35.422300 2.744200
35.469700 2.610300
35.517100 2.559100
35.564500 2.573400
35.611900 2.617100
35.659300 2.660900
35.706700 2.711200
35.754100 2.762000
35.801400 2.854500
35.848800 3.035600
35.896200 3.166100
35.943600 3.185300
35.991000 3.079500
36.038400 3.128800
36.085800 3.366600
36.133200 3.507300
36.180600 3.376300
36.228000 3.386000
36.275400 3.409700
36.322800 3.541500
36.370200 3.722100
36.417600 3.849000
36.464900 3.776900
36.512300 3.563900
36.559700 3.654300
36.607100 3.862000
36.654500 4.188100
36.701900 4.280000
36.749300 4.202500
36.796700 4.147500
36.844100 4.265300
36.891500 4.082300
36.938900 3.820200
36.986300 3.448200
37.033700 3.247200
37.081100 3.148100
37.128400 3.257500
37.175800 3.389700
37.223200 3.497600
37.270600 3.385800
37.318000 3.230300
37.365400 3.166900
37.412800 3.147000
37.460200 3.174600
37.507600 3.143700
37.555000 3.159700
37.602400 3.144600
37.649800 3.213200
37.697200 3.515100
37.744600 4.201900
37.791900 4.248100
37.839300 3.474800
37.886700 3.264000
37.934100 3.143400
37.981500 2.907200
38.028900 3.145600
38.076300 2.882500
38.123700 2.877100
38.171100 2.890200
38.218500 2.901900
38.265900 2.918600
38.313300 2.936800
38.360700 2.955600
38.408100 2.936000
38.455400 2.943900
38.502800 2.935400
38.550200 3.036300
38.597600 3.371100
38.645000 3.663700
38.692400 3.968200
38.739800 3.959700
38.787200 3.838700
38.834600 3.731300
38.882000 3.611400
38.929400 3.454700
38.976800 3.323700
39.024200 3.369800
39.071500 3.740500
39.118900 3.721600
39.166300 3.561100
39.213700 3.548600
39.261100 3.515600
39.308500 3.584500
39.355900 3.611900
39.403300 3.451700
39.450700 3.274300
39.498100 3.168300
39.545500 3.253800
39.592900 3.205600
39.640300 3.251300
39.687700 3.480400
39.735000 3.634600
39.782400 3.896900
39.829800 3.933900
39.877200 3.946600
39.924600 3.879200
39.972000 3.871300
40.019400 3.671700
40.066800 3.539500
40.114200 3.411900
40.161600 3.347600
40.209000 3.312100
40.256400 3.328400
40.303800 3.360500
40.351200 3.203600
40.398500 3.092200
40.445900 3.159300
40.493300 3.225900
40.540700 3.347100
40.588100 3.493800
40.635500 3.323000
40.682900 3.297700
40.730300 3.320400
40.777700 3.315800
40.825100 3.371300
40.872500 3.426100
40.919900 3.529900
40.967300 3.763300
41.014700 3.797800
41.062000 3.796900
41.109400 3.437900
41.156800 3.189800
41.204200 3.204500
41.251600 3.276400
41.299000 3.421200
41.346400 3.576300
41.393800 3.646800
41.441200 3.629300
41.488600 3.608600
41.536000 3.583600
41.583400 3.583500
41.630800 3.573000
41.678200 3.635100
41.725500 3.750300
41.772900 3.809200
41.820300 3.717900
41.867700 3.633600
41.915100 3.549500
41.962500 3.433600
42.009900 3.643000
42.057300 3.789700
42.104700 3.744200
42.152100 3.736700
42.199500 3.641100
42.246900 3.634600
42.294300 3.534700
42.341700 3.426500
42.389000 3.387200
42.436400 3.292500
42.483800 3.303600
42.531200 3.359300
42.578600 3.464700
42.626000 3.511700
42.673400 3.391500
42.720800 3.283300
42.768200 3.286300
42.815600 3.282500
42.863000 3.268100
42.910400 3.509000
42.957800 4.010900
43.005100 4.179600
43.052500 3.489300
43.099900 3.534100
43.147300 3.520400
43.194700 3.546100
43.242100 3.549400
43.289500 3.521500
43.336900 3.415700
43.384300 3.552800
43.431700 3.753700
43.479100 3.899500
43.526500 4.072900
43.573900 4.044700
43.621300 3.941200
43.668600 3.865600
43.716000 3.805400
43.763400 3.733000
43.810800 3.669000
43.858200 3.620100
43.905600 3.683900
43.953000 3.621900
44.000400 3.546800
44.047800 3.457900
44.095200 3.318300
44.142600 3.267400
44.190000 3.320600
44.237400 3.542700
44.284800 3.892600
44.332100 3.900200
44.379500 3.747600
44.426900 3.623000
44.474300 3.659000
44.521700 3.718800
44.569100 3.445700
44.616500 3.186600
44.663900 3.237200
44.711300 3.375900
44.758700 3.491900
44.806100 3.536500
44.853500 3.477400
44.900900 3.406000
44.948300 3.452000
44.995600 3.474600
45.043000 3.480700
45.090400 3.339300
45.137800 3.386200
45.185200 3.503300
45.232600 3.876300
45.280000 3.899000
45.327400 3.811600
45.374800 3.732300
45.422200 3.609500
45.469600 3.471200
45.517000 3.351100
45.564400 3.321800
45.611800 3.362200
45.659100 3.364600
45.706500 3.364500
45.753900 3.404000
45.801300 3.468200
45.848700 3.520900
45.896100 3.545900
45.943500 3.593900
45.990900 3.787100
46.038300 3.866900
46.085700 3.775300
46.133100 3.619000
46.180500 3.523500
46.227900 3.452100
46.275300 3.440000
46.322600 3.379900
46.370000 3.261200
46.417400 3.244600
46.464800 3.340600
46.512200 3.513600
46.559600 3.683000
46.607000 3.907100
46.654400 3.933000
46.701800 3.840500
46.749200 3.860700
46.796600 3.822900
46.844000 3.778000
46.891400 3.982900
46.938800 3.867300
46.986100 3.861800
47.033500 3.833100
47.080900 3.782100
47.128300 3.776700
47.175700 3.719100
47.223100 3.794500
47.270500 3.838200
47.317900 3.898800
47.365300 3.975300
47.412700 4.098200
47.460100 4.303000
47.507500 4.292200
47.554900 4.204800
47.602200 4.089400
47.649600 3.942100
47.697000 3.896400
47.744400 3.898600
47.791800 4.034300
47.839200 4.066600
47.886600 4.000700
47.934000 3.854600
47.981400 3.757200
48.028800 3.673600
48.076200 3.652700
48.123600 3.800300
48.171000 3.743400
48.218400 3.599400
48.265700 3.451000
48.313100 3.401900
48.360500 3.413700
48.407900 3.314000
48.455300 3.378200
48.502700 3.508400
48.550100 3.707900
48.597500 3.815300
48.644900 3.767200
48.692300 3.752100
48.739700 3.681300
48.787100 3.660000
48.834500 3.571300
48.881900 3.488500
48.929200 3.591700
48.976600 3.580200
49.024000 3.425000
49.071400 3.490900
49.118800 3.550000
49.166200 3.703400
49.213600 3.740400
49.261000 4.164500
49.308400 3.614600
49.355800 3.632300
49.403200 3.654100
49.450600 3.735600
49.498000 3.568700
49.545400 3.624600
49.592700 3.726200
49.640100 3.719200
49.687500 3.760300
49.734900 3.609400
49.782300 3.647900
49.829700 3.703200
49.877100 3.719400
49.924500 3.716300
49.971900 3.656300
50.019300 3.632200
50.066700 3.463900
50.114100 3.516400
50.161500 3.405200
50.208900 3.325900
50.256200 3.171700
50.303600 2.973300
50.351000 2.783400
50.398400 2.531700
50.445800 2.276700
50.493200 2.090000
50.540600 2.108100
50.588000 2.208000
50.635400 2.137500
50.682800 2.061000
50.730200 2.043700
50.777600 1.922200
50.825000 1.755300
50.872400 1.637000
50.919700 1.575800
50.967100 1.488200
51.014500 1.421900
51.061900 1.388600
51.109300 1.665100
51.156700 1.390500
51.204100 1.263100
51.251500 1.212200
51.298900 1.141900
51.346300 1.056300
51.393700 0.979800
51.441100 0.901400
51.488500 0.771400
51.535800 0.620500
51.583200 0.515800
51.630600 0.438000
51.678000 0.369400
51.725400 0.301600
51.772800 0.224900
51.820200 0.170900
51.867600 0.146400
51.915000 0.131800
51.962400 0.118100
52.009800 0.105300
52.057200 0.093400
52.104600 0.082300
52.152000 0.076800
52.199300 0.065800
52.246700 0.062600
52.294100 0.059500
52.341500 0.056400
52.388900 0.053400
52.436300 0.050500
52.483700 0.047600
52.531100 0.044900
52.578500 0.042200
52.625900 0.039600
52.673300 0.037000
52.720700 0.034500
52.768100 0.032100
52.815500 0.042500
52.862800 0.055600
52.910200 0.027600
52.957600 0.017300
53.005000 0.015700
53.052400 0.014100
53.099800 0.012600
53.147200 0.011300
53.194600 0.010100
53.242000 0.008900
53.289400 0.007900
53.336800 0.007000
53.384200 0.005000
53.431600 0.000000
53.479000 0.000000
53.526300 0.000000
53.573700 0.000000
53.621100 0.000000
53.668500 0.000000
53.715900 0.000000
53.763300 0.000000
53.810700 0.000000
53.858100 0.000000
53.905500 0.000000
53.952900 0.000000
54.000300 0.000000
54.047700 0.000000
54.095100 0.000000
54.142500 0.000000
54.189800 0.000000
54.237200 0.000000
54.284600 0.000000
54.332000 0.000000
54.379400 0.000000
54.426800 0.000000
54.474200 0.000000
54.521600 0.000000
54.569000 0.000000
54.616400 0.000000
54.663800 0.000000
54.711200 0.000000
54.758600 0.000000
54.806000 0.000000
54.853300 0.000000
54.900700 0.000000
54.948100 0.000000
54.995500 0.000000
55.042900 0.000000
55.090300 0.000000
55.137700 0.000000
55.185100 0.000000
55.232500 0.000000
55.279900 0.000000
55.327300 0.000000
55.374700 0.000000
55.422100 0.000000
55.469500 0.000000
55.516800 0.000000
55.564200 0.000000
55.611600 0.000000
55.659000 0.000000
55.706400 0.000000
55.753800 0.000000
55.801200 0.000000
55.848600 0.000000
55.896000 0.000000
55.943400 0.000000
55.990800 0.000000
56.038200 0.000000
56.085600 0.000000
56.132900 0.000000
56.180300 0.000000
56.227700 0.000000
56.275100 0.000000
56.322500 0.000000
56.369900 0.000000
56.417300 0.000000
56.464700 0.000000
56.512100 0.000000
56.559500 0.000000
56.606900 0.000000
56.654300 0.000000
56.701700 0.000000
56.749100 0.000000
56.796400 0.000000
56.843800 0.000000
56.891200 0.000000
56.938600 0.000000
56.986000 0.000000
57.033400 0.000000
57.080800 0.000000
57.128200 0.000000
57.175600 0.000000
57.223000 0.000000
57.270400 0.000000
57.317800 0.000000
57.365200 0.000000
57.412600 0.000000
57.459900 0.000000
57.507300 0.000000
57.554700 0.000000
57.602100 0.000000
57.649500 0.000000
57.696900 0.000000
e
