set title 'mp-13065 - Density of States'
set xlabel 'Energy (eV)'
set ylabel 'DOS (states/eV)'
set grid
set xrange [-10:10]
set yrange [0:15.160]
set xzeroaxis lt -1
set terminal png size 800,600
set output 'mp-13065_dos_gnuplot.png'
plot '-' using 1:2 with lines title 'DOS'
-22.478000 0.000000
-22.449600 0.000000
-22.421100 0.000000
-22.392600 0.000000
-22.364200 0.000000
-22.335700 0.000000
-22.307200 0.000000
-22.278700 0.000000
-22.250300 0.000000
-22.221800 0.000000
-22.193300 0.000000
-22.164900 0.000000
-22.136400 0.000000
-22.107900 0.000000
-22.079400 0.000000
-22.051000 0.000000
-22.022500 0.000000
-21.994000 0.000000
-21.965600 0.000000
-21.937100 0.000000
-21.908600 0.000000
-21.880100 0.000000
-21.851700 0.000000
-21.823200 0.000000
-21.794700 0.000000
-21.766300 0.000000
-21.737800 0.000000
-21.709300 0.000000
-21.680800 0.000000
-21.652400 0.000000
-21.623900 0.000000
-21.595400 0.000000
-21.566900 0.000000
-21.538500 0.000000
-21.510000 0.000000
-21.481500 0.000000
-21.453100 0.000000
-21.424600 0.000000
-21.396100 0.000000
-21.367600 0.000000
-21.339200 0.000000
-21.310700 0.000000
-21.282200 0.000000
-21.253800 0.000000
-21.225300 0.000000
-21.196800 0.000000
-21.168300 0.000000
-21.139900 0.000000
-21.111400 0.000000
-21.082900 0.000000
-21.054500 0.000000
-21.026000 0.000000
-20.997500 0.000000
-20.969000 0.000000
-20.940600 0.000000
-20.912100 0.000000
-20.883600 0.000000
-20.855200 0.000000
-20.826700 0.000000
-20.798200 0.000000
-20.769700 0.000000
-20.741300 0.000000
-20.712800 0.000000
-20.684300 0.000000
-20.655900 0.000000
-20.627400 0.000000
-20.598900 0.000000
-20.570400 0.000000
-20.542000 0.000000
-20.513500 0.000000
-20.485000 0.000000
-20.456600 0.000000
-20.428100 0.000000
-20.399600 0.000000
-20.371100 0.000000
-20.342700 0.000000
-20.314200 0.000000
-20.285700 0.000000
-20.257300 0.000000
-20.228800 0.000000
-20.200300 0.000000
-20.171800 0.000000
-20.143400 0.000000
-20.114900 0.000000
-20.086400 0.000000
-20.057900 0.000000
-20.029500 0.000000
-20.001000 0.000000
-19.972500 0.000000
-19.944100 0.000000
-19.915600 0.000000
-19.887100 0.076700
-19.858600 1.357900
-19.830200 3.251600
-19.801700 5.046700
-19.773200 9.384500
-19.744800 8.443900
-19.716300 13.003800
-19.687800 17.713800
-19.659300 20.458400
-19.630900 21.166600
-19.602400 7.049700
-19.573900 5.485500
-19.545500 4.462800
-19.517000 4.366200
-19.488500 2.361000
-19.460000 1.940500
-19.431600 1.820100
-19.403100 1.753800
-19.374600 1.688100
-19.346200 1.629100
-19.317700 1.574100
-19.289200 1.511900
-19.260700 1.426300
-19.232300 1.332400
-19.203800 4.042200
-19.175300 7.085100
-19.146900 9.823300
-19.118400 9.847100
-19.089900 9.120000
-19.061400 7.529200
-19.033000 15.327100
-19.004500 19.263100
-18.976000 17.836500
-18.947600 17.184100
-18.919100 27.493400
-18.890600 31.889800
-18.862100 39.386900
-18.833700 29.338200
-18.805200 23.966800
-18.776700 14.296600
-18.748300 9.713300
-18.719800 3.642100
-18.691300 0.000000
-18.662800 0.000000
-18.634400 0.000000
-18.605900 0.000000
-18.577400 0.000000
-18.548900 0.000000
-18.520500 0.000000
-18.492000 0.000000
-18.463500 0.000000
-18.435100 0.000000
-18.406600 0.000000
-18.378100 0.000000
-18.349600 0.000000
-18.321200 0.000000
-18.292700 0.000000
-18.264200 0.000000
-18.235800 0.000000
-18.207300 0.000000
-18.178800 0.000000
-18.150300 0.000000
-18.121900 0.000000
-18.093400 0.000000
-18.064900 0.000000
-18.036500 0.000000
-18.008000 0.000000
-17.979500 0.000000
-17.951000 0.000000
-17.922600 0.000000
-17.894100 0.000000
-17.865600 0.000000
-17.837200 0.000000
-17.808700 0.000000
-17.780200 0.000000
-17.751700 0.000000
-17.723300 0.000000
-17.694800 0.000000
-17.666300 0.000000
-17.637900 0.000000
-17.609400 0.000000
-17.580900 0.000000
-17.552400 0.000000
-17.524000 0.000000
-17.495500 0.000000
-17.467000 0.000000
-17.438600 0.000000
-17.410100 0.000000
-17.381600 0.000000
-17.353100 0.000000
-17.324700 0.000000
-17.296200 0.000000
-17.267700 0.000000
-17.239300 0.000000
-17.210800 0.000000
-17.182300 0.000000
-17.153800 0.000000
-17.125400 0.000000
-17.096900 0.000000
-17.068400 0.000000
-17.040000 0.000000
-17.011500 0.000000
-16.983000 0.000000
-16.954500 0.000000
-16.926100 0.000000
-16.897600 0.000000
-16.869100 0.000000
-16.840600 0.000000
-16.812200 0.000000
-16.783700 0.000000
-16.755200 0.000000
-16.726800 0.000000
-16.698300 0.000000
-16.669800 0.000000
-16.641300 0.000000
-16.612900 0.000000
-16.584400 0.000000
-16.555900 0.000000
-16.527500 0.000000
-16.499000 0.000000
-16.470500 0.000000
-16.442000 0.000000
-16.413600 0.000000
-16.385100 0.000000
-16.356600 0.000000
-16.328200 0.000000
-16.299700 0.000000
-16.271200 0.000000
-16.242700 0.000000
-16.214300 0.000000
-16.185800 0.000000
-16.157300 0.000000
-16.128900 0.000000
-16.100400 0.000000
-16.071900 0.000000
-16.043400 0.000000
-16.015000 0.000000
-15.986500 0.000000
-15.958000 0.000000
-15.929600 0.000000
-15.901100 0.000000
-15.872600 0.000000
-15.844100 0.000000
-15.815700 0.000000
-15.787200 0.000000
-15.758700 0.000000
-15.730300 0.000000
-15.701800 0.000000
-15.673300 0.000000
-15.644800 0.000000
-15.616400 0.000000
-15.587900 0.000000
-15.559400 0.000000
-15.531000 0.000000
-15.502500 0.000000
-15.474000 0.000000
-15.445500 0.000000
-15.417100 0.000000
-15.388600 0.000000
-15.360100 0.000000
-15.331600 0.000000
-15.303200 0.000000
-15.274700 0.000000
-15.246200 0.000000
-15.217800 0.000000
-15.189300 0.000000
-15.160800 0.000000
-15.132300 0.000000
-15.103900 0.000000
-15.075400 0.000000
-15.046900 0.000000
-15.018500 0.000000
-14.990000 0.000000
-14.961500 0.000000
-14.933000 0.000000
-14.904600 0.000000
-14.876100 0.000000
-14.847600 0.000000
-14.819200 0.000000
-14.790700 0.000000
-14.762200 0.000000
-14.733700 0.000000
-14.705300 0.000000
-14.676800 0.000000
-14.648300 0.000000
-14.619900 0.000000
-14.591400 0.000000
-14.562900 0.000000
-14.534400 0.000000
-14.506000 0.000000
-14.477500 0.000000
-14.449000 0.000000
-14.420600 0.000000
-14.392100 0.000000
-14.363600 0.000000
-14.335100 0.000000
-14.306700 0.004100
-14.278200 0.017100
-14.249700 0.038800
-14.221300 0.069400
-14.192800 0.108500
-14.164300 0.154400
-14.135800 0.207000
-14.107400 0.266300
-14.078900 0.312300
-14.050400 0.339500
-14.022000 0.363700
-13.993500 0.384900
-13.965000 0.435000
-13.936500 0.496900
-13.908100 0.553600
-13.879600 0.605300
-13.851100 0.651800
-13.822700 0.693300
-13.794200 0.729700
-13.765700 0.727200
-13.737200 1.027700
-13.708800 1.361300
-13.680300 1.700500
-13.651800 2.046400
-13.623300 1.835400
-13.594900 1.978100
-13.566400 2.160100
-13.537900 2.420900
-13.509500 3.307600
-13.481000 4.610800
-13.452500 5.480600
-13.424000 6.206500
-13.395600 6.693100
-13.367100 6.785900
-13.338600 6.796600
-13.310200 6.633900
-13.281700 5.886500
-13.253200 5.485300
-13.224700 5.148700
-13.196300 4.873900
-13.167800 5.323600
-13.139300 6.638700
-13.110900 6.595400
-13.082400 4.852500
-13.053900 5.890700
-13.025400 7.769100
-12.997000 7.897600
-12.968500 7.976700
-12.940000 8.763500
-12.911600 6.046900
-12.883100 6.549600
-12.854600 7.407200
-12.826100 7.203900
-12.797700 5.878900
-12.769200 5.196900
-12.740700 4.666900
-12.712300 4.149800
-12.683800 3.418900
-12.655300 2.926900
-12.626800 1.825400
-12.598400 0.902000
-12.569900 0.339300
-12.541400 0.000000
-12.513000 0.000000
-12.484500 0.000000
-12.456000 0.000000
-12.427500 0.000000
-12.399100 0.000000
-12.370600 0.000000
-12.342100 0.000000
-12.313700 0.000000
-12.285200 0.000000
-12.256700 0.000000
-12.228200 0.000000
-12.199800 0.000000
-12.171300 0.000000
-12.142800 0.000000
-12.114300 0.000000
-12.085900 0.000000
-12.057400 0.000000
-12.028900 0.000000
-12.000500 0.000000
-11.972000 0.000000
-11.943500 0.000000
-11.915000 0.000000
-11.886600 0.000000
-11.858100 0.000000
-11.829600 0.000000
-11.801200 0.000000
-11.772700 0.000000
-11.744200 0.000000
-11.715700 0.000000
-11.687300 0.000000
-11.658800 0.000000
-11.630300 0.000000
-11.601900 0.000000
-11.573400 0.000000
-11.544900 0.000000
-11.516400 0.000000
-11.488000 0.000000
-11.459500 0.000000
-11.431000 0.000000
-11.402600 0.000000
-11.374100 0.000000
-11.345600 0.000000
-11.317100 0.000000
-11.288700 0.000000
-11.260200 0.000000
-11.231700 0.000000
-11.203300 0.000000
-11.174800 0.000000
-11.146300 0.000000
-11.117800 0.000000
-11.089400 0.000000
-11.060900 0.000000
-11.032400 0.000000
-11.004000 0.000000
-10.975500 0.000000
-10.947000 0.000000
-10.918500 0.000000
-10.890100 0.000000
-10.861600 0.000000
-10.833100 0.000000
-10.804700 0.000000
-10.776200 0.000000
-10.747700 0.000000
-10.719200 0.000000
-10.690800 0.000000
-10.662300 0.000000
-10.633800 0.000000
-10.605300 0.000000
-10.576900 0.000000
-10.548400 0.000000
-10.519900 0.000000
-10.491500 0.000000
-10.463000 0.000000
-10.434500 0.000000
-10.406000 0.000000
-10.377600 0.000000
-10.349100 0.000000
-10.320600 0.000000
-10.292200 0.000000
-10.263700 0.000000
-10.235200 0.000000
-10.206700 0.000000
-10.178300 0.000000
-10.149800 0.000000
-10.121300 0.000000
-10.092900 0.000000
-10.064400 0.000000
-10.035900 0.000000
-10.007400 0.000000
-9.979000 0.000000
-9.950500 0.000000
-9.922000 0.000000
-9.893600 0.000000
-9.865100 0.000000
-9.836600 0.000000
-9.808100 0.000000
-9.779700 0.000000
-9.751200 0.000000
-9.722700 0.000000
-9.694300 0.000000
-9.665800 0.000000
-9.637300 0.000000
-9.608800 0.000000
-9.580400 0.000000
-9.551900 0.000000
-9.523400 0.000000
-9.495000 0.000000
-9.466500 0.000000
-9.438000 0.000000
-9.409500 0.000000
-9.381100 0.000000
-9.352600 0.000000
-9.324100 0.000000
-9.295700 0.000000
-9.267200 0.000000
-9.238700 0.000000
-9.210200 0.000000
-9.181800 0.000000
-9.153300 0.000000
-9.124800 0.000000
-9.096400 0.000000
-9.067900 0.000000
-9.039400 0.000000
-9.010900 0.000000
-8.982500 0.000000
-8.954000 0.000000
-8.925500 0.000000
-8.897000 0.000000
-8.868600 0.000000
-8.840100 0.000000
-8.811600 0.000000
-8.783200 0.000000
-8.754700 0.000000
-8.726200 0.000000
-8.697700 0.000000
-8.669300 0.000000
-8.640800 0.000000
-8.612300 0.000000
-8.583900 0.000000
-8.555400 0.000000
-8.526900 0.000000
-8.498400 0.000000
-8.470000 0.000000
-8.441500 0.000000
-8.413000 0.000000
-8.384600 0.000000
-8.356100 0.000000
-8.327600 0.000000
-8.299100 0.000000
-8.270700 0.000000
-8.242200 0.000000
-8.213700 0.000000
-8.185300 0.000000
-8.156800 0.000000
-8.128300 0.000000
-8.099800 0.000000
-8.071400 0.000000
-8.042900 0.000000
-8.014400 0.000000
-7.986000 0.000000
-7.957500 0.000000
-7.929000 0.000000
-7.900500 0.000000
-7.872100 0.000000
-7.843600 0.000000
-7.815100 0.000000
-7.786700 0.000000
-7.758200 0.000000
-7.729700 0.000000
-7.701200 0.000000
-7.672800 0.000000
-7.644300 0.000000
-7.615800 0.000000
-7.587400 0.000000
-7.558900 0.000000
-7.530400 0.000000
-7.501900 0.000000
-7.473500 0.000000
-7.445000 0.000000
-7.416500 0.000000
-7.388000 0.000000
-7.359600 0.000000
-7.331100 0.000000
-7.302600 0.000000
-7.274200 0.000000
-7.245700 0.000000
-7.217200 0.000000
-7.188700 0.000000
-7.160300 0.000000
-7.131800 0.000000
-7.103300 0.000000
-7.074900 0.000000
-7.046400 0.000000
-7.017900 0.000000
-6.989400 0.000000
-6.961000 0.000000
-6.932500 0.000000
-6.904000 0.000000
-6.875600 0.000000
-6.847100 0.000000
-6.818600 0.000000
-6.790100 0.000000
-6.761700 0.000000
-6.733200 0.000000
-6.704700 0.000000
-6.676300 0.000000
-6.647800 0.000000
-6.619300 0.000000
-6.590800 0.000000
-6.562400 0.000000
-6.533900 0.000000
-6.505400 0.000000
-6.477000 0.000000
-6.448500 0.000000
-6.420000 0.000000
-6.391500 0.000000
-6.363100 0.000000
-6.334600 0.000000
-6.306100 0.000000
-6.277700 0.000000
-6.249200 0.000000
-6.220700 0.000000
-6.192200 0.000000
-6.163800 0.000000
-6.135300 0.000000
-6.106800 0.000000
-6.078400 0.000000
-6.049900 0.000000
-6.021400 0.000000
-5.992900 0.000000
-5.964500 0.000000
-5.936000 0.000000
-5.907500 0.000000
-5.879000 0.000000
-5.850600 0.000000
-5.822100 0.000000
-5.793600 0.000000
-5.765200 0.000000
-5.736700 0.000000
-5.708200 0.000000
-5.679700 0.000000
-5.651300 0.000000
-5.622800 0.000000
-5.594300 0.000000
-5.565900 0.000000
-5.537400 0.000000
-5.508900 0.000000
-5.480400 0.000000
-5.452000 0.000000
-5.423500 0.000000
-5.395000 0.000000
-5.366600 0.000000
-5.338100 0.000000
-5.309600 0.000000
-5.281100 0.000000
-5.252700 0.000000
-5.224200 0.000000
-5.195700 0.000000
-5.167300 0.000000
-5.138800 0.000000
-5.110300 0.000000
-5.081800 0.000000
-5.053400 0.000000
-5.024900 0.000000
-4.996400 0.000000
-4.968000 0.000000
-4.939500 0.000000
-4.911000 0.000000
-4.882500 0.000000
-4.854100 0.000000
-4.825600 0.000000
-4.797100 0.000000
-4.768700 0.000000
-4.740200 0.000000
-4.711700 0.000000
-4.683200 0.000000
-4.654800 0.000000
-4.626300 0.000000
-4.597800 0.000000
-4.569400 0.000000
-4.540900 0.000000
-4.512400 0.000000
-4.483900 0.000000
-4.455500 0.000000
-4.427000 0.000000
-4.398500 0.000000
-4.370100 0.000000
-4.341600 0.000000
-4.313100 0.000000
-4.284600 0.000000
-4.256200 0.000000
-4.227700 0.000000
-4.199200 0.000000
-4.170700 0.000000
-4.142300 0.000000
-4.113800 0.000000
-4.085300 0.000000
-4.056900 0.000000
-4.028400 0.000000
-3.999900 0.000000
-3.971400 0.000000
-3.943000 0.000000
-3.914500 0.000000
-3.886000 0.000000
-3.857600 0.000000
-3.829100 0.000000
-3.800600 0.000000
-3.772100 0.000000
-3.743700 0.000000
-3.715200 0.000000
-3.686700 0.000000
-3.658300 0.000000
-3.629800 0.000000
-3.601300 0.000000
-3.572800 0.000000
-3.544400 0.000000
-3.515900 0.000000
-3.487400 0.000000
-3.459000 0.000000
-3.430500 0.000000
-3.402000 0.000000
-3.373500 0.000000
-3.345100 0.000000
-3.316600 0.000000
-3.288100 0.000000
-3.259700 0.000000
-3.231200 0.000000
-3.202700 0.000000
-3.174200 0.000000
-3.145800 0.000000
-3.117300 0.000000
-3.088800 0.000000
-3.060400 0.000000
-3.031900 0.000000
-3.003400 0.000000
-2.974900 0.000000
-2.946500 0.000000
-2.918000 0.000000
-2.889500 0.000000
-2.861100 0.000000
-2.832600 0.000000
-2.804100 0.000000
-2.775600 0.000000
-2.747200 0.000000
-2.718700 0.000000
-2.690200 0.000000
-2.661700 0.000000
-2.633300 0.000000
-2.604800 0.000000
-2.576300 0.000000
-2.547900 0.000000
-2.519400 0.000000
-2.490900 0.000000
-2.462400 0.000000
-2.434000 0.000000
-2.405500 0.000000
-2.377000 0.000000
-2.348600 0.000000
-2.320100 0.000000
-2.291600 0.000000
-2.263100 0.000000
-2.234700 0.000000
-2.206200 0.000000
-2.177700 0.000000
-2.149300 0.000000
-2.120800 0.000000
-2.092300 0.000000
-2.063800 0.000000
-2.035400 0.000000
-2.006900 0.000000
-1.978400 0.000000
-1.950000 0.000000
-1.921500 0.000000
-1.893000 0.000000
-1.864500 0.000000
-1.836100 0.062900
-1.807600 0.138800
-1.779100 0.225200
-1.750700 0.322000
-1.722200 0.429300
-1.693700 0.547000
-1.665200 0.675200
-1.636800 0.703600
-1.608300 0.719000
-1.579800 0.783300
-1.551400 0.865500
-1.522900 0.949800
-1.494400 1.036300
-1.465900 1.125300
-1.437500 1.217000
-1.409000 1.319600
-1.380500 1.441000
-1.352100 1.581100
-1.323600 1.738600
-1.295100 2.213000
-1.266600 2.307700
-1.238200 2.507500
-1.209700 3.112200
-1.181200 3.764900
-1.152700 3.915400
-1.124300 4.544400
-1.095800 5.480500
-1.067300 5.938100
-1.038900 5.410800
-1.010400 4.079000
-0.981900 2.933700
-0.953400 1.845600
-0.925000 1.151600
-0.896500 1.091600
-0.868000 1.432400
-0.839600 1.894000
-0.811100 3.055100
-0.782600 3.422400
-0.754100 3.648600
-0.725700 4.152000
-0.697200 5.073100
-0.668700 6.722800
-0.640300 7.058100
-0.611800 5.903000
-0.583300 5.719700
-0.554800 5.760100
-0.526400 5.918400
-0.497900 6.135500
-0.469400 6.106500
-0.441000 6.438200
-0.412500 7.293400
-0.384000 8.199200
-0.355500 9.910800
-0.327100 9.983400
-0.298600 9.868100
-0.270100 9.936300
-0.241700 10.939200
-0.213200 10.146400
-0.184700 5.757100
-0.156200 4.761500
-0.127800 4.075200
-0.099300 3.771400
-0.070800 4.011100
-0.042400 4.461000
-0.013900 4.991200
0.014600 5.434100
0.043100 5.635300
0.071500 5.831100
0.100000 6.224200
0.128500 6.173100
0.156900 5.855800
0.185400 4.253500
0.213900 3.129200
0.242400 2.556300
0.270800 2.465200
0.299300 2.550300
0.327800 2.650300
0.356200 2.778700
0.384700 2.952600
0.413200 3.544000
0.441700 4.509500
0.470100 7.360000
0.498600 7.850100
0.527100 7.661200
0.555600 7.742400
0.584000 12.120200
0.612500 4.373100
0.641000 3.452500
0.669400 3.088000
0.697900 3.033700
0.726400 2.962100
0.754900 2.833300
0.783300 3.326500
0.811800 3.625900
0.840300 3.887200
0.868700 4.354200
0.897200 4.423800
0.925700 4.308200
0.954200 4.182400
0.982600 4.224000
1.011100 4.140100
1.039600 3.491800
1.068000 2.419800
1.096500 2.251100
1.125000 1.467400
1.153500 1.662300
1.181900 2.174900
1.210400 2.854000
1.238900 4.253100
1.267300 7.771200
1.295800 10.418700
1.324300 10.709700
1.352800 9.520000
1.381200 6.599200
1.409700 3.155300
1.438200 3.972400
1.466600 6.361600
1.495100 9.419700
1.523600 12.566700
1.552100 10.127200
1.580500 6.522200
1.609000 5.220300
1.637500 11.797800
1.665900 9.543300
1.694400 8.866900
1.722900 8.240200
1.751400 7.556200
1.779800 6.633800
1.808300 6.188000
1.836800 5.861500
1.865200 4.777500
1.893700 4.012900
1.922200 3.687800
1.950700 3.682600
1.979100 4.384700
2.007600 2.574000
2.036100 1.689100
2.064600 1.158400
2.093000 0.745300
2.121500 0.361200
2.150000 0.205200
2.178400 0.125700
2.206900 0.065600
2.235400 0.024900
2.263900 0.003500
2.292300 0.000000
2.320800 0.000000
2.349300 0.000000
2.377700 0.000000
2.406200 0.000000
2.434700 0.000000
2.463200 0.000000
2.491600 0.000000
2.520100 0.000000
2.548600 0.000000
2.577000 0.000000
2.605500 0.000000
2.634000 0.000000
2.662500 0.000000
2.690900 0.000000
2.719400 0.000000
2.747900 0.000000
2.776300 0.000000
2.804800 0.000000
2.833300 0.000000
2.861800 0.000000
2.890200 0.000000
2.918700 0.000000
2.947200 0.000000
2.975600 0.000000
3.004100 0.000000
3.032600 0.000000
3.061100 0.000000
3.089500 0.000000
3.118000 0.000000
3.146500 0.000000
3.174900 0.000000
3.203400 0.000000
3.231900 0.000000
3.260400 0.000000
3.288800 0.000000
3.317300 0.000000
3.345800 0.000000
3.374200 0.000000
3.402700 0.000000
3.431200 0.000000
3.459700 0.000000
3.488100 0.000000
3.516600 0.000000
3.545100 0.000000
3.573500 0.000000
3.602000 0.000000
3.630500 0.000000
3.659000 0.000000
3.687400 0.000000
3.715900 0.000000
3.744400 0.000000
3.772900 0.000000
3.801300 0.000000
3.829800 0.000000
3.858300 0.000000
3.886700 0.000000
3.915200 0.000000
3.943700 0.000000
3.972200 0.000000
4.000600 0.000000
4.029100 0.000000
4.057600 0.000000
4.086000 0.000000
4.114500 0.000000
4.143000 0.000000
4.171500 0.000000
4.199900 0.000000
4.228400 0.000000
4.256900 0.000000
4.285300 0.000000
4.313800 0.000000
4.342300 0.000000
4.370800 0.000000
4.399200 0.000000
4.427700 0.000000
4.456200 0.000000
4.484600 0.000000
4.513100 0.000000
4.541600 0.000000
4.570100 0.000000
4.598500 0.000000
4.627000 0.000000
4.655500 0.000000
4.683900 0.000000
4.712400 0.000000
4.740900 0.000000
4.769400 0.000000
4.797800 0.000000
4.826300 0.000000
4.854800 0.000000
4.883200 0.000000
4.911700 0.000000
4.940200 0.000000
4.968700 0.000000
4.997100 0.000000
5.025600 0.000000
5.054100 0.000000
5.082500 0.000000
5.111000 0.000000
5.139500 0.000000
5.168000 0.000000
5.196400 0.000000
5.224900 0.000000
5.253400 0.000000
5.281900 0.000000
5.310300 0.000000
5.338800 0.000000
5.367300 0.000000
5.395700 0.000000
5.424200 0.000000
5.452700 0.000000
5.481200 0.000000
5.509600 0.000000
5.538100 0.000000
5.566600 0.000000
5.595000 0.000000
5.623500 0.000000
5.652000 0.000000
5.680500 0.000000
5.708900 0.000000
5.737400 0.000000
5.765900 0.000000
5.794300 0.000000
5.822800 0.000000
5.851300 0.000000
5.879800 0.000000
5.908200 0.000000
5.936700 0.000000
5.965200 0.000000
5.993600 0.000000
6.022100 0.000000
6.050600 0.000000
6.079100 0.000000
6.107500 0.000000
6.136000 0.000000
6.164500 0.000000
6.192900 0.000000
6.221400 0.000000
6.249900 0.000000
6.278400 0.000000
6.306800 0.000000
6.335300 0.000000
6.363800 0.000000
6.392200 0.000000
6.420700 0.000000
6.449200 0.000000
6.477700 0.000000
6.506100 0.000000
6.534600 0.000100
6.563100 0.001700
6.591500 0.004900
6.620000 0.009800
6.648500 0.098400
6.677000 0.170100
6.705400 0.258600
6.733900 0.364200
6.762400 0.491600
6.790900 0.705500
6.819300 0.965400
6.847800 1.421900
6.876300 2.042600
6.904700 2.748600
6.933200 3.361400
6.961700 3.518000
6.990200 3.245800
7.018600 2.951400
7.047100 2.537400
7.075600 2.258300
7.104000 2.127300
7.132500 2.021500
7.161000 1.929400
7.189500 1.851100
7.217900 1.789800
7.246400 1.897800
7.274900 1.864000
7.303300 1.840800
7.331800 1.825500
7.360300 1.809400
7.388800 1.791500
7.417200 1.771700
7.445700 1.785100
7.474200 1.813100
7.502600 1.912200
7.531100 2.432200
7.559600 2.469300
7.588100 2.442300
7.616500 2.327600
7.645000 2.710100
7.673500 2.588800
7.701900 1.130400
7.730400 0.739000
7.758900 0.930600
7.787400 1.178300
7.815800 1.224300
7.844300 1.326400
7.872800 1.468600
7.901200 1.656400
7.929700 1.886300
7.958200 2.673700
7.986700 3.673300
8.015100 4.358300
8.043600 5.400100
8.072100 6.467600
8.100500 13.782200
8.129000 7.811300
8.157500 6.302900
8.186000 5.721600
8.214400 5.248400
8.242900 4.796700
8.271400 4.110800
8.299800 3.415500
8.328300 2.929900
8.356800 2.614100
8.385300 2.570300
8.413700 2.895900
8.442200 3.262200
8.470700 3.419000
8.499200 3.381700
8.527600 3.270600
8.556100 3.195200
8.584600 3.114100
8.613000 3.036600
8.641500 2.946400
8.670000 2.919100
8.698500 2.865000
8.726900 2.746000
8.755400 2.690200
8.783900 2.670800
8.812300 2.664500
8.840800 2.670400
8.869300 2.692600
8.897800 2.727800
8.926200 2.818800
8.954700 2.975300
8.983200 3.203100
9.011600 4.357400
9.040100 4.942400
9.068600 3.940400
9.097100 4.153400
9.125500 4.514900
9.154000 4.940200
9.182500 5.383200
9.210900 5.385900
9.239400 4.570500
9.267900 4.379700
9.296400 3.686400
9.324800 3.360100
9.353300 3.075500
9.381800 3.009900
9.410200 3.649300
9.438700 4.980500
9.467200 4.628700
9.495700 4.707700
9.524100 5.273200
9.552600 6.480600
9.581100 7.577300
9.609500 7.605200
9.638000 6.379400
9.666500 4.730300
9.695000 3.933200
9.723400 3.456600
9.751900 2.718600
9.780400 2.109500
9.808800 1.715400
9.837300 1.524600
9.865800 1.429300
9.894300 1.422800
9.922700 1.571600
9.951200 1.821100
9.979700 1.650300
10.008200 1.786200
10.036600 1.715400
10.065100 1.459100
10.093600 1.506900
10.122000 1.732600
10.150500 2.080300
10.179000 2.612300
10.207500 3.251800
10.235900 3.593600
10.264400 3.921000
10.292900 4.154700
10.321300 3.649000
10.349800 3.255200
10.378300 2.927400
10.406800 2.649300
10.435200 2.422600
10.463700 2.269600
10.492200 2.165400
10.520600 2.056900
10.549100 1.993800
10.577600 2.411400
10.606100 2.286800
10.634500 2.201200
10.663000 2.110400
10.691500 2.444000
10.719900 2.875000
10.748400 3.749400
10.776900 4.943500
10.805400 6.260400
10.833800 7.378000
10.862300 7.197600
10.890800 6.536800
10.919200 5.996600
10.947700 5.084600
10.976200 4.802000
11.004700 4.427000
11.033100 2.689400
11.061600 1.431900
11.090100 0.877700
11.118500 0.110300
11.147000 0.040700
11.175500 0.005400
11.204000 0.000000
11.232400 0.026400
11.260900 0.229100
11.289400 0.588200
11.317800 1.092500
11.346300 2.057700
11.374800 3.887500
11.403300 3.716500
11.431700 5.285700
11.460200 7.163500
11.488700 8.129100
11.517200 7.632500
11.545600 5.209600
11.574100 4.196000
11.602600 4.065900
11.631000 4.728700
11.659500 5.692600
11.688000 6.807600
11.716500 6.809400
11.744900 6.128400
11.773400 5.811300
11.801900 5.436400
11.830300 4.723300
11.858800 4.661300
11.887300 4.750800
11.915800 5.672500
11.944200 5.754400
11.972700 4.723000
12.001200 3.873900
12.029600 3.186400
12.058100 2.798000
12.086600 2.442300
12.115100 2.233200
12.143500 1.704400
12.172000 1.872100
12.200500 2.212700
12.228900 2.692400
12.257400 3.331900
12.285900 4.982200
12.314400 5.752300
12.342800 7.619100
12.371300 6.632600
12.399800 6.485100
12.428200 7.120700
12.456700 6.839600
12.485200 6.793400
12.513700 2.398100
12.542100 1.648700
12.570600 1.092200
12.599100 0.714500
12.627500 0.444400
12.656000 0.232100
12.684500 0.107100
12.713000 0.084700
12.741400 0.146600
12.769900 0.273100
12.798400 0.608700
12.826800 1.206000
12.855300 1.865100
12.883800 2.551500
12.912300 2.747400
12.940700 3.023900
12.969200 3.420100
12.997700 4.272300
13.026100 3.959400
13.054600 3.557000
13.083100 3.081900
13.111600 2.780500
13.140000 2.596400
13.168500 2.414800
13.197000 2.249000
13.225500 2.131600
13.253900 2.105700
13.282400 2.739200
13.310900 3.074500
13.339300 2.608800
13.367800 2.318900
13.396300 2.180000
13.424800 2.080300
13.453200 1.977600
13.481700 1.870100
13.510200 1.581100
13.538600 1.529300
13.567100 1.508200
13.595600 1.487100
13.624100 1.467200
13.652500 1.451100
13.681000 1.445100
13.709500 1.462800
13.737900 1.502700
13.766400 1.563700
13.794900 1.568400
13.823400 1.527000
13.851800 1.443500
13.880300 1.372000
13.908800 1.313700
13.937200 1.268600
13.965700 1.236500
13.994200 1.217400
14.022700 1.210800
14.051100 1.209800
14.079600 1.207700
14.108100 1.206800
14.136500 1.200800
14.165000 1.194600
14.193500 1.188200
14.222000 1.181800
14.250400 1.142300
14.278900 1.132300
14.307400 1.122800
14.335800 1.114600
14.364300 1.108900
14.392800 1.105800
14.421300 1.105300
14.449700 1.104400
14.478200 1.092000
14.506700 1.085700
14.535100 1.088300
14.563600 1.094200
14.592100 1.100500
14.620600 1.107200
14.649000 1.115700
14.677500 1.125900
14.706000 1.034400
14.734500 1.055900
14.762900 1.081000
14.791400 1.152100
14.819900 1.282000
14.848300 1.470700
14.876800 1.713200
14.905300 2.023200
14.933800 2.090200
14.962200 2.237900
14.990700 2.348200
15.019200 2.641300
15.047600 3.019400
15.076100 4.546700
15.104600 3.073600
15.133100 2.933000
15.161500 2.931700
15.190000 2.909000
15.218500 2.827400
15.246900 2.704800
15.275400 2.579700
15.303900 2.453300
15.332400 2.327200
15.360800 2.234000
15.389300 2.161400
15.417800 2.120400
15.446200 2.192200
15.474700 2.201900
15.503200 2.259000
15.531700 2.357700
15.560100 2.491400
15.588600 3.097300
15.617100 2.518400
15.645500 2.269200
15.674000 1.742400
15.702500 1.677100
15.731000 1.643200
15.759400 1.655700
15.787900 1.601600
15.816400 1.508300
15.844800 1.369500
15.873300 1.134300
15.901800 0.912300
15.930300 0.708700
15.958700 0.493500
15.987200 0.271900
16.015700 0.209500
16.044100 0.190200
16.072600 0.187800
16.101100 0.196400
16.129600 0.216000
16.158000 0.246700
16.186500 0.286600
16.215000 0.319500
16.243500 0.341500
16.271900 0.362800
16.300400 0.383500
16.328900 0.403700
16.357300 0.423300
16.385800 0.442300
16.414300 0.460800
16.442800 0.478800
16.471200 0.496200
16.499700 0.513300
16.528200 0.531200
16.556600 0.550100
16.585100 0.570000
16.613600 0.590900
16.642100 0.770100
16.670500 0.856700
16.699000 0.935000
16.727500 1.005000
16.755900 1.066700
16.784400 1.120100
16.812900 1.165200
16.841400 1.202000
16.869800 1.233200
16.898300 1.244100
16.926800 1.240400
16.955200 1.236900
16.983700 1.233300
17.012200 1.230100
17.040700 1.225600
17.069100 1.239400
17.097600 1.246600
17.126100 1.247200
17.154500 1.241100
17.183000 1.236500
17.211500 1.242500
17.240000 1.265500
17.268400 1.297900
17.296900 1.336400
17.325400 1.380900
17.353800 1.431300
17.382300 1.678100
17.410800 1.757500
17.439300 1.850000
17.467700 1.867400
17.496200 1.805400
17.524700 2.215900
17.553100 2.080500
17.581600 1.937300
17.610100 1.925900
17.638600 1.960300
17.667000 2.015500
17.695500 2.068500
17.724000 2.116400
17.752400 2.147500
17.780900 2.198600
17.809400 2.267100
17.837900 2.332100
17.866300 2.380200
17.894800 2.411200
17.923300 2.435700
17.951800 2.480000
17.980200 2.556700
18.008700 2.678600
18.037200 2.827100
18.065600 2.666200
18.094100 2.615100
18.122600 2.594700
18.151100 2.573300
18.179500 2.552400
18.208000 2.603500
18.236500 2.664300
18.264900 2.733400
18.293400 2.813900
18.321900 3.021500
18.350400 2.766400
18.378800 2.622900
18.407300 2.388100
18.435800 2.233200
18.464200 2.213000
18.492700 2.200100
18.521200 2.192500
18.549700 2.188400
18.578100 2.190800
18.606600 2.198400
18.635100 2.209200
18.663500 2.117600
18.692000 2.010400
18.720500 2.010100
18.749000 2.053600
18.777400 2.270300
18.805900 2.389100
18.834400 2.461000
18.862800 2.517100
18.891300 2.557400
18.919800 2.581500
18.948300 2.648200
18.976700 2.589800
19.005200 2.521000
19.033700 2.312600
19.062100 2.223900
19.090600 2.152400
19.119100 2.088600
19.147600 2.033700
19.176000 1.986000
19.204500 1.945400
19.233000 1.911800
19.261400 1.883300
19.289900 1.740500
19.318400 1.556700
19.346900 1.478500
19.375300 1.467800
19.403800 1.382200
19.432300 1.203700
19.460800 1.098000
19.489200 0.994800
19.517700 0.899100
19.546200 0.848200
19.574600 0.854200
19.603100 0.917700
19.631600 1.039500
19.660100 1.267200
19.688500 1.416700
19.717000 1.511100
19.745500 1.595300
19.773900 1.669400
19.802400 1.731600
19.830900 1.722500
19.859400 1.535100
19.887800 1.530400
19.916300 1.511400
19.944800 1.511800
19.973200 1.529200
20.001700 1.587000
20.030200 1.631300
20.058700 1.706500
20.087100 1.788000
20.115600 1.875900
20.144100 1.968800
20.172500 2.074200
20.201000 2.285800
20.229500 2.496100
20.258000 2.698500
20.286400 2.890700
20.314900 3.066700
20.343400 3.236400
20.371800 3.338900
20.400300 3.487400
20.428800 3.428400
20.457300 2.996700
20.485700 2.634300
20.514200 2.417100
20.542700 2.276200
20.571100 2.210800
20.599600 2.178600
20.628100 2.174900
20.656600 2.176000
20.685000 2.176900
20.713500 2.180400
20.742000 2.218700
20.770400 2.242500
20.798900 2.166000
20.827400 2.225600
20.855900 2.295900
20.884300 2.563200
20.912800 2.660800
20.941300 2.742000
20.969800 2.800100
20.998200 2.853400
21.026700 3.116500
21.055200 3.128600
21.083600 3.101200
21.112100 3.093000
21.140600 3.073200
21.169100 3.061700
21.197500 3.052200
21.226000 3.043000
21.254500 2.955900
21.282900 2.902800
21.311400 2.926200
21.339900 2.901000
21.368400 3.165000
21.396800 2.963700
21.425300 2.708500
21.453800 2.387100
21.482200 1.987100
21.510700 1.956800
21.539200 1.927600
21.567700 1.897800
21.596100 1.867400
21.624600 1.836400
21.653100 1.804800
21.681500 1.772700
21.710000 1.739600
21.738500 1.708700
21.767000 1.726400
21.795400 1.757400
21.823900 1.737200
21.852400 1.692700
21.880800 1.676100
21.909300 1.656000
21.937800 1.634500
21.966300 1.614900
21.994700 1.594800
22.023200 1.569500
22.051700 1.580400
22.080100 1.661300
22.108600 1.785100
22.137100 1.894100
22.165600 1.976100
22.194000 2.031100
22.222500 2.129500
22.251000 2.295900
22.279400 2.588800
22.307900 2.885400
22.336400 3.143200
22.364900 3.376600
22.393300 3.614500
22.421800 3.863800
22.450300 4.099400
22.478700 4.113500
22.507200 3.944600
22.535700 3.296300
22.564200 2.706100
22.592600 2.400000
22.621100 1.834200
22.649600 1.739000
22.678100 1.651200
22.706500 1.571800
22.735000 1.501500
22.763500 1.442800
22.791900 2.021600
22.820400 1.874300
22.848900 1.937000
22.877400 2.015500
22.905800 2.097700
22.934300 2.182600
22.962800 2.280900
22.991200 2.412200
23.019700 2.559700
23.048200 2.700600
23.076700 2.836400
23.105100 2.993300
23.133600 3.406100
23.162100 3.625600
23.190500 3.416000
23.219000 2.935000
23.247500 2.570100
23.276000 2.380500
23.304400 2.291900
23.332900 2.217100
23.361400 2.155700
23.389800 2.112500
23.418300 2.052900
23.446800 1.974700
23.475300 2.115700
23.503700 2.021200
23.532200 1.969200
23.560700 1.927900
23.589100 1.896600
23.617600 1.875300
23.646100 1.863600
23.674600 1.866800
23.703000 1.841600
23.731500 1.807300
23.760000 1.857600
23.788400 1.976600
23.816900 2.382800
23.845400 2.257400
23.873900 2.265800
23.902300 2.285800
23.930800 2.304000
23.959300 2.306700
23.987700 2.279500
24.016200 2.234800
24.044700 2.182800
24.073200 2.543800
24.101600 2.344800
24.130100 2.246500
24.158600 2.169800
24.187100 2.116500
24.215500 2.141000
24.244000 2.237900
24.272500 2.179300
24.300900 2.090800
24.329400 1.974100
24.357900 1.926600
24.386400 1.816100
24.414800 1.813800
24.443300 1.812300
24.471800 1.808900
24.500200 1.805400
24.528700 1.803900
24.557200 1.807300
24.585700 1.757500
24.614100 1.717500
24.642600 1.704000
24.671100 1.724900
24.699500 1.818700
24.728000 1.937500
24.756500 1.995200
24.785000 2.080400
24.813400 2.084700
24.841900 2.090900
24.870400 2.100100
24.898800 2.114400
24.927300 2.145900
24.955800 2.188100
24.984300 2.223400
25.012700 2.281300
25.041200 2.382900
25.069700 2.542100
25.098100 2.756500
25.126600 3.079100
25.155100 3.557000
25.183600 3.526500
25.212000 3.402700
25.240500 3.396500
25.269000 3.298000
25.297400 3.152500
25.325900 2.963000
25.354400 2.771400
25.382900 2.664900
25.411300 2.560500
25.439800 2.421300
25.468300 2.276300
25.496700 2.158600
25.525200 2.073200
25.553700 1.996400
25.582200 1.926300
25.610600 1.862500
25.639100 1.804800
25.667600 1.758800
25.696000 1.733800
25.724500 1.730100
25.753000 1.749900
25.781500 1.849200
25.809900 2.016200
25.838400 2.196900
25.866900 2.424800
25.895400 2.814100
25.923800 3.232900
25.952300 3.756000
25.980800 4.353600
26.009200 4.589600
26.037700 4.365000
26.066200 3.748500
26.094700 3.411700
26.123100 3.193600
26.151600 2.969500
26.180100 2.745500
26.208500 2.505700
26.237000 2.314700
26.265500 2.179100
26.294000 2.069700
26.322400 1.968000
26.350900 2.028400
26.379400 2.134000
26.407800 2.308500
26.436300 2.495600
26.464800 2.595000
26.493300 2.633000
26.521700 2.642800
26.550200 2.624700
26.578700 2.611800
26.607100 2.643300
26.635600 2.637200
26.664100 2.572100
26.692600 2.630500
26.721000 2.630400
26.749500 2.582400
26.778000 2.532000
26.806400 2.462400
26.834900 2.433200
26.863400 2.444300
26.891900 2.452500
26.920300 2.419800
26.948800 2.323500
26.977300 2.174700
27.005700 2.046800
27.034200 1.937200
27.062700 1.848200
27.091200 1.771700
27.119600 1.712800
27.148100 1.671200
27.176600 1.647400
27.205000 1.656000
27.233500 1.671500
27.262000 1.691700
27.290500 1.868400
27.318900 2.655700
27.347400 2.801200
27.375900 2.893100
27.404400 3.073500
27.432800 3.094900
27.461300 3.070100
27.489800 3.042600
27.518200 3.024600
27.546700 2.947400
27.575200 2.874100
27.603700 2.875100
27.632100 2.914400
27.660600 2.999200
27.689100 3.185800
27.717500 3.365700
27.746000 3.453800
27.774500 4.015700
27.803000 3.301400
27.831400 3.252200
27.859900 3.188800
27.888400 3.082700
27.916800 2.956700
27.945300 2.823500
27.973800 2.692700
28.002300 2.589800
28.030700 2.568800
28.059200 2.487700
28.087700 2.401700
28.116100 2.356900
28.144600 2.215200
28.173100 2.186200
28.201600 2.211400
28.230000 2.209400
28.258500 2.533900
28.287000 2.673800
28.315400 2.577900
28.343900 2.475800
28.372400 2.401000
28.400900 2.369200
28.429300 2.360300
28.457800 2.345900
28.486300 2.324900
28.514700 2.297200
28.543200 2.278100
28.571700 2.265100
28.600200 2.250500
28.628600 2.210500
28.657100 2.135900
28.685600 2.049300
28.714000 1.987600
28.742500 2.025500
28.771000 2.067200
28.799500 2.085200
28.827900 2.492300
28.856400 2.299700
28.884900 2.375400
28.913400 2.442900
28.941800 2.519500
28.970300 2.646700
28.998800 2.748900
29.027200 2.804500
29.055700 2.817900
29.084200 2.845000
29.112700 2.906700
29.141100 3.421300
29.169600 3.164500
29.198100 2.967100
29.226500 2.961400
29.255000 2.913600
29.283500 2.919200
29.312000 2.931600
29.340400 2.942700
29.368900 2.952700
29.397400 3.016900
29.425800 3.068400
29.454300 3.082500
29.482800 3.081000
29.511300 3.083600
29.539700 2.912200
29.568200 2.704600
29.596700 2.819200
29.625100 2.945300
29.653600 2.972800
29.682100 3.004300
29.710600 2.951700
29.739000 3.032900
29.767500 3.121600
29.796000 3.246400
29.824400 3.328800
29.852900 3.378300
29.881400 3.376400
29.909900 3.325900
29.938300 3.225600
29.966800 3.111100
29.995300 2.972400
30.023700 2.842500
30.052200 2.752000
30.080700 2.688800
30.109200 2.487900
30.137600 2.423400
30.166100 2.377100
30.194600 2.336300
30.223000 2.294300
30.251500 2.258800
30.280000 2.230400
30.308500 2.195900
30.336900 2.152000
30.365400 2.099100
30.393900 2.040500
30.422300 1.983200
30.450800 1.938400
30.479300 2.002700
30.507800 2.045100
30.536200 2.592100
30.564700 3.028100
30.593200 3.000400
30.621700 2.608200
30.650100 2.325400
30.678600 2.360700
30.707100 2.408700
30.735500 2.456200
30.764000 2.493800
30.792500 2.482300
30.821000 2.437400
30.849400 2.371600
30.877900 2.348700
30.906400 2.376700
30.934800 2.319100
30.963300 2.074700
30.991800 1.810600
31.020300 1.586400
31.048700 1.370600
31.077200 1.166700
31.105700 1.000100
31.134100 0.855300
31.162600 0.719900
31.191100 0.593800
31.219600 0.477000
31.248000 0.369600
31.276500 0.271500
31.305000 0.183500
31.333400 0.123100
31.361900 0.054400
31.390400 0.020800
31.418900 0.017300
31.447300 0.015200
31.475800 0.013300
31.504300 0.011500
31.532700 0.009800
31.561200 0.008200
31.589700 0.006800
31.618200 0.005500
31.646600 0.004400
31.675100 0.003400
31.703600 0.002500
31.732000 0.001700
31.760500 0.001100
31.789000 0.000600
31.817500 0.000300
31.845900 0.000100
31.874400 0.000000
31.902900 0.000000
31.931300 0.000000
31.959800 0.000000
31.988300 0.000000
32.016800 0.000000
32.045200 0.000000
32.073700 0.000000
32.102200 0.000000
32.130700 0.000000
32.159100 0.000000
32.187600 0.000000
32.216100 0.000000
32.244500 0.000000
32.273000 0.000000
32.301500 0.000000
32.330000 0.000000
32.358400 0.000000
32.386900 0.000000
32.415400 0.000000
32.443800 0.000000
32.472300 0.000000
32.500800 0.000000
32.529300 0.000000
32.557700 0.000000
32.586200 0.000000
32.614700 0.000000
32.643100 0.000000
32.671600 0.000000
32.700100 0.000000
32.728600 0.000000
32.757000 0.000000
32.785500 0.000000
32.814000 0.000000
32.842400 0.000000
32.870900 0.000000
32.899400 0.000000
32.927900 0.000000
32.956300 0.000000
32.984800 0.000000
33.013300 0.000000
33.041700 0.000000
33.070200 0.000000
33.098700 0.000000
33.127200 0.000000
33.155600 0.000000
33.184100 0.000000
33.212600 0.000000
33.241000 0.000000
33.269500 0.000000
33.298000 0.000000
33.326500 0.000000
33.354900 0.000000
33.383400 0.000000
33.411900 0.000000
33.440300 0.000000
33.468800 0.000000
33.497300 0.000000
33.525800 0.000000
33.554200 0.000000
33.582700 0.000000
33.611200 0.000000
33.639700 0.000000
33.668100 0.000000
33.696600 0.000000
33.725100 0.000000
33.753500 0.000000
33.782000 0.000000
33.810500 0.000000
33.839000 0.000000
33.867400 0.000000
33.895900 0.000000
33.924400 0.000000
33.952800 0.000000
33.981300 0.000000
34.009800 0.000000
34.038300 0.000000
34.066700 0.000000
34.095200 0.000000
34.123700 0.000000
34.152100 0.000000
34.180600 0.000000
34.209100 0.000000
34.237600 0.000000
34.266000 0.000000
34.294500 0.000000
34.323000 0.000000
34.351400 0.000000
34.379900 0.000000
34.408400 0.000000
34.436900 0.000000
34.465300 0.000000
e
