set title 'mp-1178386 - Density of States'
set xlabel 'Energy (eV)'
set ylabel 'DOS (states/eV)'
set grid
set xrange [-10:10]
set yrange [0:230.634]
set xzeroaxis lt -1
set terminal png size 800,600
set output 'mp-1178386_dos_gnuplot.png'
plot '-' using 1:2 with lines title 'DOS'
-19.792600 0.000000
-19.776100 0.000000
-19.759600 0.000000
-19.743100 0.000000
-19.726700 0.000000
-19.710200 0.000000
-19.693700 0.000000
-19.677200 0.000000
-19.660700 0.000000
-19.644200 0.000000
-19.627800 0.000000
-19.611300 0.000000
-19.594800 0.000000
-19.578300 0.000000
-19.561800 0.000000
-19.545300 0.000000
-19.528800 0.000000
-19.512400 0.000000
-19.495900 0.000000
-19.479400 0.000000
-19.462900 0.000000
-19.446400 0.000000
-19.429900 0.000000
-19.413400 0.000000
-19.397000 0.000000
-19.380500 0.000000
-19.364000 0.000000
-19.347500 0.000000
-19.331000 0.000000
-19.314500 0.000000
-19.298100 0.000000
-19.281600 0.000000
-19.265100 0.000000
-19.248600 0.000000
-19.232100 0.000000
-19.215600 0.000000
-19.199100 0.000000
-19.182700 0.000000
-19.166200 0.000000
-19.149700 0.000000
-19.133200 0.000000
-19.116700 0.000000
-19.100200 0.000000
-19.083700 0.000000
-19.067300 0.000000
-19.050800 0.000000
-19.034300 0.000000
-19.017800 0.000000
-19.001300 0.000000
-18.984800 0.000000
-18.968400 0.000000
-18.951900 0.000000
-18.935400 0.000000
-18.918900 0.000000
-18.902400 0.000000
-18.885900 0.000000
-18.869400 0.000000
-18.853000 0.000000
-18.836500 0.000000
-18.820000 0.000000
-18.803500 0.000000
-18.787000 0.000000
-18.770500 0.000000
-18.754000 0.000000
-18.737600 0.000000
-18.721100 0.000000
-18.704600 0.000000
-18.688100 0.000000
-18.671600 0.000000
-18.655100 0.000000
-18.638700 0.000000
-18.622200 0.000000
-18.605700 0.000000
-18.589200 0.000000
-18.572700 0.000000
-18.556200 0.000000
-18.539700 0.000000
-18.523300 0.000000
-18.506800 0.000000
-18.490300 0.000000
-18.473800 0.000000
-18.457300 0.000000
-18.440800 0.000000
-18.424300 0.000000
-18.407900 0.000000
-18.391400 0.000000
-18.374900 0.000000
-18.358400 0.000000
-18.341900 0.000000
-18.325400 0.000000
-18.308900 0.000000
-18.292500 2235.105300
-18.276000 0.000000
-18.259500 0.000000
-18.243000 0.000000
-18.226500 0.000000
-18.210000 0.000000
-18.193600 0.000000
-18.177100 0.000000
-18.160600 0.000000
-18.144100 0.000000
-18.127600 0.000000
-18.111100 0.000000
-18.094600 0.000000
-18.078200 0.000000
-18.061700 0.000000
-18.045200 0.000000
-18.028700 0.000000
-18.012200 0.000000
-17.995700 0.000000
-17.979200 0.000000
-17.962800 0.000000
-17.946300 0.000000
-17.929800 0.000000
-17.913300 0.000000
-17.896800 0.000000
-17.880300 0.000000
-17.863900 0.000000
-17.847400 0.000000
-17.830900 0.000000
-17.814400 0.000000
-17.797900 0.000000
-17.781400 0.000000
-17.764900 0.000000
-17.748500 0.000000
-17.732000 0.000000
-17.715500 0.000000
-17.699000 0.000000
-17.682500 0.000000
-17.666000 0.000000
-17.649500 0.000000
-17.633100 0.000000
-17.616600 0.000000
-17.600100 0.000000
-17.583600 0.000000
-17.567100 0.000000
-17.550600 0.000000
-17.534200 0.000000
-17.517700 0.000000
-17.501200 0.000000
-17.484700 0.000000
-17.468200 0.000000
-17.451700 0.000000
-17.435200 0.000000
-17.418800 0.000000
-17.402300 0.000000
-17.385800 0.000000
-17.369300 0.000000
-17.352800 0.000000
-17.336300 0.000000
-17.319800 0.000000
-17.303400 0.000000
-17.286900 0.000000
-17.270400 0.000000
-17.253900 0.000000
-17.237400 0.000000
-17.220900 0.000000
-17.204500 0.000000
-17.188000 0.000000
-17.171500 0.000000
-17.155000 0.000000
-17.138500 0.000000
-17.122000 0.000000
-17.105500 0.000000
-17.089100 0.000000
-17.072600 0.000000
-17.056100 0.000000
-17.039600 0.000000
-17.023100 0.000000
-17.006600 0.000000
-16.990100 0.000000
-16.973700 0.000000
-16.957200 0.000000
-16.940700 0.000000
-16.924200 0.000000
-16.907700 0.000000
-16.891200 0.000000
-16.874800 0.000000
-16.858300 0.000000
-16.841800 0.000000
-16.825300 0.000000
-16.808800 0.000000
-16.792300 0.000000
-16.775800 0.000000
-16.759400 0.000000
-16.742900 0.000000
-16.726400 0.000000
-16.709900 0.000000
-16.693400 0.000000
-16.676900 0.000000
-16.660400 0.000000
-16.644000 0.000000
-16.627500 0.000000
-16.611000 0.000000
-16.594500 0.000000
-16.578000 0.000000
-16.561500 0.000000
-16.545100 0.000000
-16.528600 0.000000
-16.512100 0.000000
-16.495600 0.000000
-16.479100 0.000000
-16.462600 0.000000
-16.446100 0.000000
-16.429700 0.000000
-16.413200 0.000000
-16.396700 0.000000
-16.380200 0.000000
-16.363700 0.000000
-16.347200 0.000000
-16.330700 0.000000
-16.314300 0.000000
-16.297800 0.000000
-16.281300 0.000000
-16.264800 0.000000
-16.248300 0.000000
-16.231800 0.000000
-16.215300 0.000000
-16.198900 0.000000
-16.182400 0.000000
-16.165900 0.000000
-16.149400 0.000000
-16.132900 0.000000
-16.116400 0.000000
-16.100000 0.000000
-16.083500 0.000000
-16.067000 0.000000
-16.050500 0.000000
-16.034000 0.000000
-16.017500 0.000000
-16.001000 0.000000
-15.984600 0.000000
-15.968100 0.000000
-15.951600 0.000000
-15.935100 0.000000
-15.918600 0.000000
-15.902100 0.000000
-15.885600 0.000000
-15.869200 0.000000
-15.852700 0.000000
-15.836200 0.000000
-15.819700 0.000000
-15.803200 0.000000
-15.786700 0.000000
-15.770300 0.000000
-15.753800 0.000000
-15.737300 0.000000
-15.720800 0.000000
-15.704300 0.000000
-15.687800 0.000000
-15.671300 0.000000
-15.654900 0.000000
-15.638400 0.000000
-15.621900 0.000000
-15.605400 0.000000
-15.588900 0.000000
-15.572400 0.000000
-15.555900 0.000000
-15.539500 0.000000
-15.523000 0.000000
-15.506500 0.000000
-15.490000 0.000000
-15.473500 0.000000
-15.457000 0.000000
-15.440600 0.000000
-15.424100 0.000000
-15.407600 0.000000
-15.391100 0.000000
-15.374600 0.000000
-15.358100 0.000000
-15.341600 0.000000
-15.325200 0.000000
-15.308700 0.000000
-15.292200 0.000000
-15.275700 0.000000
-15.259200 0.000000
-15.242700 0.000000
-15.226200 0.000000
-15.209800 0.000000
-15.193300 0.000000
-15.176800 0.000000
-15.160300 0.000000
-15.143800 0.000000
-15.127300 0.000000
-15.110900 0.000000
-15.094400 0.000000
-15.077900 0.000000
-15.061400 0.000000
-15.044900 0.000000
-15.028400 0.000000
-15.011900 0.000000
-14.995500 0.000000
-14.979000 0.000000
-14.962500 0.000000
-14.946000 0.000000
-14.929500 0.000000
-14.913000 0.000000
-14.896500 0.000000
-14.880100 0.000000
-14.863600 0.000000
-14.847100 0.000000
-14.830600 0.000000
-14.814100 0.000000
-14.797600 0.000000
-14.781200 0.000000
-14.764700 0.000000
-14.748200 0.000000
-14.731700 0.000000
-14.715200 0.000000
-14.698700 0.000000
-14.682200 0.000000
-14.665800 0.000000
-14.649300 0.000000
-14.632800 0.000000
-14.616300 0.000000
-14.599800 0.000000
-14.583300 0.000000
-14.566800 0.000000
-14.550400 0.000000
-14.533900 0.000000
-14.517400 0.000000
-14.500900 0.000000
-14.484400 0.000000
-14.467900 0.000000
-14.451500 0.000000
-14.435000 0.000000
-14.418500 0.000000
-14.402000 0.000000
-14.385500 0.000000
-14.369000 0.000000
-14.352500 0.000000
-14.336100 0.000000
-14.319600 0.000000
-14.303100 0.000000
-14.286600 0.000000
-14.270100 0.000000
-14.253600 0.000000
-14.237100 0.000000
-14.220700 0.000000
-14.204200 0.000000
-14.187700 0.000000
-14.171200 0.000000
-14.154700 0.000000
-14.138200 0.000000
-14.121800 0.000000
-14.105300 0.000000
-14.088800 0.000000
-14.072300 0.000000
-14.055800 0.000000
-14.039300 0.000000
-14.022800 0.000000
-14.006400 0.000000
-13.989900 0.000000
-13.973400 0.000000
-13.956900 0.000000
-13.940400 0.000000
-13.923900 0.000000
-13.907400 0.000000
-13.891000 0.000000
-13.874500 0.000000
-13.858000 0.000000
-13.841500 0.000000
-13.825000 0.000000
-13.808500 0.000000
-13.792000 0.000000
-13.775600 0.000000
-13.759100 0.000000
-13.742600 0.000000
-13.726100 0.000000
-13.709600 0.000000
-13.693100 0.000000
-13.676700 0.000000
-13.660200 0.000000
-13.643700 0.000000
-13.627200 0.000000
-13.610700 0.000000
-13.594200 0.000000
-13.577700 0.000000
-13.561300 0.000000
-13.544800 0.000000
-13.528300 0.000000
-13.511800 0.000000
-13.495300 0.000000
-13.478800 0.000000
-13.462300 0.000000
-13.445900 0.000000
-13.429400 0.000000
-13.412900 0.000000
-13.396400 0.000000
-13.379900 0.000000
-13.363400 0.000000
-13.347000 0.000000
-13.330500 0.000000
-13.314000 0.000000
-13.297500 0.000000
-13.281000 0.000000
-13.264500 0.000000
-13.248000 0.000000
-13.231600 0.000000
-13.215100 0.000000
-13.198600 0.000000
-13.182100 0.000000
-13.165600 0.000000
-13.149100 0.000000
-13.132600 0.000000
-13.116200 0.000000
-13.099700 0.000000
-13.083200 0.000000
-13.066700 0.000000
-13.050200 0.000000
-13.033700 0.000000
-13.017300 0.000000
-13.000800 0.000000
-12.984300 0.000000
-12.967800 0.000000
-12.951300 0.000000
-12.934800 0.000000
-12.918300 0.000000
-12.901900 0.000000
-12.885400 0.000000
-12.868900 0.000000
-12.852400 0.000000
-12.835900 0.000000
-12.819400 0.000000
-12.802900 0.000000
-12.786500 0.000000
-12.770000 0.000000
-12.753500 0.000000
-12.737000 0.000000
-12.720500 0.000000
-12.704000 0.000000
-12.687600 0.000000
-12.671100 0.000000
-12.654600 0.000000
-12.638100 0.000000
-12.621600 0.000000
-12.605100 0.000000
-12.588600 0.000000
-12.572200 0.000000
-12.555700 0.000000
-12.539200 0.000000
-12.522700 0.000000
-12.506200 0.000000
-12.489700 0.000000
-12.473200 0.000000
-12.456800 0.000000
-12.440300 0.000000
-12.423800 0.000000
-12.407300 0.000000
-12.390800 0.000000
-12.374300 0.000000
-12.357900 0.000000
-12.341400 0.000000
-12.324900 0.000000
-12.308400 0.000000
-12.291900 0.000000
-12.275400 0.000000
-12.258900 0.000000
-12.242500 0.000000
-12.226000 0.000000
-12.209500 0.000000
-12.193000 0.000000
-12.176500 0.000000
-12.160000 0.000000
-12.143500 0.000000
-12.127100 0.000000
-12.110600 0.000000
-12.094100 0.000000
-12.077600 0.000000
-12.061100 0.000000
-12.044600 0.000000
-12.028200 0.000000
-12.011700 0.000000
-11.995200 0.000000
-11.978700 0.000000
-11.962200 0.000000
-11.945700 0.000000
-11.929200 0.000000
-11.912800 0.000000
-11.896300 0.000000
-11.879800 0.000000
-11.863300 0.000000
-11.846800 0.000000
-11.830300 0.000000
-11.813800 0.000000
-11.797400 0.000000
-11.780900 0.000000
-11.764400 0.000000
-11.747900 0.000000
-11.731400 0.000000
-11.714900 0.000000
-11.698400 0.000000
-11.682000 0.000000
-11.665500 0.000000
-11.649000 0.000000
-11.632500 0.000000
-11.616000 0.000000
-11.599500 0.000000
-11.583100 0.000000
-11.566600 0.000000
-11.550100 0.000000
-11.533600 0.000000
-11.517100 0.000000
-11.500600 0.000000
-11.484100 0.000000
-11.467700 0.000000
-11.451200 0.000000
-11.434700 0.000000
-11.418200 0.000000
-11.401700 0.000000
-11.385200 0.000000
-11.368700 0.000000
-11.352300 0.000000
-11.335800 0.000000
-11.319300 0.000000
-11.302800 0.000000
-11.286300 0.000000
-11.269800 0.000000
-11.253400 0.000000
-11.236900 0.000000
-11.220400 0.000000
-11.203900 0.000000
-11.187400 0.000000
-11.170900 0.000000
-11.154400 0.000000
-11.138000 0.000000
-11.121500 0.000000
-11.105000 0.000000
-11.088500 0.000000
-11.072000 0.000000
-11.055500 0.000000
-11.039000 0.000000
-11.022600 0.000000
-11.006100 0.000000
-10.989600 0.000000
-10.973100 0.000000
-10.956600 0.000000
-10.940100 0.000000
-10.923700 0.000000
-10.907200 0.000000
-10.890700 0.000000
-10.874200 0.000000
-10.857700 0.000000
-10.841200 0.000000
-10.824700 0.000000
-10.808300 0.000000
-10.791800 0.000000
-10.775300 0.000000
-10.758800 0.000000
-10.742300 0.000000
-10.725800 0.000000
-10.709300 0.000000
-10.692900 0.000000
-10.676400 0.000000
-10.659900 0.000000
-10.643400 0.000000
-10.626900 0.000000
-10.610400 0.000000
-10.594000 0.000000
-10.577500 0.000000
-10.561000 0.000000
-10.544500 0.000000
-10.528000 0.000000
-10.511500 0.000000
-10.495000 0.000000
-10.478600 0.000000
-10.462100 0.000000
-10.445600 0.000000
-10.429100 0.000000
-10.412600 0.000000
-10.396100 0.000000
-10.379600 0.000000
-10.363200 0.000000
-10.346700 0.000000
-10.330200 0.000000
-10.313700 0.000000
-10.297200 0.000000
-10.280700 0.000000
-10.264300 0.000000
-10.247800 0.000000
-10.231300 0.000000
-10.214800 0.000000
-10.198300 0.000000
-10.181800 0.000000
-10.165300 0.000000
-10.148900 0.000000
-10.132400 0.000000
-10.115900 0.000000
-10.099400 0.000000
-10.082900 0.000000
-10.066400 0.000000
-10.049900 0.000000
-10.033500 0.000000
-10.017000 0.000000
-10.000500 0.000000
-9.984000 0.000000
-9.967500 0.000000
-9.951000 0.000000
-9.934600 0.000000
-9.918100 0.000000
-9.901600 0.000000
-9.885100 0.000000
-9.868600 0.000000
-9.852100 0.000000
-9.835600 0.000000
-9.819200 0.000000
-9.802700 0.000000
-9.786200 0.000000
-9.769700 0.000000
-9.753200 0.000000
-9.736700 0.000000
-9.720200 0.000000
-9.703800 0.000000
-9.687300 0.000000
-9.670800 0.000000
-9.654300 0.000000
-9.637800 0.000000
-9.621300 0.000000
-9.604800 0.000000
-9.588400 0.000000
-9.571900 0.000000
-9.555400 0.000000
-9.538900 0.000000
-9.522400 0.000000
-9.505900 0.000000
-9.489500 0.000000
-9.473000 0.000000
-9.456500 0.000000
-9.440000 0.000000
-9.423500 0.000000
-9.407000 0.000000
-9.390500 0.000000
-9.374100 0.000000
-9.357600 0.000000
-9.341100 0.000000
-9.324600 0.000000
-9.308100 0.000000
-9.291600 0.114600
-9.275100 0.510400
-9.258700 1.189000
-9.242200 2.448400
-9.225700 3.751100
-9.209200 5.066300
-9.192700 6.288900
-9.176200 7.183700
-9.159800 7.530300
-9.143300 7.895200
-9.126800 8.472300
-9.110300 10.160800
-9.093800 11.847100
-9.077300 13.279100
-9.060800 14.456900
-9.044400 17.787300
-9.027900 15.807600
-9.011400 13.687400
-8.994900 11.910800
-8.978400 8.747300
-8.961900 9.585100
-8.945400 11.677400
-8.929000 11.510900
-8.912500 10.307600
-8.896000 9.092000
-8.879500 7.422500
-8.863000 5.865200
-8.846500 4.458200
-8.830100 3.543000
-8.813600 3.299800
-8.797100 2.062600
-8.780600 2.915200
-8.764100 3.762600
-8.747600 4.604800
-8.731100 5.441700
-8.714700 6.273400
-8.698200 7.099800
-8.681700 15.707800
-8.665200 16.282500
-8.648700 16.571700
-8.632200 13.931200
-8.615700 7.638500
-8.599300 6.209800
-8.582800 4.766400
-8.566300 3.308200
-8.549800 1.835300
-8.533300 0.843100
-8.516800 8.115300
-8.500400 29.149200
-8.483900 42.754700
-8.467400 11.501200
-8.450900 4.147100
-8.434400 3.447300
-8.417900 2.812100
-8.401400 2.241500
-8.385000 1.735600
-8.368500 1.294300
-8.352000 0.917600
-8.335500 0.605500
-8.319000 9.180900
-8.302500 11.494900
-8.286000 5.063300
-8.269600 5.424900
-8.253100 5.836800
-8.236600 6.252400
-8.220100 6.668100
-8.203600 7.084000
-8.187100 7.500200
-8.170700 17.591700
-8.154200 22.265600
-8.137700 17.696400
-8.121200 19.178200
-8.104700 19.122300
-8.088200 19.110100
-8.071700 17.654700
-8.055300 16.316600
-8.038800 14.709100
-8.022300 13.427100
-8.005800 3.362700
-7.989300 0.000000
-7.972800 0.000000
-7.956300 0.000000
-7.939900 0.000000
-7.923400 0.293400
-7.906900 1.314400
-7.890400 2.474600
-7.873900 3.774100
-7.857400 5.212800
-7.841000 12.252500
-7.824500 14.135400
-7.808000 10.146100
-7.791500 9.264900
-7.775000 8.114500
-7.758500 7.244800
-7.742000 8.243900
-7.725600 9.366600
-7.709100 10.612900
-7.692600 13.761900
-7.676100 14.472600
-7.659600 11.769900
-7.643100 11.153500
-7.626600 11.283500
-7.610200 8.596100
-7.593700 7.785300
-7.577200 6.960400
-7.560700 6.121300
-7.544200 5.589600
-7.527700 5.533400
-7.511200 5.441400
-7.494800 5.278000
-7.478300 5.043100
-7.461800 4.736700
-7.445300 4.358900
-7.428800 2.679200
-7.412300 1.559900
-7.395900 1.222400
-7.379400 2.775200
-7.362900 5.060200
-7.346400 7.740500
-7.329900 21.232700
-7.313400 8.112200
-7.296900 7.418900
-7.280500 6.668500
-7.264000 5.859300
-7.247500 4.974000
-7.231000 5.630700
-7.214500 7.406000
-7.198000 9.299800
-7.181500 10.770000
-7.165100 13.358500
-7.148600 12.733200
-7.132100 11.988600
-7.115600 11.124600
-7.099100 10.141300
-7.082600 6.585700
-7.066200 6.326800
-7.049700 6.055300
-7.033200 5.771300
-7.016700 4.943500
-7.000200 3.820300
-6.983700 3.256300
-6.967200 3.047100
-6.950800 3.026200
-6.934300 3.025300
-6.917800 3.012100
-6.901300 2.986400
-6.884800 2.948500
-6.868300 2.898100
-6.851800 2.835400
-6.835400 2.760300
-6.818900 2.672900
-6.802400 2.573100
-6.785900 2.461000
-6.769400 2.336500
-6.752900 2.199600
-6.736500 2.050400
-6.720000 1.808600
-6.703500 1.463200
-6.687000 1.112300
-6.670500 0.756000
-6.654000 0.394300
-6.637500 0.027100
-6.621100 0.054400
-6.604600 0.270400
-6.588100 0.651100
-6.571600 1.196300
-6.555100 1.906200
-6.538600 2.982200
-6.522100 6.747800
-6.505700 8.670200
-6.489200 11.309100
-6.472700 13.747800
-6.456200 15.716000
-6.439700 16.817100
-6.423200 17.051100
-6.406800 16.485800
-6.390300 15.841900
-6.373800 15.725900
-6.357300 20.202300
-6.340800 17.545600
-6.324300 15.191500
-6.307800 9.584300
-6.291400 10.175700
-6.274900 10.867400
-6.258400 33.184100
-6.241900 3.547300
-6.225400 3.740200
-6.208900 4.008900
-6.192400 4.353300
-6.176000 4.773400
-6.159500 7.138900
-6.143000 7.445400
-6.126500 7.439300
-6.110000 7.433500
-6.093500 7.427900
-6.077100 7.422500
-6.060600 7.417300
-6.044100 7.412300
-6.027600 7.407500
-6.011100 7.402900
-5.994600 7.398400
-5.978100 7.394200
-5.961700 7.390200
-5.945200 7.386400
-5.928700 7.382700
-5.912200 18.032700
-5.895700 14.842100
-5.879200 15.635400
-5.862700 16.249700
-5.846300 9.996800
-5.829800 8.462400
-5.813300 7.944400
-5.796800 8.605900
-5.780300 10.118300
-5.763800 13.050400
-5.747400 17.078900
-5.730900 19.891200
-5.714400 31.268000
-5.697900 34.031700
-5.681400 25.156400
-5.664900 24.630100
-5.648400 32.848200
-5.632000 12.444200
-5.615500 7.061100
-5.599000 4.801700
-5.582500 2.890600
-5.566000 1.327700
-5.549500 0.113200
-5.533000 0.000000
-5.516600 0.000000
-5.500100 0.000000
-5.483600 0.000000
-5.467100 0.000000
-5.450600 0.000000
-5.434100 0.000000
-5.417600 0.000000
-5.401200 0.000000
-5.384700 0.000000
-5.368200 0.000000
-5.351700 0.000000
-5.335200 0.000000
-5.318700 0.000000
-5.302300 0.000000
-5.285800 0.000000
-5.269300 0.000000
-5.252800 0.000000
-5.236300 0.000000
-5.219800 0.000000
-5.203300 13.602100
-5.186900 134.528200
-5.170400 118.557100
-5.153900 140.420100
-5.137400 74.729400
-5.120900 110.860500
-5.104400 74.606400
-5.087900 122.229800
-5.071500 59.727800
-5.055000 170.836800
-5.038500 83.348500
-5.022000 53.945500
-5.005500 55.182700
-4.989000 0.000000
-4.972600 0.000000
-4.956100 0.000000
-4.939600 0.000000
-4.923100 0.000000
-4.906600 0.000000
-4.890100 0.000000
-4.873600 0.000000
-4.857200 0.000000
-4.840700 0.000000
-4.824200 0.000000
-4.807700 0.000000
-4.791200 0.000000
-4.774700 0.000000
-4.758200 0.000000
-4.741800 0.000000
-4.725300 0.000000
-4.708800 0.000000
-4.692300 0.000000
-4.675800 0.000000
-4.659300 0.000000
-4.642900 0.000000
-4.626400 0.000000
-4.609900 0.000000
-4.593400 0.000000
-4.576900 0.000000
-4.560400 0.000000
-4.543900 0.000000
-4.527500 0.000000
-4.511000 0.000000
-4.494500 0.000000
-4.478000 0.000000
-4.461500 0.000000
-4.445000 0.000000
-4.428500 0.000000
-4.412100 0.000000
-4.395600 0.000000
-4.379100 0.000000
-4.362600 0.000000
-4.346100 0.000000
-4.329600 0.000000
-4.313200 0.000000
-4.296700 0.000000
-4.280200 0.000000
-4.263700 0.000000
-4.247200 0.000000
-4.230700 0.000000
-4.214200 0.000000
-4.197800 0.000000
-4.181300 0.000000
-4.164800 0.000000
-4.148300 0.000000
-4.131800 0.000000
-4.115300 0.000000
-4.098800 0.000000
-4.082400 0.000000
-4.065900 0.000000
-4.049400 0.000000
-4.032900 0.000000
-4.016400 0.000000
-3.999900 0.000000
-3.983500 0.000000
-3.967000 0.000000
-3.950500 0.000000
-3.934000 0.000000
-3.917500 0.000000
-3.901000 0.000000
-3.884500 0.000000
-3.868100 0.000000
-3.851600 0.000000
-3.835100 0.000000
-3.818600 0.000000
-3.802100 0.000000
-3.785600 0.000000
-3.769100 0.000000
-3.752700 0.000000
-3.736200 0.000000
-3.719700 0.000000
-3.703200 0.000000
-3.686700 0.000000
-3.670200 0.000000
-3.653800 0.000000
-3.637300 0.000000
-3.620800 0.000000
-3.604300 0.000000
-3.587800 0.000000
-3.571300 0.000000
-3.554800 0.000000
-3.538400 0.000000
-3.521900 0.000000
-3.505400 0.000000
-3.488900 0.000000
-3.472400 0.000000
-3.455900 0.000000
-3.439400 0.000000
-3.423000 0.000000
-3.406500 0.000000
-3.390000 0.000000
-3.373500 0.000000
-3.357000 0.000000
-3.340500 0.000000
-3.324000 0.000000
-3.307600 0.000000
-3.291100 0.000000
-3.274600 0.000000
-3.258100 0.000000
-3.241600 0.000000
-3.225100 0.000000
-3.208700 0.000000
-3.192200 0.000000
-3.175700 0.000000
-3.159200 0.000000
-3.142700 0.000000
-3.126200 0.000000
-3.109700 0.000000
-3.093300 0.000000
-3.076800 0.000000
-3.060300 0.000000
-3.043800 0.000000
-3.027300 0.000000
-3.010800 0.000000
-2.994300 0.000000
-2.977900 0.000000
-2.961400 0.000000
-2.944900 0.000000
-2.928400 0.000000
-2.911900 0.000000
-2.895400 0.000000
-2.879000 0.000000
-2.862500 0.000000
-2.846000 0.000000
-2.829500 0.000000
-2.813000 0.000000
-2.796500 0.000000
-2.780000 0.000000
-2.763600 0.000000
-2.747100 0.000000
-2.730600 0.000000
-2.714100 0.000000
-2.697600 0.000000
-2.681100 0.000000
-2.664600 0.000000
-2.648200 0.000000
-2.631700 0.000000
-2.615200 0.000000
-2.598700 0.000000
-2.582200 0.000000
-2.565700 0.000000
-2.549300 0.000000
-2.532800 0.000000
-2.516300 0.000000
-2.499800 0.000000
-2.483300 0.000000
-2.466800 0.000000
-2.450300 0.000000
-2.433900 0.000000
-2.417400 0.000000
-2.400900 0.000000
-2.384400 0.000000
-2.367900 0.000000
-2.351400 0.000000
-2.334900 0.000000
-2.318500 0.000000
-2.302000 0.000000
-2.285500 0.000000
-2.269000 0.000000
-2.252500 0.000000
-2.236000 0.000000
-2.219600 0.000000
-2.203100 0.000000
-2.186600 0.000000
-2.170100 0.000000
-2.153600 0.000000
-2.137100 0.000000
-2.120600 0.000000
-2.104200 0.000000
-2.087700 0.000000
-2.071200 0.000000
-2.054700 0.000000
-2.038200 0.000000
-2.021700 0.000000
-2.005200 0.000000
-1.988800 0.000000
-1.972300 0.000000
-1.955800 0.000000
-1.939300 0.000000
-1.922800 0.000000
-1.906300 0.000000
-1.889900 0.000000
-1.873400 0.000000
-1.856900 0.000000
-1.840400 0.000000
-1.823900 0.000000
-1.807400 0.000000
-1.790900 0.000000
-1.774500 0.000000
-1.758000 0.000000
-1.741500 0.000000
-1.725000 0.000000
-1.708500 0.000000
-1.692000 0.000000
-1.675500 0.000000
-1.659100 0.000000
-1.642600 0.000000
-1.626100 0.000000
-1.609600 0.000000
-1.593100 0.000000
-1.576600 0.000000
-1.560200 0.000000
-1.543700 0.000000
-1.527200 0.000000
-1.510700 0.000000
-1.494200 0.000000
-1.477700 0.000000
-1.461200 0.000000
-1.444800 0.000000
-1.428300 0.000000
-1.411800 0.000000
-1.395300 0.000000
-1.378800 0.000000
-1.362300 0.000000
-1.345800 0.000000
-1.329400 0.000000
-1.312900 0.000000
-1.296400 0.000000
-1.279900 0.000000
-1.263400 0.000000
-1.246900 0.021200
-1.230500 2.123000
-1.214000 6.178400
-1.197500 6.552100
-1.181000 7.107200
-1.164500 8.384400
-1.148000 9.711500
-1.131500 11.034200
-1.115100 12.352500
-1.098600 13.073300
-1.082100 13.103300
-1.065600 13.103900
-1.049100 13.075000
-1.032600 13.016500
-1.016100 8.039300
-0.999700 10.666400
-0.983200 10.322800
-0.966700 10.076400
-0.950200 9.927100
-0.933700 13.255700
-0.917200 12.028900
-0.900700 10.847600
-0.884300 9.739000
-0.867800 5.610700
-0.851300 6.191200
-0.834800 6.830000
-0.818300 7.650100
-0.801800 15.132700
-0.785400 17.534700
-0.768900 13.094400
-0.752400 15.256500
-0.735900 24.955500
-0.719400 19.778100
-0.702900 17.628800
-0.686400 16.248500
-0.670000 14.690200
-0.653500 12.856500
-0.637000 10.779100
-0.620500 8.994400
-0.604000 7.699900
-0.587500 4.406000
-0.571000 5.433200
-0.554600 8.613100
-0.538100 209.667100
-0.521600 27.186200
-0.505100 14.714500
-0.488600 10.259300
-0.472100 8.576000
-0.455700 7.986600
-0.439200 29.584000
-0.422700 35.640700
-0.406200 27.421800
-0.389700 23.759900
-0.373200 15.408300
-0.356700 20.166600
-0.340300 25.195900
-0.323800 30.110200
-0.307300 23.383100
-0.290800 20.733900
-0.274300 21.523900
-0.257800 10.815300
-0.241300 9.012900
-0.224900 7.881800
-0.208400 7.353900
-0.191900 6.889500
-0.175400 6.372200
-0.158900 5.802200
-0.142400 5.179500
-0.126000 1.468300
-0.109500 0.280100
-0.093000 0.000000
-0.076500 11.211300
-0.060000 14.381100
-0.043500 16.458900
-0.027000 16.588900
-0.010600 16.355300
0.005900 11.844100
0.022400 7.300700
0.038900 5.820000
0.055400 56.140600
0.071900 32.530200
0.088400 25.708100
0.104800 17.190000
0.121300 9.478800
0.137800 4.907000
0.154300 1.736200
0.170800 0.013300
0.187300 0.003300
0.203700 0.326800
0.220200 1.178500
0.236700 2.558400
0.253200 4.466500
0.269700 15.188400
0.286200 29.541600
0.302700 29.995600
0.319100 30.991900
0.335600 12.304300
0.352100 7.049100
0.368600 6.623100
0.385100 7.693700
0.401600 9.352300
0.418100 10.200600
0.434500 10.513700
0.451000 10.730100
0.467500 11.104700
0.484000 11.643100
0.500500 15.287600
0.517000 14.499500
0.533400 13.618800
0.549900 8.398300
0.566400 6.410000
0.582900 5.051400
0.599400 5.445900
0.615900 5.591100
0.632400 5.976400
0.648800 6.636200
0.665300 10.191700
0.681800 11.881300
0.698300 13.494700
0.714800 15.031800
0.731300 15.570900
0.747800 15.467600
0.764200 15.295200
0.780700 13.372500
0.797200 12.624900
0.813700 11.841800
0.830200 11.023200
0.846700 13.268400
0.863100 11.716400
0.879600 10.430700
0.896100 9.120100
0.912600 1.676500
0.929100 0.000000
0.945600 0.000000
0.962100 0.000000
0.978500 0.000000
0.995000 0.000000
1.011500 0.000000
1.028000 0.000000
1.044500 13.020900
1.061000 20.890900
1.077500 17.427900
1.093900 19.858400
1.110400 15.590600
1.126900 16.423000
1.143400 17.393900
1.159900 17.546400
1.176400 17.749600
1.192900 18.821500
1.209300 28.841300
1.225800 24.033700
1.242300 5.547300
1.258800 4.119800
1.275300 2.904200
1.291800 1.900600
1.308200 8.535000
1.324700 11.456000
1.341200 9.449800
1.357700 10.324100
1.374200 11.161600
1.390700 11.882000
1.407200 13.301800
1.423600 14.985400
1.440100 16.534100
1.456600 18.109400
1.473100 17.541800
1.489600 21.047900
1.506100 40.192300
1.522600 34.926700
1.539000 21.391300
1.555500 15.759000
1.572000 14.491500
1.588500 16.736800
1.605000 18.281700
1.621500 19.162100
1.637900 22.334800
1.654400 28.968000
1.670900 27.311700
1.687400 18.545500
1.703900 24.304200
1.720400 20.570900
1.736900 20.932200
1.753300 17.575000
1.769800 18.805800
1.786300 22.179800
1.802800 20.291800
1.819300 22.168900
1.835800 21.003700
1.852300 17.784400
1.868700 18.849700
1.885200 20.882300
1.901700 24.168400
1.918200 24.284000
1.934700 21.096200
1.951200 17.222100
1.967600 30.160600
1.984100 21.525600
2.000600 21.060100
2.017100 21.775000
2.033600 15.798000
2.050100 13.643000
2.066600 14.755500
2.083000 19.741700
2.099500 17.998300
2.116000 18.128800
2.132500 18.243500
2.149000 13.801300
2.165500 9.256400
2.182000 6.869300
2.198400 8.720700
2.214900 11.094000
2.231400 13.742700
2.247900 54.542000
2.264400 12.349200
2.280900 12.267600
2.297300 12.183600
2.313800 12.097200
2.330300 12.008400
2.346800 18.009500
2.363300 20.684000
2.379800 23.266400
2.396300 18.765700
2.412700 19.414600
2.429200 23.080300
2.445700 24.228900
2.462200 25.176400
2.478700 19.503200
2.495200 15.255400
2.511700 15.299000
2.528100 15.262600
2.544600 15.169400
2.561100 15.019400
2.577600 14.849900
2.594100 14.694100
2.610600 14.530000
2.627000 14.369400
2.643500 17.345500
2.660000 21.877400
2.676500 22.286000
2.693000 20.947500
2.709500 18.258400
2.726000 16.843400
2.742400 14.749700
2.758900 12.452200
2.775400 9.371700
2.791900 8.988200
2.808400 13.039900
2.824900 16.313600
2.841400 20.225600
2.857800 24.776000
2.874300 21.236500
2.890800 21.325400
2.907300 21.388000
2.923800 24.708800
2.940300 24.992800
2.956700 26.487900
2.973200 24.984200
2.989700 16.420600
3.006200 13.113400
3.022700 9.692200
3.039200 9.535700
3.055700 14.595700
3.072100 15.776700
3.088600 21.116900
3.105100 23.532400
3.121600 23.189200
3.138100 24.169200
3.154600 19.607000
3.171100 15.947500
3.187500 12.515200
3.204000 11.210300
3.220500 10.041300
3.237000 7.017000
3.253500 6.488500
3.270000 5.967000
3.286500 5.452600
3.302900 4.945300
3.319400 4.445100
3.335900 3.951900
3.352400 3.481800
3.368900 3.092000
3.385400 2.712300
3.401800 2.282800
3.418300 1.884500
3.434800 1.517300
3.451300 1.181300
3.467800 0.876500
3.484300 0.602800
3.500800 0.360300
3.517200 0.149000
3.533700 0.000000
3.550200 0.000000
3.566700 0.000000
3.583200 0.000000
3.599700 0.000000
3.616200 0.000000
3.632600 0.000000
3.649100 0.000000
3.665600 0.000000
3.682100 0.000000
3.698600 0.000000
3.715100 0.000000
3.731500 0.000000
3.748000 0.000000
3.764500 0.000000
3.781000 0.000000
3.797500 0.000000
3.814000 0.000000
3.830500 0.000000
3.846900 0.000000
3.863400 0.000000
3.879900 0.000000
3.896400 0.000000
3.912900 0.000000
3.929400 0.000000
3.945900 0.000000
3.962300 0.000000
3.978800 0.000000
3.995300 0.000000
4.011800 0.000000
4.028300 0.000000
4.044800 0.000000
4.061200 0.000000
4.077700 0.000000
4.094200 0.000000
4.110700 0.000000
4.127200 0.000000
4.143700 0.000000
4.160200 0.057100
4.176600 0.729300
4.193100 1.761000
4.209600 3.152100
4.226100 4.902700
4.242600 7.564400
4.259100 8.242800
4.275600 8.474600
4.292000 10.185700
4.308500 11.690100
4.325000 12.642600
4.341500 13.203100
4.358000 13.571700
4.374500 15.734200
4.390900 14.936200
4.407400 14.027300
4.423900 13.073400
4.440400 12.108000
4.456900 5.275800
4.473400 5.953200
4.489900 6.722000
4.506300 7.592500
4.522800 8.564700
4.539300 9.638600
4.555800 11.613300
4.572300 27.681400
4.588800 16.417900
4.605300 12.685200
4.621700 11.626800
4.638200 12.071200
4.654700 17.297000
4.671200 18.133300
4.687700 18.565500
4.704200 14.633300
4.720600 15.424300
4.737100 16.917500
4.753600 17.147000
4.770100 27.241000
4.786600 29.496300
4.803100 9.116000
4.819600 4.286400
4.836000 8.311100
4.852500 13.415100
4.869000 23.820700
4.885500 30.902200
4.902000 37.854100
4.918500 32.856500
4.935000 36.167300
4.951400 26.018400
4.967900 14.382500
4.984400 5.327300
5.000900 0.000000
5.017400 0.003700
5.033900 31.888300
5.050300 28.818500
5.066800 24.163600
5.083300 14.912000
5.099800 12.434700
5.116300 10.380900
5.132800 8.750600
5.149300 10.782800
5.165700 14.506000
5.182200 15.564900
5.198700 16.458600
5.215200 12.616700
5.231700 9.794700
5.248200 25.432200
5.264700 13.681800
5.281100 13.079400
5.297600 12.780700
5.314100 12.785500
5.330600 13.438700
5.347100 13.327100
5.363600 13.467900
5.380100 16.210200
5.396500 18.507400
5.413000 19.675500
5.429500 21.774500
5.446000 18.606200
5.462500 16.760100
5.479000 15.624600
5.495400 15.199800
5.511900 15.485700
5.528400 13.888600
5.544900 15.651800
5.561400 17.044700
5.577900 19.306800
5.594400 23.083000
5.610800 29.849000
5.627300 28.708400
5.643800 28.410700
5.660300 15.403500
5.676800 13.960200
5.693300 11.586900
5.709800 23.787800
5.726200 0.919200
5.742700 1.306400
5.759200 1.753100
5.775700 2.259300
5.792200 2.817600
5.808700 3.408600
5.825100 4.031200
5.841600 4.685300
5.858100 5.371000
5.874600 6.107400
5.891100 7.117800
5.907600 8.466000
5.924100 10.318800
5.940500 14.010100
5.957000 19.926400
5.973500 28.495500
5.990000 16.423400
6.006500 18.088900
6.023000 18.268200
6.039500 21.265700
6.055900 17.163500
6.072400 5.728300
6.088900 0.000000
6.105400 0.000000
6.121900 0.000000
6.138400 0.000000
6.154800 0.000000
6.171300 0.000000
6.187800 0.000000
6.204300 0.000000
6.220800 0.000000
6.237300 0.000000
6.253800 0.000000
6.270200 0.000000
6.286700 0.000000
6.303200 0.000000
6.319700 0.000000
6.336200 0.000000
6.352700 0.000000
6.369200 0.000000
6.385600 0.000000
6.402100 0.000000
6.418600 0.000000
6.435100 0.000000
6.451600 0.000000
6.468100 0.000000
6.484500 0.000000
6.501000 0.000000
6.517500 0.000000
6.534000 0.000000
6.550500 0.000000
6.567000 0.000000
6.583500 0.000000
6.599900 0.000000
6.616400 0.000000
6.632900 0.000000
6.649400 0.000000
6.665900 0.000000
6.682400 0.000000
6.698900 0.000000
6.715300 0.003800
6.731800 0.023800
6.748300 0.061000
6.764800 0.115500
6.781300 0.187100
6.797800 0.276000
6.814200 0.382200
6.830700 0.505500
6.847200 0.646100
6.863700 0.803900
6.880200 0.978900
6.896700 1.171100
6.913200 1.380600
6.929600 1.607200
6.946100 1.851100
6.962600 2.112300
6.979100 2.390600
6.995600 2.686200
7.012100 4.453800
7.028600 12.915400
7.045000 40.499900
7.061500 22.548800
7.078000 12.626100
7.094500 10.241700
7.111000 8.988800
7.127500 17.385800
7.143900 28.905300
7.160400 35.905100
7.176900 13.687200
7.193400 3.232300
7.209900 1.200400
7.226400 2.791200
7.242900 13.030100
7.259300 48.823200
7.275800 20.079800
7.292300 18.614200
7.308800 16.543300
7.325300 14.953700
7.341800 55.935800
7.358300 48.241800
7.374700 9.459200
7.391200 2.716900
7.407700 3.961900
7.424200 9.359000
7.440700 10.940700
7.457200 12.552500
7.473700 13.661500
7.490100 15.378800
7.506600 17.072100
7.523100 18.741300
7.539600 23.642800
7.556100 13.785200
7.572600 15.701600
7.589000 17.433800
7.605500 19.084700
7.622000 27.412900
7.638500 6.519800
7.655000 5.655800
7.671500 6.054700
7.688000 9.964700
7.704400 10.670800
7.720900 11.635600
7.737400 12.859200
7.753900 10.991700
7.770400 13.754100
7.786900 16.041500
7.803400 18.305700
7.819800 20.534300
7.836300 22.407300
7.852800 25.406100
7.869300 24.545900
7.885800 23.223900
7.902300 22.649200
7.918700 22.202600
7.935200 21.150700
7.951700 15.830600
7.968200 16.521400
7.984700 17.208600
8.001200 15.490400
8.017700 6.550000
8.034100 8.871200
8.050600 15.000900
8.067100 19.234400
8.083600 25.694100
8.100100 21.747500
8.116600 17.204500
8.133100 24.899100
8.149500 25.583000
8.166000 19.060400
8.182500 17.841700
8.199000 18.560500
8.215500 23.954300
8.232000 28.782300
8.248400 36.562000
8.264900 31.335600
8.281400 22.078000
8.297900 42.441400
8.314400 36.753000
8.330900 28.219700
8.347400 17.690000
8.363800 22.527600
8.380300 23.781500
8.396800 24.653300
8.413300 25.201900
8.429800 26.829400
8.446300 30.756200
8.462800 23.319600
8.479200 26.098400
8.495700 30.978400
8.512200 30.125900
8.528700 27.799600
8.545200 21.220000
8.561700 19.589500
8.578100 18.404800
8.594600 17.711400
8.611100 17.509300
8.627600 18.093900
8.644100 18.605600
8.660600 20.935700
8.677100 39.308600
8.693500 37.218200
8.710000 31.709300
8.726500 21.373900
8.743000 9.619000
8.759500 9.751300
8.776000 10.464400
8.792500 11.391700
8.808900 12.513100
8.825400 72.024300
8.841900 16.243000
8.858400 17.214300
8.874900 18.426300
8.891400 19.833100
8.907800 24.086200
8.924300 24.182600
8.940800 24.691100
8.957300 24.520500
8.973800 22.816600
8.990300 19.684500
9.006800 20.543900
9.023200 27.143300
9.039700 31.419800
9.056200 30.595900
9.072700 25.319800
9.089200 20.358300
9.105700 20.046000
9.122200 20.250200
9.138600 17.843800
9.155100 11.994800
9.171600 10.561200
9.188100 22.331300
9.204600 32.874700
9.221100 33.035300
9.237500 35.304500
9.254000 36.216600
9.270500 25.255600
9.287000 27.845500
9.303500 14.217500
9.320000 19.722900
9.336500 21.688200
9.352900 26.247300
9.369400 32.847600
9.385900 33.167200
9.402400 28.303300
9.418900 25.586900
9.435400 37.756800
9.451900 34.412400
9.468300 7.181900
9.484800 7.616500
9.501300 11.579500
9.517800 45.328900
9.534300 37.928800
9.550800 30.572000
9.567200 23.038700
9.583700 16.249800
9.600200 15.832400
9.616700 18.558900
9.633200 25.529500
9.649700 31.387200
9.666200 31.744700
9.682600 30.816500
9.699100 27.158600
9.715600 26.617200
9.732100 29.931200
9.748600 29.277500
9.765100 18.032700
9.781600 13.983400
9.798000 10.538300
9.814500 2.177400
9.831000 3.356200
9.847500 9.066700
9.864000 15.178000
9.880500 20.915900
9.897000 23.044300
9.913400 24.616600
9.929900 24.117300
9.946400 24.293100
9.962900 33.311300
9.979400 24.760600
9.995900 13.937600
10.012300 15.768800
10.028800 15.567700
10.045300 15.356600
10.061800 15.135500
10.078300 14.988400
10.094800 15.139700
10.111300 16.324700
10.127700 13.657600
10.144200 15.594300
10.160700 30.987500
10.177200 18.759000
10.193700 19.225100
10.210200 20.003800
10.226700 43.358900
10.243100 30.386900
10.259600 19.131700
10.276100 11.442500
10.292600 12.240200
10.309100 14.041300
10.325600 18.262200
10.342000 21.891700
10.358500 30.022700
10.375000 33.422200
10.391500 15.496600
10.408000 15.662000
10.424500 16.420100
10.441000 17.640900
10.457400 22.831000
10.473900 12.917200
10.490400 17.976000
10.506900 32.347100
10.523400 53.894300
10.539900 22.873800
10.556400 22.521000
10.572800 24.665700
10.589300 24.188900
10.605800 24.646500
10.622300 22.651800
10.638800 20.763600
10.655300 18.986700
10.671700 17.389700
10.688200 15.851900
10.704700 32.100900
10.721200 8.967200
10.737700 9.916800
10.754200 12.501900
10.770700 14.670000
10.787100 15.722600
10.803600 15.487600
10.820100 34.103700
10.836600 30.324600
10.853100 28.924900
10.869600 20.849800
10.886100 19.605100
10.902500 18.576200
10.919000 15.483500
10.935500 12.051800
10.952000 13.928500
10.968500 48.346300
10.985000 30.889000
11.001400 9.826900
11.017900 14.240800
11.034400 16.760000
11.050900 26.265000
11.067400 22.664500
11.083900 21.511300
11.100400 20.531700
11.116800 19.734300
11.133300 18.880900
11.149800 17.856300
11.166300 14.918000
11.182800 14.380100
11.199300 13.829300
11.215800 13.663500
11.232200 13.661200
11.248700 13.906400
11.265200 18.025600
11.281700 18.802400
11.298200 18.256000
11.314700 18.503800
11.331100 18.361800
11.347600 18.766200
11.364100 29.418000
11.380600 26.332700
11.397100 16.657100
11.413600 17.800900
11.430100 19.183800
11.446500 26.348900
11.463000 23.734100
11.479500 18.310100
11.496000 22.825600
11.512500 23.935400
11.529000 21.087200
11.545500 17.007900
11.561900 10.098100
11.578400 6.334000
11.594900 8.039900
11.611400 9.842000
11.627900 11.337400
11.644400 17.635700
11.660800 15.840000
11.677300 0.676300
11.693800 0.000000
11.710300 0.000000
11.726800 0.000000
11.743300 0.000000
11.759800 0.000000
11.776200 0.000000
11.792700 0.000000
11.809200 0.000000
11.825700 0.000000
11.842200 0.000000
11.858700 0.000000
11.875200 0.000000
11.891600 0.000000
11.908100 0.000000
11.924600 0.000000
11.941100 0.000000
11.957600 0.000000
11.974100 0.000000
11.990600 0.000000
12.007000 0.000000
12.023500 0.000000
12.040000 0.000000
12.056500 0.000000
12.073000 0.000000
12.089500 0.000000
12.105900 0.000000
12.122400 0.000000
12.138900 0.000000
12.155400 0.000000
12.171900 0.000000
12.188400 0.000000
12.204900 0.000000
12.221300 0.000000
12.237800 0.000000
12.254300 0.000000
12.270800 0.000000
12.287300 0.000000
12.303800 0.000000
12.320300 0.000000
12.336700 0.000000
12.353200 0.000000
12.369700 0.000000
12.386200 0.000000
12.402700 0.000000
12.419200 0.000000
12.435600 0.000000
12.452100 0.000000
12.468600 0.000000
12.485100 0.000000
12.501600 0.000000
12.518100 0.000000
12.534600 0.000000
12.551000 0.000000
12.567500 0.000000
12.584000 0.000000
12.600500 0.000000
12.617000 0.000000
12.633500 0.000000
12.650000 0.000000
12.666400 0.000000
12.682900 0.000000
12.699400 0.000000
12.715900 0.000000
12.732400 0.000000
12.748900 0.000000
12.765300 0.000000
12.781800 0.000000
12.798300 0.000000
12.814800 0.000000
12.831300 0.000000
12.847800 0.000000
12.864300 0.000000
12.880700 0.000000
12.897200 0.000000
12.913700 0.000000
12.930200 0.000000
12.946700 0.000000
12.963200 0.000000
12.979700 0.000000
12.996100 0.000000
13.012600 0.000000
13.029100 0.000000
13.045600 0.000000
13.062100 0.000000
13.078600 0.000000
13.095000 0.000000
13.111500 0.000000
13.128000 0.000000
13.144500 0.000000
13.161000 0.000000
13.177500 0.000000
e
