set title 'mp-559374 - Density of States'
set xlabel 'Energy (eV)'
set ylabel 'DOS (states/eV)'
set grid
set xrange [-10:10]
set yrange [0:19.823]
set xzeroaxis lt -1
set terminal png size 800,600
set output 'mp-559374_dos_gnuplot.png'
plot '-' using 1:2 with lines title 'DOS'
-36.087800 0.000000
-36.050700 0.000000
-36.013700 0.000000
-35.976600 0.000000
-35.939600 0.000000
-35.902500 0.000000
-35.865500 0.000000
-35.828400 0.000000
-35.791400 0.000000
-35.754300 0.000000
-35.717300 0.000000
-35.680200 0.000000
-35.643200 0.000000
-35.606100 0.000000
-35.569000 0.000000
-35.532000 0.000000
-35.494900 0.000000
-35.457900 0.000000
-35.420800 0.000000
-35.383800 0.000000
-35.346700 0.000000
-35.309700 0.000000
-35.272600 0.000000
-35.235600 0.000000
-35.198500 0.000000
-35.161500 0.000000
-35.124400 0.000000
-35.087400 0.000000
-35.050300 0.000000
-35.013300 0.000000
-34.976200 0.000000
-34.939100 0.000000
-34.902100 0.000000
-34.865000 0.000000
-34.828000 0.000000
-34.790900 0.000000
-34.753900 0.000000
-34.716800 0.000000
-34.679800 0.000000
-34.642700 0.000000
-34.605700 0.000000
-34.568600 0.000000
-34.531600 0.000000
-34.494500 0.000000
-34.457500 0.000000
-34.420400 0.000000
-34.383400 0.000000
-34.346300 0.000000
-34.309200 0.000000
-34.272200 0.000000
-34.235100 0.000000
-34.198100 0.000000
-34.161000 0.000000
-34.124000 0.000000
-34.086900 0.000000
-34.049900 0.000000
-34.012800 0.000000
-33.975800 0.000000
-33.938700 0.000000
-33.901700 0.000000
-33.864600 0.000000
-33.827600 0.000000
-33.790500 0.000000
-33.753400 0.000000
-33.716400 0.000000
-33.679300 0.000000
-33.642300 0.000000
-33.605200 0.000000
-33.568200 0.000000
-33.531100 0.000000
-33.494100 0.000000
-33.457000 0.000000
-33.420000 0.000000
-33.382900 0.000000
-33.345900 0.000000
-33.308800 0.000000
-33.271800 0.000000
-33.234700 0.000000
-33.197700 0.000000
-33.160600 0.000000
-33.123500 0.000000
-33.086500 0.000000
-33.049400 0.000000
-33.012400 0.000000
-32.975300 0.000000
-32.938300 0.000000
-32.901200 0.000000
-32.864200 0.000000
-32.827100 0.000000
-32.790100 0.000000
-32.753000 0.000000
-32.716000 13.541000
-32.678900 7.751300
-32.641900 6.658400
-32.604800 10.141200
-32.567700 73.039300
-32.530700 7.253200
-32.493600 6.706500
-32.456600 14.615200
-32.419500 0.000000
-32.382500 0.000000
-32.345400 0.000000
-32.308400 0.000000
-32.271300 0.000000
-32.234300 0.000000
-32.197200 0.000000
-32.160200 0.000000
-32.123100 0.000000
-32.086100 0.000000
-32.049000 0.000000
-32.012000 0.000000
-31.974900 0.000000
-31.937800 0.000000
-31.900800 0.000000
-31.863700 0.000000
-31.826700 0.000000
-31.789600 0.000000
-31.752600 0.000000
-31.715500 0.000000
-31.678500 0.000000
-31.641400 0.000000
-31.604400 0.000000
-31.567300 0.000000
-31.530300 0.000000
-31.493200 0.000000
-31.456200 0.000000
-31.419100 0.000000
-31.382100 0.000000
-31.345000 0.000000
-31.307900 0.000000
-31.270900 0.000000
-31.233800 0.000000
-31.196800 0.000000
-31.159700 0.000000
-31.122700 0.000000
-31.085600 0.000000
-31.048600 0.000000
-31.011500 0.000000
-30.974500 0.000000
-30.937400 0.000000
-30.900400 0.000000
-30.863300 0.000000
-30.826300 0.000000
-30.789200 0.000000
-30.752100 0.000000
-30.715100 0.000000
-30.678000 0.000000
-30.641000 0.000000
-30.603900 0.000000
-30.566900 0.000000
-30.529800 0.000000
-30.492800 0.000000
-30.455700 0.000000
-30.418700 0.000000
-30.381600 0.000000
-30.344600 0.000000
-30.307500 0.000000
-30.270500 0.000000
-30.233400 0.000000
-30.196400 0.000000
-30.159300 0.000000
-30.122200 0.000000
-30.085200 0.000000
-30.048100 0.000000
-30.011100 0.000000
-29.974000 0.000000
-29.937000 0.000000
-29.899900 0.000000
-29.862900 0.000000
-29.825800 0.000000
-29.788800 0.000000
-29.751700 0.000000
-29.714700 0.000000
-29.677600 0.000000
-29.640600 0.000000
-29.603500 0.000000
-29.566400 0.000000
-29.529400 0.000000
-29.492300 0.000000
-29.455300 0.000000
-29.418200 0.000000
-29.381200 0.000000
-29.344100 0.000000
-29.307100 0.000000
-29.270000 0.000000
-29.233000 0.000000
-29.195900 0.000000
-29.158900 0.000000
-29.121800 0.000000
-29.084800 0.000000
-29.047700 0.000000
-29.010700 0.000000
-28.973600 0.000000
-28.936500 0.000000
-28.899500 0.000000
-28.862400 0.000000
-28.825400 0.000000
-28.788300 0.000000
-28.751300 0.000000
-28.714200 0.000000
-28.677200 0.000000
-28.640100 0.000000
-28.603100 0.000000
-28.566000 0.000000
-28.529000 0.000000
-28.491900 0.000000
-28.454900 0.000000
-28.417800 0.000000
-28.380800 0.000000
-28.343700 0.000000
-28.306600 0.000000
-28.269600 0.000000
-28.232500 0.000000
-28.195500 0.000000
-28.158400 0.000000
-28.121400 0.000000
-28.084300 0.000000
-28.047300 0.000000
-28.010200 0.000000
-27.973200 0.000000
-27.936100 0.000000
-27.899100 0.000000
-27.862000 0.000000
-27.825000 0.000000
-27.787900 0.000000
-27.750800 0.000000
-27.713800 0.000000
-27.676700 0.000000
-27.639700 0.000000
-27.602600 0.000000
-27.565600 0.000000
-27.528500 0.000000
-27.491500 0.000000
-27.454400 0.000000
-27.417400 0.000000
-27.380300 0.000000
-27.343300 0.000000
-27.306200 0.000000
-27.269200 0.000000
-27.232100 0.000000
-27.195100 0.000000
-27.158000 0.000000
-27.120900 0.000000
-27.083900 0.000000
-27.046800 0.000000
-27.009800 0.000000
-26.972700 0.000000
-26.935700 0.000000
-26.898600 0.000000
-26.861600 0.000000
-26.824500 0.000000
-26.787500 0.000000
-26.750400 0.000000
-26.713400 0.000000
-26.676300 0.000000
-26.639300 0.000000
-26.602200 0.000000
-26.565100 0.000000
-26.528100 0.000000
-26.491000 0.000000
-26.454000 0.000000
-26.416900 0.000000
-26.379900 0.000000
-26.342800 0.000000
-26.305800 0.000000
-26.268700 0.000000
-26.231700 0.000000
-26.194600 0.000000
-26.157600 0.000000
-26.120500 0.000000
-26.083500 0.000000
-26.046400 0.000000
-26.009400 0.000000
-25.972300 0.000000
-25.935200 0.000000
-25.898200 0.000000
-25.861100 0.000000
-25.824100 0.000000
-25.787000 0.000000
-25.750000 0.000000
-25.712900 0.000000
-25.675900 0.000000
-25.638800 0.000000
-25.601800 0.000000
-25.564700 0.000000
-25.527700 0.000000
-25.490600 0.000000
-25.453600 0.000000
-25.416500 0.000000
-25.379500 0.000000
-25.342400 0.000000
-25.305300 0.000000
-25.268300 0.000000
-25.231200 0.000000
-25.194200 0.000000
-25.157100 0.000000
-25.120100 0.000000
-25.083000 0.000000
-25.046000 0.000000
-25.008900 0.000000
-24.971900 0.000000
-24.934800 0.000000
-24.897800 0.000000
-24.860700 0.000000
-24.823700 0.000000
-24.786600 0.000000
-24.749500 0.000000
-24.712500 0.000000
-24.675400 0.000000
-24.638400 0.000000
-24.601300 0.000000
-24.564300 0.000000
-24.527200 0.000000
-24.490200 0.000000
-24.453100 0.000000
-24.416100 0.000000
-24.379000 0.000000
-24.342000 0.000000
-24.304900 0.000000
-24.267900 0.000000
-24.230800 0.000000
-24.193800 0.000000
-24.156700 0.000000
-24.119600 0.000000
-24.082600 0.000000
-24.045500 0.000000
-24.008500 0.000000
-23.971400 0.000000
-23.934400 0.000000
-23.897300 0.000000
-23.860300 0.000000
-23.823200 0.000000
-23.786200 0.000000
-23.749100 0.000000
-23.712100 0.000000
-23.675000 0.000000
-23.638000 0.000000
-23.600900 0.000000
-23.563800 0.000000
-23.526800 0.000000
-23.489700 0.000000
-23.452700 0.000000
-23.415600 0.000000
-23.378600 0.000000
-23.341500 0.000000
-23.304500 0.000000
-23.267400 0.000000
-23.230400 0.000000
-23.193300 0.000000
-23.156300 0.000000
-23.119200 0.000000
-23.082200 0.000000
-23.045100 0.000000
-23.008100 0.000000
-22.971000 0.000000
-22.933900 0.000000
-22.896900 0.000000
-22.859800 0.000000
-22.822800 0.000000
-22.785700 0.000000
-22.748700 0.000000
-22.711600 0.000000
-22.674600 0.000000
-22.637500 0.000000
-22.600500 0.000000
-22.563400 0.000000
-22.526400 0.000000
-22.489300 0.000000
-22.452300 0.000000
-22.415200 0.000000
-22.378200 0.000000
-22.341100 0.000000
-22.304000 0.000000
-22.267000 0.000000
-22.229900 0.000000
-22.192900 0.000000
-22.155800 0.000000
-22.118800 0.000000
-22.081700 0.000000
-22.044700 0.000000
-22.007600 0.000000
-21.970600 0.000000
-21.933500 0.000000
-21.896500 0.000000
-21.859400 0.000000
-21.822400 0.000000
-21.785300 0.000000
-21.748200 0.000000
-21.711200 0.000000
-21.674100 0.000000
-21.637100 0.000000
-21.600000 0.000000
-21.563000 0.000000
-21.525900 0.000000
-21.488900 0.000000
-21.451800 0.000000
-21.414800 0.000000
-21.377700 0.000000
-21.340700 0.000000
-21.303600 0.000000
-21.266600 0.000000
-21.229500 0.000000
-21.192500 0.000000
-21.155400 0.000000
-21.118300 0.000000
-21.081300 0.000000
-21.044200 0.000000
-21.007200 0.000000
-20.970100 0.000000
-20.933100 0.000000
-20.896000 0.000000
-20.859000 0.000000
-20.821900 0.000000
-20.784900 0.000000
-20.747800 0.000000
-20.710800 0.000000
-20.673700 0.000000
-20.636700 0.000000
-20.599600 0.000000
-20.562500 0.000000
-20.525500 0.000000
-20.488400 0.000000
-20.451400 0.000000
-20.414300 0.000000
-20.377300 0.000000
-20.340200 0.000000
-20.303200 0.000000
-20.266100 0.000000
-20.229100 0.000000
-20.192000 0.000000
-20.155000 0.000000
-20.117900 0.000000
-20.080900 0.000000
-20.043800 0.000000
-20.006800 0.000000
-19.969700 0.000000
-19.932600 0.000000
-19.895600 0.000000
-19.858500 0.000000
-19.821500 0.000000
-19.784400 0.000000
-19.747400 0.000000
-19.710300 0.000000
-19.673300 0.000000
-19.636200 0.000000
-19.599200 0.000000
-19.562100 0.000000
-19.525100 0.000000
-19.488000 0.000000
-19.451000 0.000000
-19.413900 0.000000
-19.376900 0.000000
-19.339800 0.000000
-19.302700 0.000000
-19.265700 0.000000
-19.228600 0.000000
-19.191600 0.000000
-19.154500 0.000000
-19.117500 0.000000
-19.080400 0.000000
-19.043400 0.000000
-19.006300 0.000000
-18.969300 0.000000
-18.932200 0.000000
-18.895200 0.000000
-18.858100 0.000000
-18.821100 0.000000
-18.784000 0.000000
-18.746900 0.000000
-18.709900 0.000000
-18.672800 0.000000
-18.635800 0.000000
-18.598700 0.000000
-18.561700 0.000000
-18.524600 0.000000
-18.487600 0.000000
-18.450500 0.000000
-18.413500 0.000000
-18.376400 0.000000
-18.339400 0.000000
-18.302300 0.000000
-18.265300 0.000000
-18.228200 0.000000
-18.191200 0.000000
-18.154100 0.000000
-18.117000 0.000000
-18.080000 0.000000
-18.042900 0.000000
-18.005900 0.000000
-17.968800 0.000000
-17.931800 0.000000
-17.894700 0.000000
-17.857700 0.000000
-17.820600 0.000000
-17.783600 0.000000
-17.746500 0.000000
-17.709500 0.000000
-17.672400 0.000000
-17.635400 0.000000
-17.598300 0.000000
-17.561200 0.000000
-17.524200 0.000000
-17.487100 0.000000
-17.450100 0.000000
-17.413000 0.000000
-17.376000 0.000000
-17.338900 0.000000
-17.301900 0.000000
-17.264800 0.000000
-17.227800 0.000000
-17.190700 0.000000
-17.153700 0.000000
-17.116600 0.000000
-17.079600 0.000000
-17.042500 0.000000
-17.005500 0.000000
-16.968400 0.000000
-16.931300 0.000000
-16.894300 0.000000
-16.857200 0.000000
-16.820200 0.000000
-16.783100 0.000000
-16.746100 0.000000
-16.709000 0.000000
-16.672000 0.000000
-16.634900 0.000000
-16.597900 0.000000
-16.560800 0.000000
-16.523800 0.000000
-16.486700 0.000000
-16.449700 0.000000
-16.412600 0.000000
-16.375600 0.000000
-16.338500 0.000000
-16.301400 0.000000
-16.264400 0.000000
-16.227300 0.000000
-16.190300 0.000000
-16.153200 0.000000
-16.116200 0.000000
-16.079100 0.000000
-16.042100 0.000000
-16.005000 0.000000
-15.968000 0.000000
-15.930900 0.000000
-15.893900 0.000000
-15.856800 0.000000
-15.819800 0.000000
-15.782700 0.000000
-15.745600 0.000000
-15.708600 0.000000
-15.671500 0.000000
-15.634500 0.000000
-15.597400 0.000000
-15.560400 0.000000
-15.523300 0.000000
-15.486300 0.000000
-15.449200 0.000000
-15.412200 0.000000
-15.375100 0.000000
-15.338100 0.000000
-15.301000 0.000000
-15.264000 0.000000
-15.226900 0.000000
-15.189900 0.000000
-15.152800 0.000000
-15.115700 0.000000
-15.078700 0.000000
-15.041600 0.000000
-15.004600 0.000000
-14.967500 0.000000
-14.930500 0.000000
-14.893400 0.000000
-14.856400 0.000000
-14.819300 0.000000
-14.782300 0.000000
-14.745200 0.000000
-14.708200 0.000000
-14.671100 0.000000
-14.634100 0.000000
-14.597000 0.000000
-14.559900 0.000000
-14.522900 0.000000
-14.485800 0.000000
-14.448800 0.000000
-14.411700 0.000000
-14.374700 0.000000
-14.337600 0.000000
-14.300600 0.000000
-14.263500 0.000000
-14.226500 0.000000
-14.189400 0.000000
-14.152400 0.000000
-14.115300 0.000000
-14.078300 0.000000
-14.041200 0.000000
-14.004200 0.000000
-13.967100 0.000000
-13.930000 0.000000
-13.893000 0.000000
-13.855900 0.000000
-13.818900 0.000000
-13.781800 0.000000
-13.744800 0.000000
-13.707700 0.000000
-13.670700 0.000000
-13.633600 0.000000
-13.596600 0.000000
-13.559500 0.000000
-13.522500 0.000000
-13.485400 0.000000
-13.448400 0.000000
-13.411300 0.000000
-13.374300 0.000000
-13.337200 0.000000
-13.300100 0.000000
-13.263100 0.000000
-13.226000 0.000000
-13.189000 0.000000
-13.151900 0.000000
-13.114900 0.000000
-13.077800 0.000000
-13.040800 0.000000
-13.003700 0.000000
-12.966700 0.000000
-12.929600 0.000000
-12.892600 0.000000
-12.855500 0.000000
-12.818500 0.000000
-12.781400 0.000000
-12.744300 0.000000
-12.707300 0.000000
-12.670200 0.000000
-12.633200 0.004100
-12.596100 0.701800
-12.559100 2.773600
-12.522000 3.526300
-12.485000 2.807200
-12.447900 1.649800
-12.410900 1.543900
-12.373800 1.454900
-12.336800 1.372800
-12.299700 1.297400
-12.262700 1.228800
-12.225600 1.167000
-12.188600 1.112000
-12.151500 1.063800
-12.114400 1.022400
-12.077400 0.989100
-12.040300 0.969800
-12.003300 0.955700
-11.966200 0.944000
-11.929200 0.934600
-11.892100 0.927600
-11.855100 0.923000
-11.818000 0.920800
-11.781000 0.920900
-11.743900 0.923300
-11.706900 0.928200
-11.669800 0.935400
-11.632800 3.514700
-11.595700 11.328300
-11.558600 9.743100
-11.521600 6.256800
-11.484500 5.817500
-11.447500 5.462700
-11.410400 5.192500
-11.373400 5.006800
-11.336300 4.905800
-11.299300 4.910400
-11.262200 4.994400
-11.225200 5.121800
-11.188100 5.292300
-11.151100 5.402000
-11.114000 3.286800
-11.077000 3.353100
-11.039900 3.446000
-11.002900 3.654700
-10.965800 4.092600
-10.928700 4.738800
-10.891700 5.593300
-10.854600 6.656200
-10.817600 13.360600
-10.780500 0.000000
-10.743500 0.000000
-10.706400 0.000000
-10.669400 0.000000
-10.632300 0.000000
-10.595300 0.000000
-10.558200 0.000000
-10.521200 0.000000
-10.484100 0.000000
-10.447100 0.000000
-10.410000 0.000000
-10.373000 0.000000
-10.335900 0.000000
-10.298800 0.000000
-10.261800 0.000000
-10.224700 0.000000
-10.187700 0.000000
-10.150600 0.000000
-10.113600 0.000000
-10.076500 0.000000
-10.039500 0.000000
-10.002400 0.000000
-9.965400 0.000000
-9.928300 0.000000
-9.891300 0.000000
-9.854200 0.000000
-9.817200 0.000000
-9.780100 0.000000
-9.743000 0.000000
-9.706000 0.000000
-9.668900 0.000000
-9.631900 0.000000
-9.594800 0.000000
-9.557800 0.000000
-9.520700 0.000000
-9.483700 0.000000
-9.446600 0.000000
-9.409600 0.000000
-9.372500 0.000000
-9.335500 0.000000
-9.298400 0.000000
-9.261400 0.000000
-9.224300 0.000000
-9.187300 0.000000
-9.150200 0.000000
-9.113100 0.000000
-9.076100 0.000000
-9.039000 0.000000
-9.002000 0.000000
-8.964900 0.000000
-8.927900 0.000000
-8.890800 0.000000
-8.853800 0.000000
-8.816700 0.000000
-8.779700 0.000000
-8.742600 0.000000
-8.705600 0.000000
-8.668500 0.000000
-8.631500 0.000000
-8.594400 0.000000
-8.557300 0.000000
-8.520300 0.000000
-8.483200 0.000000
-8.446200 0.000000
-8.409100 0.000000
-8.372100 0.000000
-8.335000 0.000000
-8.298000 0.000000
-8.260900 0.000000
-8.223900 0.000000
-8.186800 0.000000
-8.149800 0.000000
-8.112700 0.000000
-8.075700 0.000000
-8.038600 0.000000
-8.001600 0.000000
-7.964500 0.000000
-7.927400 0.000000
-7.890400 0.000000
-7.853300 0.000000
-7.816300 0.000000
-7.779200 0.000000
-7.742200 0.000000
-7.705100 0.000000
-7.668100 0.000000
-7.631000 0.000000
-7.594000 0.000000
-7.556900 0.000000
-7.519900 0.000000
-7.482800 0.000000
-7.445800 0.000000
-7.408700 0.000000
-7.371700 0.000000
-7.334600 0.000000
-7.297500 0.000000
-7.260500 0.000000
-7.223400 0.000000
-7.186400 0.000000
-7.149300 0.000000
-7.112300 0.000000
-7.075200 0.000000
-7.038200 0.000000
-7.001100 0.000000
-6.964100 0.000000
-6.927000 0.000000
-6.890000 0.000000
-6.852900 0.000000
-6.815900 0.000000
-6.778800 0.000000
-6.741700 0.000000
-6.704700 0.000000
-6.667600 0.000000
-6.630600 0.000000
-6.593500 0.000000
-6.556500 0.000000
-6.519400 0.000000
-6.482400 0.000000
-6.445300 0.000000
-6.408300 0.000000
-6.371200 0.000000
-6.334200 0.000000
-6.297100 0.000000
-6.260100 0.000000
-6.223000 0.000000
-6.186000 0.000000
-6.148900 0.000000
-6.111800 0.000000
-6.074800 0.000000
-6.037700 0.000000
-6.000700 0.000000
-5.963600 0.000000
-5.926600 0.000000
-5.889500 0.000000
-5.852500 0.000000
-5.815400 0.000000
-5.778400 0.000000
-5.741300 0.000000
-5.704300 0.000000
-5.667200 0.000000
-5.630200 0.000000
-5.593100 0.000000
-5.556000 0.000000
-5.519000 0.000000
-5.481900 0.000000
-5.444900 0.000000
-5.407800 0.000000
-5.370800 0.000000
-5.333700 0.000000
-5.296700 0.000000
-5.259600 0.000000
-5.222600 0.000000
-5.185500 0.000000
-5.148500 0.000000
-5.111400 0.000000
-5.074400 0.000000
-5.037300 0.000000
-5.000300 0.000000
-4.963200 0.000000
-4.926100 0.000000
-4.889100 0.000000
-4.852000 0.000000
-4.815000 0.000000
-4.777900 0.000000
-4.740900 0.000000
-4.703800 0.000000
-4.666800 0.000000
-4.629700 0.000000
-4.592700 0.000000
-4.555600 0.000000
-4.518600 0.000000
-4.481500 0.000000
-4.444500 0.000000
-4.407400 0.000000
-4.370400 0.000000
-4.333300 0.000000
-4.296200 0.000000
-4.259200 0.000000
-4.222100 0.000000
-4.185100 0.000000
-4.148000 0.000000
-4.111000 0.000000
-4.073900 0.000000
-4.036900 0.000000
-3.999800 1.928900
-3.962800 0.945300
-3.925700 0.950300
-3.888700 1.200800
-3.851600 1.711800
-3.814600 2.623700
-3.777500 3.253400
-3.740400 3.224400
-3.703400 2.810300
-3.666300 2.261300
-3.629300 2.013500
-3.592200 1.973500
-3.555200 1.949600
-3.518100 1.941700
-3.481100 1.950000
-3.444000 1.974300
-3.407000 2.014700
-3.369900 9.767000
-3.332900 6.655500
-3.295800 6.302900
-3.258800 6.023700
-3.221700 5.908700
-3.184700 6.006400
-3.147600 6.465100
-3.110500 3.167700
-3.073500 2.595600
-3.036400 2.545300
-2.999400 2.550500
-2.962300 2.601600
-2.925300 2.692900
-2.888200 2.824300
-2.851200 2.995600
-2.814100 3.206900
-2.777100 3.458200
-2.740000 3.749500
-2.703000 8.981800
-2.665900 9.667400
-2.628900 3.140800
-2.591800 4.536700
-2.554700 7.574700
-2.517700 6.973200
-2.480600 0.944700
-2.443600 2.322200
-2.406500 3.664100
-2.369500 4.900300
-2.332400 5.470900
-2.295400 3.616900
-2.258300 3.222000
-2.221300 2.944900
-2.184200 2.694500
-2.147200 2.470700
-2.110100 2.273600
-2.073100 2.103200
-2.036000 7.224800
-1.999000 6.092700
-1.961900 4.841800
-1.924800 3.858500
-1.887800 3.192500
-1.850700 2.887200
-1.813700 2.816000
-1.776600 2.755700
-1.739600 2.705200
-1.702500 2.664400
-1.665500 2.633400
-1.628400 2.612000
-1.591400 2.621800
-1.554300 2.793000
-1.517300 3.021300
-1.480200 3.230000
-1.443200 3.431100
-1.406100 3.630400
-1.369100 3.920000
-1.332000 4.373500
-1.294900 4.862500
-1.257900 4.819100
-1.220800 4.167700
-1.183800 3.770600
-1.146700 3.863900
-1.109700 4.446100
-1.072600 4.245200
-1.035600 3.140000
-0.998500 2.839600
-0.961500 3.735800
-0.924400 4.168200
-0.887400 5.156200
-0.850300 6.283500
-0.813300 6.938300
-0.776200 7.135600
-0.739100 7.075100
-0.702100 6.847400
-0.665000 6.785800
-0.628000 6.510400
-0.590900 6.485000
-0.553900 6.940900
-0.516800 7.463200
-0.479800 6.259100
-0.442700 6.356000
-0.405700 7.701900
-0.368600 8.441900
-0.331600 7.530500
-0.294500 6.067900
-0.257500 3.618900
-0.220400 1.268500
-0.183400 2.039000
-0.146300 2.825500
-0.109200 3.279500
-0.072200 3.387900
-0.035100 3.162600
0.001900 2.669100
0.039000 2.342000
0.076000 2.294300
0.113100 2.386900
0.150100 2.603600
0.187200 2.923100
0.224200 3.349400
0.261300 3.933600
0.298300 2.685500
0.335400 1.656100
0.372400 1.094000
0.409500 0.633500
0.446600 0.620100
0.483600 0.604500
0.520700 0.586600
0.557700 0.566500
0.594800 0.544200
0.631800 0.519700
0.668900 0.492900
0.705900 0.464000
0.743000 0.432800
0.780000 0.399400
0.817100 0.363700
0.854100 0.325900
0.891200 0.285800
0.928200 0.243500
0.965300 0.199000
1.002300 0.152300
1.039400 0.103300
1.076500 0.052100
1.113500 0.013500
1.150600 0.000400
1.187600 0.000000
1.224700 0.000000
1.261700 0.125700
1.298800 0.311100
1.335800 0.475800
1.372900 0.619800
1.409900 0.743200
1.447000 0.845900
1.484000 0.928000
1.521100 0.989400
1.558100 1.030100
1.595200 1.050200
1.632200 1.049700
1.669300 1.028400
1.706400 0.986600
1.743400 0.924100
1.780500 0.840900
1.817500 0.788100
1.854600 0.789300
1.891600 0.792100
1.928700 0.796400
1.965700 0.802400
2.002800 0.809900
2.039800 0.819000
2.076900 0.829700
2.113900 0.842000
2.151000 0.855900
2.188000 0.871400
2.225100 4.233900
2.262200 6.160300
2.299200 4.207600
2.336300 4.159600
2.373300 4.196100
2.410400 4.233400
2.447400 4.179300
2.484500 4.032500
2.521500 3.792900
2.558600 3.460700
2.595600 3.035800
2.632700 2.518100
2.669700 1.907800
2.706800 1.291600
2.743800 1.057000
2.780900 1.034700
2.817900 1.095800
2.855000 1.181900
2.892100 1.292400
2.929100 1.427400
2.966200 1.586800
3.003200 1.911200
3.040300 9.779000
3.077300 17.867300
3.114400 18.020600
3.151400 11.313000
3.188500 7.020000
3.225500 2.541300
3.262600 1.573600
3.299600 1.536000
3.336700 1.530400
3.373700 1.556700
3.410800 1.615100
3.447900 1.705500
3.484900 1.890700
3.522000 0.000000
3.559000 0.000000
3.596100 0.000000
3.633100 0.000000
3.670200 0.000000
3.707200 0.000000
3.744300 0.000400
3.781300 0.342200
3.818400 1.590600
3.855400 3.253100
3.892500 4.899500
3.929500 6.045700
3.966600 6.686200
4.003600 6.821100
4.040700 6.508300
4.077800 6.081500
4.114800 5.855800
4.151900 5.685600
4.188900 5.491000
4.226000 5.198400
4.263000 4.780800
4.300100 4.222500
4.337100 3.508200
4.374200 2.632500
4.411200 1.830400
4.448300 1.882800
4.485300 1.950000
4.522400 2.031800
4.559400 2.128200
4.596500 2.239300
4.633500 2.365000
4.670600 2.505300
4.707700 2.660400
4.744700 4.562000
4.781800 1.805500
4.818800 2.147300
4.855900 0.859300
4.892900 0.000000
4.930000 0.000000
4.967000 0.000000
5.004100 0.000000
5.041100 0.000000
5.078200 0.000000
5.115200 0.000000
5.152300 0.000000
5.189300 0.000000
5.226400 0.000000
5.263500 0.000000
5.300500 0.000000
5.337600 0.000000
5.374600 0.000000
5.411700 0.000900
5.448700 0.007000
5.485800 0.018900
5.522800 0.043000
5.559900 0.090900
5.596900 0.122900
5.634000 0.139200
5.671000 0.143300
5.708100 0.164500
5.745100 0.178500
5.782200 0.216000
5.819200 0.261900
5.856300 0.269900
5.893400 0.251800
5.930400 0.271300
5.967500 0.293900
6.004500 0.315800
6.041600 0.337100
6.078600 0.357700
6.115700 0.426600
6.152700 0.418800
6.189800 0.438800
6.226800 0.467400
6.263900 0.465800
6.300900 0.496600
6.338000 0.530500
6.375000 0.564000
6.412100 0.597300
6.449200 0.699300
6.486200 0.753000
6.523300 0.772000
6.560300 0.845800
6.597400 0.940500
6.634400 0.996900
6.671500 1.046900
6.708500 1.138100
6.745600 1.135700
6.782600 1.053900
6.819700 1.022400
6.856700 1.026500
6.893800 1.015100
6.930800 0.983000
6.967900 0.948000
7.004900 0.935200
7.042000 1.009500
7.079100 1.492500
7.116100 2.041900
7.153200 2.694200
7.190200 2.383900
7.227300 2.268800
7.264300 2.265000
7.301400 2.644200
7.338400 3.158700
7.375500 3.748700
7.412500 3.867000
7.449600 3.841100
7.486600 3.678700
7.523700 3.696500
7.560700 3.820000
7.597800 3.896900
7.634800 4.026900
7.671900 4.352400
7.709000 4.870000
7.746000 4.971100
7.783100 4.869100
7.820100 4.832200
7.857200 4.878900
7.894200 4.983300
7.931300 5.047900
7.968300 4.936400
8.005400 4.887200
8.042400 4.773300
8.079500 4.487500
8.116500 4.133300
8.153600 3.845900
8.190600 3.625600
8.227700 3.025100
8.264800 2.528900
8.301800 2.183500
8.338900 1.920100
8.375900 1.783100
8.413000 1.615300
8.450000 1.490600
8.487100 1.342700
8.524100 1.450300
8.561200 1.889400
8.598200 2.880000
8.635300 3.778500
8.672300 4.573200
8.709400 4.623000
8.746400 4.593500
8.783500 4.681400
8.820500 4.489800
8.857600 4.018700
8.894700 3.623400
8.931700 3.024800
8.968800 3.760500
9.005800 3.491300
9.042900 3.730400
9.079900 3.763700
9.117000 3.851100
9.154000 3.648000
9.191100 3.578900
9.228100 2.649400
9.265200 1.895500
9.302200 1.614100
9.339300 1.489200
9.376300 1.564200
9.413400 1.893500
9.450500 2.453200
9.487500 2.951200
9.524600 3.310200
9.561600 3.361200
9.598700 3.331900
9.635700 3.367800
9.672800 3.196600
9.709800 3.299200
9.746900 3.510400
9.783900 3.612900
9.821000 3.698000
9.858000 3.836500
9.895100 3.835300
9.932100 3.763000
9.969200 3.362700
10.006200 2.988800
10.043300 2.928400
10.080400 2.954700
10.117400 2.784800
10.154500 2.666000
10.191500 2.680300
10.228600 2.890500
10.265600 3.051900
10.302700 3.238900
10.339700 4.019900
10.376800 4.040100
10.413800 4.258700
10.450900 4.505800
10.487900 4.723600
10.525000 4.940700
10.562000 5.110300
10.599100 5.412700
10.636100 5.912200
10.673200 6.221700
10.710300 6.581900
10.747300 6.527300
10.784400 6.538800
10.821400 6.235000
10.858500 6.420000
10.895500 6.887100
10.932600 7.353100
10.969600 7.412100
11.006700 6.502800
11.043700 5.913700
11.080800 5.510100
11.117800 5.052600
11.154900 4.520300
11.191900 3.677100
11.229000 2.320900
11.266100 2.955700
11.303100 4.360000
11.340200 4.641600
11.377200 3.789300
11.414300 3.436500
11.451300 3.329500
11.488400 3.304600
11.525400 3.360600
11.562500 4.015300
11.599500 3.895800
11.636600 3.602200
11.673600 3.444200
11.710700 3.012400
11.747700 3.024000
11.784800 4.224800
11.821800 4.844600
11.858900 3.932100
11.896000 3.691100
11.933000 3.536000
11.970100 3.755700
12.007100 4.013000
12.044200 4.124100
12.081200 3.905900
12.118300 3.517900
12.155300 3.168500
12.192400 2.933800
12.229400 2.692600
12.266500 2.641000
12.303500 2.513800
12.340600 2.591700
12.377600 2.803700
12.414700 3.410000
12.451800 4.561900
12.488800 5.410300
12.525900 6.105700
12.562900 6.433400
12.600000 5.753100
12.637000 4.834100
12.674100 3.878000
12.711100 3.145300
12.748200 2.747600
12.785200 2.827600
12.822300 3.347200
12.859300 4.483800
12.896400 5.191000
12.933400 6.277700
12.970500 6.576100
13.007500 5.759300
13.044600 3.877100
13.081700 3.418700
13.118700 3.855800
13.155800 3.963000
13.192800 4.211500
13.229900 4.358600
13.266900 4.236000
13.304000 4.231000
13.341000 5.523600
13.378100 5.960700
13.415100 6.495700
13.452200 7.821600
13.489200 6.949900
13.526300 6.049200
13.563300 5.595300
13.600400 5.085700
13.637400 4.677000
13.674500 4.460600
13.711600 4.230100
13.748600 4.188500
13.785700 4.286200
13.822700 4.264100
13.859800 4.117500
13.896800 3.666900
13.933900 3.373200
13.970900 3.245600
14.008000 3.145300
14.045000 3.027000
14.082100 3.239500
14.119100 3.801000
14.156200 4.216100
14.193200 4.092900
14.230300 4.046900
14.267400 3.950500
14.304400 4.269600
14.341500 4.556700
14.378500 4.855800
14.415600 5.019500
14.452600 5.154200
14.489700 5.026300
14.526700 4.737300
14.563800 4.384800
14.600800 4.065200
14.637900 3.442500
14.674900 2.970100
14.712000 3.021100
14.749000 3.379200
14.786100 3.761400
14.823100 4.024300
14.860200 4.517500
14.897300 5.024900
14.934300 5.442300
14.971400 5.519000
15.008400 5.063300
15.045500 4.896700
15.082500 5.073400
15.119600 4.490200
15.156600 4.702300
15.193700 4.945700
15.230700 4.267000
15.267800 4.062600
15.304800 3.810800
15.341900 3.271400
15.378900 3.009300
15.416000 3.239600
15.453100 3.557300
15.490100 3.955500
15.527200 4.565400
15.564200 4.997200
15.601300 5.318200
15.638300 5.634900
15.675400 5.680400
15.712400 5.493700
15.749500 5.691000
15.786500 5.770600
15.823600 5.225100
15.860600 5.015700
15.897700 4.466600
15.934700 3.359600
15.971800 2.847300
16.008800 2.593100
16.045900 2.445100
16.083000 2.413300
16.120000 2.264600
16.157100 2.189100
16.194100 2.144100
16.231200 2.126600
16.268200 2.223500
16.305300 2.359900
16.342300 2.647500
16.379400 3.155400
16.416400 3.610700
16.453500 3.933600
16.490500 4.502500
16.527600 5.561800
16.564600 6.045400
16.601700 5.172200
16.638700 4.420800
16.675800 3.879100
16.712900 3.345900
16.749900 2.840800
16.787000 2.484100
16.824000 2.125500
16.861100 2.053200
16.898100 2.093000
16.935200 2.361600
16.972200 2.705600
17.009300 3.054700
17.046300 3.377900
17.083400 3.672300
17.120400 4.013600
17.157500 4.266100
17.194500 4.528500
17.231600 4.662400
17.268700 4.068300
17.305700 3.537000
17.342800 3.457100
17.379800 2.668500
17.416900 2.106600
17.453900 2.004000
17.491000 2.002600
17.528000 2.054500
17.565100 2.115100
17.602100 2.075500
17.639200 1.899300
17.676200 2.205400
17.713300 2.907800
17.750300 4.423900
17.787400 5.881200
17.824400 5.260100
17.861500 4.578500
17.898600 3.961100
17.935600 3.588700
17.972700 2.962900
18.009700 2.874200
18.046800 2.939000
18.083800 3.222900
18.120900 3.787300
18.157900 4.429200
18.195000 4.766700
18.232000 4.905000
18.269100 4.886700
18.306100 4.829800
18.343200 4.913100
18.380200 4.479300
18.417300 4.291000
18.454400 4.155000
18.491400 4.107900
18.528500 4.034000
18.565500 4.155300
18.602600 3.908800
18.639600 3.677000
18.676700 3.417800
18.713700 3.249600
18.750800 3.298600
18.787800 3.304600
18.824900 3.381200
18.861900 3.404100
18.899000 3.619800
18.936000 3.701500
18.973100 3.685100
19.010100 3.806200
19.047200 3.870700
19.084300 3.825000
19.121300 3.716800
19.158400 3.539500
19.195400 3.403400
19.232500 3.331900
19.269500 3.413500
19.306600 3.702600
19.343600 3.384000
19.380700 3.143700
19.417700 3.491800
19.454800 3.820600
19.491800 3.968500
19.528900 3.952300
19.565900 4.037200
19.603000 4.155600
19.640000 4.283100
19.677100 4.431700
19.714200 4.640900
19.751200 4.858700
19.788300 4.518300
19.825300 4.581900
19.862400 4.597800
19.899400 4.582500
19.936500 4.645600
19.973500 4.836300
20.010600 5.058100
20.047600 5.127200
20.084700 5.127100
20.121700 4.933800
20.158800 4.814100
20.195800 4.614300
20.232900 3.964900
20.270000 3.468900
20.307000 3.307700
20.344100 3.338600
20.381100 3.292800
20.418200 4.114500
20.455200 3.773400
20.492300 4.157500
20.529300 3.827500
20.566400 3.772700
20.603400 3.954600
20.640500 4.302800
20.677500 4.557000
20.714600 4.837600
20.751600 4.596800
20.788700 3.560000
20.825700 3.247000
20.862800 3.147600
20.899900 3.179500
20.936900 3.424000
20.974000 3.854300
21.011000 4.155200
21.048100 4.333300
21.085100 4.253700
21.122200 3.946500
21.159200 4.279400
21.196300 4.715000
21.233300 4.583600
21.270400 4.312300
21.307400 4.154500
21.344500 4.315800
21.381500 4.538000
21.418600 4.667600
21.455700 4.748500
21.492700 5.118800
21.529800 5.184500
21.566800 5.170500
21.603900 3.784500
21.640900 3.196700
21.678000 3.370800
21.715000 3.984300
21.752100 4.729700
21.789100 5.384300
21.826200 5.743300
21.863200 5.209700
21.900300 4.655600
21.937300 4.104500
21.974400 3.676000
22.011400 3.407300
22.048500 3.126300
22.085600 3.329100
22.122600 3.798100
22.159700 4.361000
22.196700 5.133200
22.233800 5.598800
22.270800 5.497800
22.307900 5.703600
22.344900 6.113400
22.382000 6.744700
22.419000 7.547100
22.456100 8.893000
22.493100 16.393300
22.530200 8.544500
22.567200 7.147600
22.604300 7.818600
22.641300 8.064300
22.678400 7.211900
22.715500 6.482200
22.752500 5.772600
22.789600 5.166300
22.826600 4.698000
22.863700 4.523600
22.900700 4.744500
22.937800 4.847200
22.974800 4.907400
23.011900 5.009500
23.048900 5.293600
23.086000 5.442200
23.123000 5.082600
23.160100 4.713800
23.197100 4.426900
23.234200 4.250800
23.271300 4.049200
23.308300 3.785500
23.345400 3.524900
23.382400 3.460700
23.419500 3.490300
23.456500 3.801700
23.493600 4.757100
23.530600 4.596200
23.567700 4.854100
23.604700 4.636300
23.641800 4.916200
23.678800 5.102300
23.715900 4.981200
23.752900 4.479600
23.790000 4.212700
23.827000 4.035700
23.864100 4.568100
23.901200 5.627000
23.938200 5.253900
23.975300 4.559400
24.012300 4.408400
24.049400 4.212500
24.086400 4.187600
24.123500 4.569900
24.160500 5.182300
24.197600 5.918400
24.234600 6.186700
24.271700 6.411600
24.308700 6.151500
24.345800 5.582400
24.382800 4.540600
24.419900 3.868300
24.457000 3.399500
24.494000 3.192100
24.531100 3.183500
24.568100 2.874800
24.605200 3.244600
24.642200 4.840500
24.679300 5.735000
24.716300 6.813900
24.753400 7.709800
24.790400 8.284800
24.827500 5.900600
24.864500 4.367700
24.901600 4.396900
24.938600 4.586800
24.975700 4.916100
25.012700 4.912000
25.049800 4.817000
25.086900 5.340200
25.123900 4.765800
25.161000 4.687100
25.198000 4.644700
25.235100 4.484800
25.272100 4.267600
25.309200 4.195900
25.346200 4.465100
25.383300 4.560700
25.420300 4.790600
25.457400 4.663100
25.494400 4.375200
25.531500 4.098400
25.568500 4.061000
25.605600 4.036200
25.642600 4.259700
25.679700 4.593000
25.716800 4.387100
25.753800 4.085900
25.790900 3.967200
25.827900 4.132700
25.865000 4.736400
25.902000 4.903800
25.939100 4.730700
25.976100 4.198900
26.013200 3.862600
26.050200 3.940300
26.087300 4.735600
26.124300 5.312300
26.161400 5.116700
26.198400 4.554100
26.235500 4.872600
26.272600 4.828500
26.309600 4.785800
26.346700 4.656100
26.383700 4.543200
26.420800 4.284500
26.457800 4.020200
26.494900 3.475600
26.531900 3.505400
26.569000 3.975300
26.606000 4.510600
26.643100 4.753000
26.680100 4.684200
26.717200 5.388900
26.754200 5.713400
26.791300 5.585100
26.828300 4.878900
26.865400 5.093100
26.902500 5.241300
26.939500 4.987800
26.976600 5.033800
27.013600 5.304800
27.050700 5.686300
27.087700 6.223000
27.124800 6.170800
27.161800 5.819500
27.198900 5.688900
27.235900 5.633900
27.273000 5.365800
27.310000 5.593800
27.347100 5.735200
27.384100 5.655300
27.421200 5.511800
27.458300 5.345500
27.495300 5.439100
27.532400 5.372900
27.569400 5.802700
27.606500 5.950600
27.643500 5.892200
27.680600 5.368600
27.717600 5.163500
27.754700 5.181200
27.791700 5.211700
27.828800 5.250800
27.865800 5.390400
27.902900 5.699800
27.939900 5.604400
27.977000 5.190700
28.014000 5.371900
28.051100 5.392600
28.088200 5.339000
28.125200 5.473500
28.162300 5.427800
28.199300 5.245700
28.236400 5.040800
28.273400 4.901800
28.310500 4.869100
28.347500 5.052700
28.384600 5.062600
28.421600 4.955000
28.458700 4.957600
28.495700 5.198000
28.532800 5.089800
28.569800 5.244400
28.606900 5.294400
28.643900 5.544300
28.681000 5.722700
28.718100 5.354800
28.755100 5.674100
28.792200 5.922800
28.829200 5.824500
28.866300 5.537300
28.903300 5.085100
28.940400 4.324400
28.977400 4.326300
29.014500 4.321000
29.051500 4.573800
29.088600 4.902200
29.125600 5.270000
29.162700 5.486900
29.199700 5.793500
29.236800 4.931900
29.273900 4.370600
29.310900 4.784200
29.348000 5.320400
29.385000 5.795800
29.422100 5.958300
29.459100 5.586900
29.496200 5.168800
29.533200 4.799300
29.570300 4.540600
29.607300 4.326300
29.644400 4.356900
29.681400 4.297600
29.718500 4.589600
29.755500 4.639300
29.792600 4.577600
29.829600 4.662300
29.866700 5.381500
29.903800 5.155600
29.940800 5.340600
29.977900 5.476800
30.014900 5.577500
30.052000 5.447000
30.089000 5.193900
30.126100 5.109600
30.163100 5.191500
30.200200 5.304500
30.237200 5.570100
30.274300 5.883400
30.311300 5.980700
30.348400 5.386900
30.385400 4.946700
30.422500 4.823300
30.459600 4.091500
30.496600 3.397700
30.533700 3.291500
30.570700 3.550700
30.607800 3.873800
30.644800 4.388600
30.681900 5.050100
30.718900 5.432500
30.756000 5.623500
30.793000 5.571100
30.830100 5.414300
30.867100 5.260300
30.904200 4.953100
30.941200 4.470800
30.978300 4.198100
31.015300 4.076500
31.052400 4.169500
31.089500 4.366600
31.126500 4.634200
31.163600 4.845500
31.200600 4.817000
31.237700 4.601500
31.274700 4.313000
31.311800 4.218700
31.348800 4.344700
31.385900 4.579600
31.422900 4.936300
31.460000 5.423700
31.497000 5.785400
31.534100 6.031800
31.571100 5.946200
31.608200 5.769400
31.645200 5.397900
31.682300 5.317900
31.719400 5.497200
31.756400 5.779600
31.793500 6.425900
31.830500 6.493800
31.867600 6.217000
31.904600 5.766500
31.941700 5.323000
31.978700 5.293500
32.015800 5.426400
32.052800 5.462400
32.089900 5.470500
32.126900 5.561900
32.164000 5.930400
32.201000 6.040400
32.238100 5.534600
32.275200 5.409400
32.312200 5.631800
32.349300 5.265700
32.386300 5.356400
32.423400 5.465800
32.460400 5.377800
32.497500 5.262000
32.534500 5.049100
32.571600 4.845600
32.608600 4.645500
32.645700 4.707900
32.682700 4.848200
32.719800 5.121500
32.756800 5.193500
32.793900 5.391600
32.830900 5.574500
32.868000 5.674200
32.905100 5.672900
32.942100 5.433400
32.979200 5.057000
33.016200 4.793200
33.053300 4.781800
33.090300 4.374700
33.127400 4.438100
33.164400 4.412900
33.201500 4.028000
33.238500 3.817200
33.275600 3.526400
33.312600 3.212800
33.349700 3.100700
33.386700 2.952000
33.423800 2.855800
33.460900 2.874400
33.497900 2.916800
33.535000 2.934400
33.572000 2.945800
33.609100 2.909500
33.646100 2.856200
33.683200 2.589900
33.720200 2.333700
33.757300 2.064700
33.794300 1.851300
33.831400 1.681200
33.868400 1.569100
33.905500 1.491700
33.942500 1.540800
33.979600 1.551300
34.016600 1.490600
34.053700 1.296700
34.090800 1.209500
34.127800 1.124400
34.164900 1.039200
34.201900 0.958800
34.239000 0.906400
34.276000 0.859400
34.313100 0.829700
34.350100 0.771200
34.387200 0.762600
34.424200 0.752600
34.461300 0.955200
34.498300 0.947100
34.535400 0.499300
34.572400 0.165800
34.609500 0.038300
34.646500 0.100400
34.683600 0.000000
34.720700 0.000000
34.757700 0.000000
34.794800 0.000000
34.831800 0.000000
34.868900 0.000000
34.905900 0.000000
34.943000 0.000000
34.980000 0.000000
35.017100 0.000000
35.054100 0.000000
35.091200 0.000000
35.128200 0.000000
35.165300 0.000000
35.202300 0.000000
35.239400 0.000000
35.276500 0.000000
35.313500 0.000000
35.350600 0.000000
35.387600 0.000000
35.424700 0.000000
35.461700 0.000000
35.498800 0.000000
35.535800 0.000000
35.572900 0.000000
35.609900 0.000000
35.647000 0.000000
35.684000 0.000000
35.721100 0.000000
35.758100 0.000000
35.795200 0.000000
35.832200 0.000000
35.869300 0.000000
35.906400 0.000000
35.943400 0.000000
35.980500 0.000000
36.017500 0.000000
36.054600 0.000000
36.091600 0.000000
36.128700 0.000000
36.165700 0.000000
36.202800 0.000000
36.239800 0.000000
36.276900 0.000000
36.313900 0.000000
36.351000 0.000000
36.388000 0.000000
36.425100 0.000000
36.462200 0.000000
36.499200 0.000000
36.536300 0.000000
36.573300 0.000000
36.610400 0.000000
36.647400 0.000000
36.684500 0.000000
36.721500 0.000000
36.758600 0.000000
36.795600 0.000000
36.832700 0.000000
36.869700 0.000000
36.906800 0.000000
36.943800 0.000000
36.980900 0.000000
37.017900 0.000000
37.055000 0.000000
37.092100 0.000000
37.129100 0.000000
37.166200 0.000000
37.203200 0.000000
37.240300 0.000000
37.277300 0.000000
37.314400 0.000000
37.351400 0.000000
37.388500 0.000000
37.425500 0.000000
37.462600 0.000000
37.499600 0.000000
37.536700 0.000000
37.573700 0.000000
37.610800 0.000000
37.647800 0.000000
37.684900 0.000000
37.722000 0.000000
37.759000 0.000000
37.796100 0.000000
37.833100 0.000000
37.870200 0.000000
37.907200 0.000000
37.944300 0.000000
37.981300 0.000000
38.018400 0.000000
e
