set title 'mp-27358 - Density of States'
set xlabel 'Energy (eV)'
set ylabel 'DOS (states/eV)'
set grid
set xrange [-10:10]
set yrange [0:197.392]
set xzeroaxis lt -1
set terminal png size 800,600
set output 'mp-27358_dos_gnuplot.png'
plot '-' using 1:2 with lines title 'DOS'
-23.914500 0.000000
-23.894600 0.000000
-23.874800 0.000000
-23.854900 0.000000
-23.835000 0.000000
-23.815100 0.000000
-23.795300 0.000000
-23.775400 0.000000
-23.755500 0.000000
-23.735600 0.000000
-23.715800 0.000000
-23.695900 0.000000
-23.676000 0.000000
-23.656100 0.000000
-23.636300 0.000000
-23.616400 0.000000
-23.596500 0.000000
-23.576700 0.000000
-23.556800 0.000000
-23.536900 0.000000
-23.517000 0.000000
-23.497200 0.000000
-23.477300 0.000000
-23.457400 0.000000
-23.437500 0.000000
-23.417700 0.000000
-23.397800 0.000000
-23.377900 0.000000
-23.358000 0.000000
-23.338200 0.000000
-23.318300 0.000000
-23.298400 0.000000
-23.278500 0.000000
-23.258700 0.000000
-23.238800 0.000000
-23.218900 0.000000
-23.199000 0.000000
-23.179200 0.000000
-23.159300 0.000000
-23.139400 0.000000
-23.119500 0.000000
-23.099700 0.000000
-23.079800 0.000000
-23.059900 0.000000
-23.040100 0.000000
-23.020200 0.000000
-23.000300 0.000000
-22.980400 0.000000
-22.960600 0.000000
-22.940700 0.000000
-22.920800 0.000000
-22.900900 0.000000
-22.881100 0.000000
-22.861200 0.000000
-22.841300 0.000000
-22.821400 0.000000
-22.801600 0.000000
-22.781700 0.000000
-22.761800 0.000000
-22.741900 0.000000
-22.722100 0.000000
-22.702200 0.000000
-22.682300 0.000000
-22.662400 0.000000
-22.642600 0.000000
-22.622700 0.000000
-22.602800 0.000000
-22.583000 0.000000
-22.563100 0.000000
-22.543200 0.000000
-22.523300 0.000000
-22.503500 0.000000
-22.483600 0.000000
-22.463700 0.000000
-22.443800 0.000000
-22.424000 0.000000
-22.404100 0.000000
-22.384200 0.000000
-22.364300 0.000000
-22.344500 0.000000
-22.324600 0.000000
-22.304700 0.000000
-22.284800 0.000000
-22.265000 0.000000
-22.245100 0.000000
-22.225200 0.000000
-22.205300 0.000000
-22.185500 0.000000
-22.165600 0.000000
-22.145700 0.000000
-22.125800 0.000000
-22.106000 13.452200
-22.086100 18.819200
-22.066200 13.027800
-22.046400 30.662700
-22.026500 35.341800
-22.006600 29.356800
-21.986700 22.676700
-21.966900 15.974800
-21.947000 0.000000
-21.927100 0.000000
-21.907200 17.865300
-21.887400 15.388700
-21.867500 36.285100
-21.847600 40.517600
-21.827700 32.557500
-21.807900 21.649500
-21.788000 0.000000
-21.768100 0.000000
-21.748200 0.000000
-21.728400 0.000000
-21.708500 0.000000
-21.688600 0.000000
-21.668700 0.000000
-21.648900 0.000000
-21.629000 0.000000
-21.609100 0.000000
-21.589300 0.000000
-21.569400 0.000000
-21.549500 0.000000
-21.529600 0.000000
-21.509800 0.000000
-21.489900 0.000000
-21.470000 0.000000
-21.450100 0.000000
-21.430300 0.000000
-21.410400 0.000000
-21.390500 0.000000
-21.370600 0.000000
-21.350800 0.000000
-21.330900 0.000000
-21.311000 0.000000
-21.291100 0.000000
-21.271300 0.000000
-21.251400 0.000000
-21.231500 0.000000
-21.211600 0.000000
-21.191800 0.000000
-21.171900 0.000000
-21.152000 0.000000
-21.132200 0.000000
-21.112300 0.000000
-21.092400 0.000000
-21.072500 0.000000
-21.052700 0.000000
-21.032800 0.000000
-21.012900 0.000000
-20.993000 0.000000
-20.973200 0.000000
-20.953300 0.000000
-20.933400 0.000000
-20.913500 0.000000
-20.893700 0.000000
-20.873800 0.000000
-20.853900 0.000000
-20.834000 0.000000
-20.814200 0.000000
-20.794300 0.000000
-20.774400 0.000000
-20.754500 0.000000
-20.734700 0.000000
-20.714800 0.000000
-20.694900 0.000000
-20.675000 0.000000
-20.655200 0.000000
-20.635300 0.000000
-20.615400 0.000000
-20.595600 0.000000
-20.575700 17.651400
-20.555800 42.968900
-20.535900 27.545100
-20.516100 34.566100
-20.496200 26.534600
-20.476300 10.841500
-20.456400 17.548500
-20.436600 0.000000
-20.416700 0.000000
-20.396800 0.000000
-20.376900 0.000000
-20.357100 14.302400
-20.337200 17.195200
-20.317300 6.575300
-20.297400 6.575600
-20.277600 21.879500
-20.257700 12.471700
-20.237800 12.472000
-20.217900 12.472400
-20.198100 21.268700
-20.178200 5.896200
-20.158300 5.896300
-20.138500 5.896500
-20.118600 5.896600
-20.098700 15.132000
-20.078800 0.000000
-20.059000 0.000000
-20.039100 0.000000
-20.019200 0.000000
-19.999300 0.000000
-19.979500 0.000000
-19.959600 0.000000
-19.939700 0.000000
-19.919800 0.000000
-19.900000 0.000000
-19.880100 0.000000
-19.860200 0.000000
-19.840300 0.000000
-19.820500 0.000000
-19.800600 0.000000
-19.780700 0.000000
-19.760800 0.000000
-19.741000 0.000000
-19.721100 0.000000
-19.701200 0.000000
-19.681300 0.000000
-19.661500 0.000000
-19.641600 0.000000
-19.621700 0.000000
-19.601900 0.000000
-19.582000 0.000000
-19.562100 0.000000
-19.542200 0.000000
-19.522400 0.000000
-19.502500 0.000000
-19.482600 0.000000
-19.462700 0.000000
-19.442900 0.000000
-19.423000 0.000000
-19.403100 0.000000
-19.383200 0.000000
-19.363400 0.000000
-19.343500 0.000000
-19.323600 0.000000
-19.303700 0.000000
-19.283900 0.000000
-19.264000 0.000000
-19.244100 0.000000
-19.224200 0.000000
-19.204400 0.000000
-19.184500 0.000000
-19.164600 0.000000
-19.144800 0.000000
-19.124900 0.000000
-19.105000 0.000000
-19.085100 0.000000
-19.065300 0.000000
-19.045400 0.000000
-19.025500 0.000000
-19.005600 0.000000
-18.985800 79.318900
-18.965900 81.210200
-18.946000 102.705900
-18.926100 50.413300
-18.906300 43.458300
-18.886400 0.000000
-18.866500 0.000000
-18.846600 0.000000
-18.826800 0.000000
-18.806900 26.226100
-18.787000 91.214400
-18.767100 22.172800
-18.747300 71.501500
-18.727400 50.023200
-18.707500 0.000000
-18.687700 0.000000
-18.667800 0.000000
-18.647900 0.000000
-18.628000 46.727700
-18.608200 167.735700
-18.588300 107.814000
-18.568400 0.000000
-18.548500 0.000000
-18.528700 0.000000
-18.508800 0.000000
-18.488900 0.000000
-18.469000 0.000000
-18.449200 0.000000
-18.429300 0.000000
-18.409400 0.000000
-18.389500 0.000000
-18.369700 0.000000
-18.349800 0.000000
-18.329900 0.000000
-18.310000 0.000000
-18.290200 0.000000
-18.270300 0.000000
-18.250400 0.000000
-18.230500 0.000000
-18.210700 0.000000
-18.190800 0.000000
-18.170900 0.000000
-18.151100 0.000000
-18.131200 0.000000
-18.111300 0.000000
-18.091400 0.000000
-18.071600 0.000000
-18.051700 0.000000
-18.031800 0.000000
-18.011900 0.000000
-17.992100 0.000000
-17.972200 0.000000
-17.952300 0.000000
-17.932400 0.000000
-17.912600 0.000000
-17.892700 0.000000
-17.872800 0.000000
-17.852900 0.000000
-17.833100 0.000000
-17.813200 0.000000
-17.793300 0.000000
-17.773400 0.000000
-17.753600 0.000000
-17.733700 0.000000
-17.713800 0.000000
-17.694000 0.000000
-17.674100 0.000000
-17.654200 0.000000
-17.634300 0.000000
-17.614500 0.000000
-17.594600 0.000000
-17.574700 0.000000
-17.554800 0.000000
-17.535000 0.000000
-17.515100 0.000000
-17.495200 0.000000
-17.475300 0.000000
-17.455500 0.000000
-17.435600 0.000000
-17.415700 0.000000
-17.395800 0.000000
-17.376000 0.000000
-17.356100 0.000000
-17.336200 0.000000
-17.316300 0.000000
-17.296500 0.000000
-17.276600 0.000000
-17.256700 0.000000
-17.236800 0.000000
-17.217000 0.000000
-17.197100 0.000000
-17.177200 0.000000
-17.157400 0.000000
-17.137500 0.000000
-17.117600 0.000000
-17.097700 0.000000
-17.077900 0.000000
-17.058000 0.000000
-17.038100 0.000000
-17.018200 0.000000
-16.998400 0.000000
-16.978500 0.000000
-16.958600 0.000000
-16.938700 0.000000
-16.918900 0.000000
-16.899000 0.000000
-16.879100 0.000000
-16.859200 0.000000
-16.839400 0.000000
-16.819500 0.000000
-16.799600 0.000000
-16.779700 0.000000
-16.759900 0.000000
-16.740000 0.000000
-16.720100 0.000000
-16.700300 0.000000
-16.680400 0.000000
-16.660500 0.000000
-16.640600 0.000000
-16.620800 0.000000
-16.600900 0.000000
-16.581000 0.000000
-16.561100 0.000000
-16.541300 0.000000
-16.521400 0.000000
-16.501500 0.000000
-16.481600 0.000000
-16.461800 0.000000
-16.441900 0.000000
-16.422000 0.000000
-16.402100 0.000000
-16.382300 0.000000
-16.362400 0.000000
-16.342500 0.000000
-16.322600 0.000000
-16.302800 0.000000
-16.282900 0.000000
-16.263000 0.000000
-16.243200 0.000000
-16.223300 0.000000
-16.203400 0.000000
-16.183500 0.000000
-16.163700 0.000000
-16.143800 0.000000
-16.123900 0.000000
-16.104000 0.000000
-16.084200 0.000000
-16.064300 0.000000
-16.044400 0.000000
-16.024500 0.000000
-16.004700 0.000000
-15.984800 0.000000
-15.964900 0.000000
-15.945000 0.000000
-15.925200 0.000000
-15.905300 0.000000
-15.885400 0.000000
-15.865500 0.000000
-15.845700 0.000000
-15.825800 0.000000
-15.805900 0.000000
-15.786000 0.000000
-15.766200 0.000000
-15.746300 0.000000
-15.726400 0.000000
-15.706600 0.000000
-15.686700 0.000000
-15.666800 0.000000
-15.646900 0.000000
-15.627100 0.000000
-15.607200 0.000000
-15.587300 0.000000
-15.567400 0.000000
-15.547600 0.000000
-15.527700 0.000000
-15.507800 0.000000
-15.487900 0.000000
-15.468100 0.000000
-15.448200 0.000000
-15.428300 0.000000
-15.408400 0.000000
-15.388600 0.000000
-15.368700 0.000000
-15.348800 0.000000
-15.328900 0.000000
-15.309100 0.000000
-15.289200 0.000000
-15.269300 0.000000
-15.249500 0.000000
-15.229600 0.000000
-15.209700 0.000000
-15.189800 0.000000
-15.170000 0.000000
-15.150100 0.000000
-15.130200 0.000000
-15.110300 0.000000
-15.090500 0.000000
-15.070600 0.000000
-15.050700 0.000000
-15.030800 0.000000
-15.011000 0.000000
-14.991100 0.000000
-14.971200 0.000000
-14.951300 0.000000
-14.931500 0.000000
-14.911600 0.000000
-14.891700 0.000000
-14.871800 0.000000
-14.852000 0.000000
-14.832100 0.000000
-14.812200 0.000000
-14.792300 0.000000
-14.772500 0.000000
-14.752600 0.000000
-14.732700 0.000000
-14.712900 0.000000
-14.693000 0.000000
-14.673100 0.000000
-14.653200 0.000000
-14.633400 0.000000
-14.613500 0.000000
-14.593600 0.000000
-14.573700 0.000000
-14.553900 0.000000
-14.534000 0.000000
-14.514100 0.000000
-14.494200 0.000000
-14.474400 0.000000
-14.454500 0.000000
-14.434600 0.000000
-14.414700 0.000000
-14.394900 0.000000
-14.375000 0.000000
-14.355100 0.000000
-14.335200 0.000000
-14.315400 0.000000
-14.295500 0.000000
-14.275600 0.000000
-14.255800 0.000000
-14.235900 0.000000
-14.216000 0.000000
-14.196100 0.000000
-14.176300 0.000000
-14.156400 0.000000
-14.136500 0.000000
-14.116600 0.000000
-14.096800 0.000000
-14.076900 0.000000
-14.057000 0.000000
-14.037100 0.000000
-14.017300 0.000000
-13.997400 0.000000
-13.977500 0.000000
-13.957600 0.000000
-13.937800 0.000000
-13.917900 0.000000
-13.898000 0.000000
-13.878100 0.000000
-13.858300 0.000000
-13.838400 0.000000
-13.818500 0.000000
-13.798600 0.000000
-13.778800 0.000000
-13.758900 0.000000
-13.739000 0.000000
-13.719200 0.000000
-13.699300 0.000000
-13.679400 0.000000
-13.659500 0.000000
-13.639700 0.000000
-13.619800 0.000000
-13.599900 0.000000
-13.580000 0.000000
-13.560200 0.000000
-13.540300 0.000000
-13.520400 0.000000
-13.500500 0.000000
-13.480700 0.000000
-13.460800 0.000000
-13.440900 0.000000
-13.421000 0.000000
-13.401200 0.000000
-13.381300 0.000000
-13.361400 0.000000
-13.341500 0.000000
-13.321700 0.000000
-13.301800 0.000000
-13.281900 0.000000
-13.262100 0.000000
-13.242200 0.000000
-13.222300 0.000000
-13.202400 0.000000
-13.182600 0.000000
-13.162700 0.000000
-13.142800 3.424200
-13.122900 3.756700
-13.103100 4.089200
-13.083200 4.356000
-13.063300 4.680500
-13.043400 5.005000
-13.023600 3.188000
-13.003700 3.187900
-12.983800 3.187900
-12.963900 3.187900
-12.944100 6.619000
-12.924200 6.970400
-12.904300 7.321700
-12.884400 7.609300
-12.864600 7.951800
-12.844700 10.356300
-12.824800 8.263800
-12.805000 7.933200
-12.785100 7.602500
-12.765200 7.224900
-12.745300 6.901300
-12.725500 6.577600
-12.705600 3.344000
-12.685700 3.343900
-12.665800 3.343800
-12.646000 5.157400
-12.626100 4.811200
-12.606200 4.465100
-12.586300 4.073100
-12.566500 3.734500
-12.546600 3.395900
-12.526700 0.000000
-12.506800 0.000000
-12.487000 0.000000
-12.467100 0.000000
-12.447200 0.000000
-12.427300 0.000000
-12.407500 0.000000
-12.387600 3.182400
-12.367700 3.561300
-12.347800 3.940300
-12.328000 4.319200
-12.308100 4.626900
-12.288200 4.976100
-12.268400 5.325400
-12.248500 3.993500
-12.228600 7.607900
-12.208700 8.194000
-12.188900 8.780000
-12.169000 9.366100
-12.149100 10.956500
-12.129200 11.145700
-12.109400 11.334800
-12.089500 12.169500
-12.069600 10.229500
-12.049700 9.437500
-12.029900 8.645400
-12.010000 7.853300
-11.990100 7.035500
-11.970200 4.021200
-11.950400 3.595400
-11.930500 3.169600
-11.910600 0.000000
-11.890700 0.000000
-11.870900 0.000000
-11.851000 0.000000
-11.831100 0.000000
-11.811300 0.000000
-11.791400 0.000000
-11.771500 0.000000
-11.751600 0.000000
-11.731800 0.000000
-11.711900 0.000000
-11.692000 0.000000
-11.672100 0.000000
-11.652300 0.000000
-11.632400 0.000000
-11.612500 0.000000
-11.592600 0.000000
-11.572800 0.000000
-11.552900 0.000000
-11.533000 0.000000
-11.513100 0.000000
-11.493300 0.000000
-11.473400 0.000000
-11.453500 0.000000
-11.433600 0.000000
-11.413800 0.000000
-11.393900 0.000000
-11.374000 0.000000
-11.354100 0.000000
-11.334300 0.000000
-11.314400 0.000000
-11.294500 0.000000
-11.274700 0.000000
-11.254800 0.000000
-11.234900 0.000000
-11.215000 0.000000
-11.195200 0.000000
-11.175300 0.000000
-11.155400 0.000000
-11.135500 0.000000
-11.115700 0.000000
-11.095800 0.000000
-11.075900 0.000000
-11.056000 0.000000
-11.036200 0.000000
-11.016300 0.000000
-10.996400 0.000000
-10.976500 0.000000
-10.956700 0.000000
-10.936800 0.000000
-10.916900 0.000000
-10.897000 0.000000
-10.877200 0.000000
-10.857300 0.000000
-10.837400 0.000000
-10.817600 8.371800
-10.797700 8.373200
-10.777800 8.374700
-10.757900 8.376200
-10.738100 8.377700
-10.718200 8.379300
-10.698300 0.000000
-10.678400 4.780600
-10.658600 4.780700
-10.638700 4.780700
-10.618800 4.780700
-10.598900 4.780800
-10.579100 4.780800
-10.559200 4.780800
-10.539300 4.780900
-10.519400 4.780900
-10.499600 4.780900
-10.479700 40.970100
-10.459800 0.000000
-10.439900 0.000000
-10.420100 0.000000
-10.400200 0.000000
-10.380300 0.000000
-10.360500 0.000000
-10.340600 0.000000
-10.320700 0.000000
-10.300800 0.000000
-10.281000 0.000000
-10.261100 0.000000
-10.241200 0.000000
-10.221300 0.000000
-10.201500 0.000000
-10.181600 17.619500
-10.161700 1.941300
-10.141800 1.941300
-10.122000 1.941300
-10.102100 1.941300
-10.082200 1.941300
-10.062300 1.941300
-10.042500 1.941300
-10.022600 1.941300
-10.002700 1.941300
-9.982800 1.941300
-9.963000 1.941300
-9.943100 1.941400
-9.923200 1.941400
-9.903300 1.941400
-9.883500 25.767700
-9.863600 3.560800
-9.843700 3.560800
-9.823900 3.560800
-9.804000 3.560800
-9.784100 3.560800
-9.764200 3.560800
-9.744400 3.560800
-9.724500 3.560800
-9.704600 3.560800
-9.684700 3.560800
-9.664900 55.107100
-9.645000 1.619300
-9.625100 1.619300
-9.605200 1.619300
-9.585400 1.619300
-9.565500 1.619300
-9.545600 1.619300
-9.525700 1.619300
-9.505900 1.619300
-9.486000 1.619300
-9.466100 1.619300
-9.446200 1.619300
-9.426400 1.619300
-9.406500 1.619200
-9.386600 1.619200
-9.366800 1.619200
-9.346900 1.619200
-9.327000 1.619200
-9.307100 1.619200
-9.287300 1.619200
-9.267400 12.870900
-9.247500 0.000000
-9.227600 0.000000
-9.207800 0.000000
-9.187900 0.000000
-9.168000 0.000000
-9.148100 0.000000
-9.128300 0.000000
-9.108400 0.000000
-9.088500 0.000000
-9.068600 0.000000
-9.048800 0.000000
-9.028900 0.000000
-9.009000 0.000000
-8.989100 0.000000
-8.969300 0.000000
-8.949400 0.000000
-8.929500 0.000000
-8.909600 0.000000
-8.889800 0.000000
-8.869900 0.000000
-8.850000 0.000000
-8.830200 0.000000
-8.810300 0.000000
-8.790400 0.000000
-8.770500 0.000000
-8.750700 0.000000
-8.730800 0.000000
-8.710900 0.000000
-8.691000 0.000000
-8.671200 0.000000
-8.651300 0.000000
-8.631400 0.000000
-8.611500 0.000000
-8.591700 0.000000
-8.571800 0.000000
-8.551900 0.000000
-8.532000 0.000000
-8.512200 0.000000
-8.492300 0.000000
-8.472400 0.000000
-8.452500 0.000000
-8.432700 0.000000
-8.412800 0.000000
-8.392900 0.000000
-8.373100 0.000000
-8.353200 0.000000
-8.333300 0.000000
-8.313400 0.000000
-8.293600 0.000000
-8.273700 0.000000
-8.253800 0.000000
-8.233900 0.000000
-8.214100 0.000000
-8.194200 0.000000
-8.174300 0.000000
-8.154400 0.000000
-8.134600 0.000000
-8.114700 0.000000
-8.094800 0.000000
-8.074900 0.000000
-8.055100 0.000000
-8.035200 0.000000
-8.015300 0.000000
-7.995400 0.000000
-7.975600 0.000000
-7.955700 0.000000
-7.935800 0.000000
-7.916000 0.000000
-7.896100 0.000000
-7.876200 0.000000
-7.856300 0.000000
-7.836500 0.000000
-7.816600 0.000000
-7.796700 0.000000
-7.776800 0.000000
-7.757000 0.000000
-7.737100 0.000000
-7.717200 0.000000
-7.697300 0.000000
-7.677500 25.924100
-7.657600 25.883900
-7.637700 52.134100
-7.617800 0.000000
-7.598000 0.000000
-7.578100 0.000000
-7.558200 0.000000
-7.538300 0.000000
-7.518500 0.000000
-7.498600 0.000000
-7.478700 0.000000
-7.458800 0.000000
-7.439000 15.746200
-7.419100 3.362500
-7.399200 3.362400
-7.379400 3.362200
-7.359500 3.362100
-7.339600 3.361900
-7.319700 3.361700
-7.299900 3.361600
-7.280000 16.991800
-7.260100 41.485000
-7.240200 7.256500
-7.220400 7.255500
-7.200500 7.254400
-7.180600 7.253400
-7.160700 7.252400
-7.140900 15.724400
-7.121000 3.890100
-7.101100 3.889300
-7.081200 3.888400
-7.061400 3.887600
-7.041500 17.375400
-7.021600 8.123300
-7.001700 8.621500
-6.981900 0.000000
-6.962000 0.000000
-6.942100 0.000000
-6.922300 0.000000
-6.902400 0.000000
-6.882500 0.000000
-6.862600 0.000000
-6.842800 0.000000
-6.822900 0.000000
-6.803000 0.000000
-6.783100 0.000000
-6.763300 0.000000
-6.743400 0.000000
-6.723500 0.000000
-6.703600 0.000000
-6.683800 40.953000
-6.663900 5.724200
-6.644000 5.721500
-6.624100 5.718900
-6.604300 5.716300
-6.584400 19.070100
-6.564500 27.360300
-6.544600 16.932000
-6.524800 22.118700
-6.504900 23.411600
-6.485000 20.308800
-6.465100 27.713100
-6.445300 16.834000
-6.425400 20.035000
-6.405500 8.540000
-6.385700 8.538600
-6.365800 8.537300
-6.345900 8.535900
-6.326000 8.534600
-6.306200 13.780300
-6.286300 36.405500
-6.266400 9.066900
-6.246500 10.441800
-6.226700 0.000000
-6.206800 0.000000
-6.186900 0.000000
-6.167000 0.000000
-6.147200 29.477500
-6.127300 15.185700
-6.107400 20.916600
-6.087500 51.619300
-6.067700 8.460700
-6.047800 28.728000
-6.027900 9.480600
-6.008000 9.492700
-5.988200 28.596000
-5.968300 30.437200
-5.948400 70.608100
-5.928600 179.447400
-5.908700 38.042900
-5.888800 10.592200
-5.868900 14.137700
-5.849100 50.817300
-5.829200 23.874500
-5.809300 0.000000
-5.789400 0.000000
-5.769600 0.000000
-5.749700 0.000000
-5.729800 0.000000
-5.709900 0.000000
-5.690100 0.000000
-5.670200 0.000000
-5.650300 0.000000
-5.630400 0.000000
-5.610600 0.000000
-5.590700 0.000000
-5.570800 0.000000
-5.550900 0.000000
-5.531100 0.000000
-5.511200 0.000000
-5.491300 0.000000
-5.471500 0.000000
-5.451600 0.000000
-5.431700 0.000000
-5.411800 0.000000
-5.392000 0.000000
-5.372100 0.000000
-5.352200 0.000000
-5.332300 0.000000
-5.312500 0.000000
-5.292600 10.414400
-5.272700 28.888500
-5.252800 70.695100
-5.233000 4.222900
-5.213100 14.103100
-5.193200 41.978300
-5.173300 12.584100
-5.153500 18.936600
-5.133600 14.741400
-5.113700 17.360600
-5.093800 22.498200
-5.074000 30.362300
-5.054100 24.801200
-5.034200 13.755600
-5.014300 7.980700
-4.994500 7.977600
-4.974600 7.985300
-4.954700 10.159500
-4.934900 24.349700
-4.915000 0.000000
-4.895100 10.450100
-4.875200 8.302600
-4.855400 14.528800
-4.835500 5.426400
-4.815600 7.703900
-4.795700 9.193300
-4.775900 14.951200
-4.756000 8.279500
-4.736100 8.110000
-4.716200 8.190300
-4.696400 8.293400
-4.676500 8.443400
-4.656600 8.728700
-4.636700 14.490700
-4.616900 16.647100
-4.597000 20.592400
-4.577100 28.309800
-4.557200 26.199000
-4.537400 9.512500
-4.517500 8.834500
-4.497600 13.875800
-4.477800 15.538200
-4.457900 15.339100
-4.438000 12.257000
-4.418100 17.892700
-4.398300 14.983100
-4.378400 16.035500
-4.358500 14.945500
-4.338600 8.922600
-4.318800 8.284300
-4.298900 7.387700
-4.279000 4.985600
-4.259100 4.928900
-4.239300 4.871700
-4.219400 4.814000
-4.199500 12.894000
-4.179600 9.207300
-4.159800 10.070700
-4.139900 8.496900
-4.120000 9.065500
-4.100100 12.246900
-4.080300 13.836900
-4.060400 22.011300
-4.040500 16.930500
-4.020600 3.779700
-4.000800 3.982800
-3.980900 4.185100
-3.961000 5.904500
-3.941200 12.066400
-3.921300 16.936200
-3.901400 3.721700
-3.881500 8.464800
-3.861700 7.588100
-3.841800 8.163400
-3.821900 9.442000
-3.802000 10.738100
-3.782200 13.152200
-3.762300 68.122400
-3.742400 18.659900
-3.722500 12.551600
-3.702700 18.576500
-3.682800 27.392200
-3.662900 9.480600
-3.643000 7.912100
-3.623200 4.822400
-3.603300 4.117600
-3.583400 3.425000
-3.563500 0.000000
-3.543700 0.000000
-3.523800 0.000000
-3.503900 0.000000
-3.484100 0.000000
-3.464200 0.000000
-3.444300 32.622200
-3.424400 6.198900
-3.404600 7.362700
-3.384700 8.225100
-3.364800 9.000100
-3.344900 19.104900
-3.325100 23.108000
-3.305200 14.662200
-3.285300 13.789200
-3.265400 12.960200
-3.245600 17.892900
-3.225700 11.476000
-3.205800 10.128000
-3.185900 8.902000
-3.166100 10.292100
-3.146200 4.643000
-3.126300 4.195700
-3.106400 5.005600
-3.086600 0.000000
-3.066700 0.000000
-3.046800 33.055300
-3.027000 29.233600
-3.007100 25.068700
-2.987200 21.799300
-2.967300 38.095900
-2.947500 28.803800
-2.927600 14.709800
-2.907700 18.955000
-2.887800 21.352800
-2.868000 21.559900
-2.848100 25.592500
-2.828200 15.775000
-2.808300 37.960800
-2.788500 15.691600
-2.768600 34.265100
-2.748700 18.246000
-2.728800 9.310500
-2.709000 20.142100
-2.689100 56.833800
-2.669200 43.059200
-2.649300 26.299100
-2.629500 30.552100
-2.609600 36.190700
-2.589700 43.765100
-2.569800 44.598600
-2.550000 41.938400
-2.530100 17.141800
-2.510200 25.113400
-2.490400 0.000000
-2.470500 13.424000
-2.450600 26.651700
-2.430700 29.114200
-2.410900 18.496700
-2.391000 9.722700
-2.371100 1.016400
-2.351200 7.130500
-2.331400 33.835100
-2.311500 20.679400
-2.291600 15.913800
-2.271700 61.660600
-2.251900 38.265100
-2.232000 41.226900
-2.212100 66.392800
-2.192200 13.576200
-2.172400 32.577100
-2.152500 74.965700
-2.132600 42.408300
-2.112700 64.860100
-2.092900 57.321700
-2.073000 22.388400
-2.053100 39.000500
-2.033300 37.264600
-2.013400 46.937000
-1.993500 70.145100
-1.973600 59.834100
-1.953800 98.613700
-1.933900 28.299300
-1.914000 25.370800
-1.894100 168.700900
-1.874300 30.235700
-1.854400 35.284400
-1.834500 7.380700
-1.814600 31.795900
-1.794800 19.309700
-1.774900 26.525500
-1.755000 20.607700
-1.735100 21.272700
-1.715300 54.591200
-1.695400 23.775600
-1.675500 50.627000
-1.655600 61.380600
-1.635800 37.731600
-1.615900 20.558000
-1.596000 86.568200
-1.576100 54.916500
-1.556300 67.870500
-1.536400 93.053300
-1.516500 44.546900
-1.496700 43.955900
-1.476800 30.794900
-1.456900 26.268700
-1.437000 13.443000
-1.417200 34.845300
-1.397300 16.877900
-1.377400 16.443400
-1.357500 44.841700
-1.337700 36.795300
-1.317800 21.871300
-1.297900 28.254700
-1.278000 7.438900
-1.258200 0.000000
-1.238300 0.000000
-1.218400 0.000000
-1.198500 0.000000
-1.178700 0.000000
-1.158800 0.000000
-1.138900 0.000000
-1.119000 0.000000
-1.099200 0.000000
-1.079300 0.000000
-1.059400 0.000000
-1.039600 0.000000
-1.019700 0.000000
-0.999800 0.000000
-0.979900 0.000000
-0.960100 0.000000
-0.940200 0.000000
-0.920300 0.000000
-0.900400 0.000000
-0.880600 0.000000
-0.860700 0.000000
-0.840800 0.000000
-0.820900 0.000000
-0.801100 0.000000
-0.781200 0.000000
-0.761300 0.000000
-0.741400 0.000000
-0.721600 0.000000
-0.701700 0.000000
-0.681800 0.000000
-0.661900 0.000000
-0.642100 0.000000
-0.622200 0.000000
-0.602300 0.000000
-0.582500 0.000000
-0.562600 0.000000
-0.542700 0.000000
-0.522800 0.000000
-0.503000 0.000000
-0.483100 0.000000
-0.463200 0.000000
-0.443300 0.000000
-0.423500 0.000000
-0.403600 0.000000
-0.383700 0.000000
-0.363800 0.000000
-0.344000 0.000000
-0.324100 0.000000
-0.304200 0.000000
-0.284300 0.000000
-0.264500 0.000000
-0.244600 0.000000
-0.224700 0.000000
-0.204800 0.000000
-0.185000 0.000000
-0.165100 0.000000
-0.145200 0.000000
-0.125300 0.000000
-0.105500 0.000000
-0.085600 0.000000
-0.065700 0.000000
-0.045900 0.000000
-0.026000 0.000000
-0.006100 0.000000
0.013800 0.000000
0.033600 0.000000
0.053500 0.000000
0.073400 0.000000
0.093300 0.000000
0.113100 0.000000
0.133000 0.000000
0.152900 0.000000
0.172800 0.000000
0.192600 0.000000
0.212500 0.000000
0.232400 0.000000
0.252300 0.000000
0.272100 0.000000
0.292000 0.000000
0.311900 0.000000
0.331800 0.000000
0.351600 0.000000
0.371500 0.000000
0.391400 0.000000
0.411200 0.000000
0.431100 0.000000
0.451000 0.000000
0.470900 0.000000
0.490700 0.000000
0.510600 0.000000
0.530500 0.000000
0.550400 0.000000
0.570200 0.000000
0.590100 0.000000
0.610000 0.000000
0.629900 0.000000
0.649700 0.000000
0.669600 0.000000
0.689500 0.000000
0.709400 0.000000
0.729200 0.000000
0.749100 0.000000
0.769000 0.000000
0.788900 0.000000
0.808700 0.000000
0.828600 0.000000
0.848500 0.000000
0.868400 0.000000
0.888200 0.000000
0.908100 0.000000
0.928000 0.000000
0.947800 0.000000
0.967700 0.000000
0.987600 0.000000
1.007500 0.000000
1.027300 0.000000
1.047200 0.000000
1.067100 0.000000
1.087000 0.000000
1.106800 0.000000
1.126700 0.000000
1.146600 0.000000
1.166500 0.000000
1.186300 0.000000
1.206200 0.000000
1.226100 0.000000
1.246000 0.000000
1.265800 0.000000
1.285700 0.000000
1.305600 0.000000
1.325500 0.000000
1.345300 0.000000
1.365200 0.000000
1.385100 0.000000
1.404900 0.000000
1.424800 0.000000
1.444700 0.000000
1.464600 0.000000
1.484400 0.000000
1.504300 0.000000
1.524200 0.000000
1.544100 0.000000
1.563900 0.000000
1.583800 0.000000
1.603700 0.000000
1.623600 0.000000
1.643400 0.000000
1.663300 0.000000
1.683200 0.000000
1.703100 0.000000
1.722900 0.000000
1.742800 0.000000
1.762700 21.353800
1.782600 10.740700
1.802400 11.989500
1.822300 7.335900
1.842200 7.304600
1.862000 7.273800
1.881900 16.222700
1.901800 32.796600
1.921700 10.122800
1.941500 9.427300
1.961400 17.882000
1.981300 2.999500
2.001200 2.999500
2.021000 2.999500
2.040900 19.158800
2.060800 11.943200
2.080700 13.857200
2.100500 26.559100
2.120400 6.570500
2.140300 6.570400
2.160200 6.570400
2.180000 6.570400
2.199900 6.570400
2.219800 6.570400
2.239700 31.301900
2.259500 3.569600
2.279400 3.569400
2.299300 3.569300
2.319200 3.569100
2.339000 3.569000
2.358900 3.568800
2.378800 3.568600
2.398600 3.568500
2.418500 3.568300
2.438400 3.568200
2.458300 3.568100
2.478100 3.567900
2.498000 9.905100
2.517900 6.569100
2.537800 7.545700
2.557600 17.841300
2.577500 1.476900
2.597400 4.575200
2.617300 4.767500
2.637100 4.959700
2.657000 5.389200
2.676900 8.524200
2.696800 8.931700
2.716600 6.618800
2.736500 7.234600
2.756400 15.630500
2.776300 31.477500
2.796100 3.769700
2.816000 3.769900
2.835900 3.770000
2.855700 3.770200
2.875600 3.770300
2.895500 3.770500
2.915400 3.770600
2.935200 3.770800
2.955100 3.771000
2.975000 3.771100
2.994900 3.771300
3.014700 3.771400
3.034600 3.771600
3.054500 3.771700
3.074400 3.771900
3.094200 3.772100
3.114100 3.772200
3.134000 3.772400
3.153900 7.479900
3.173700 7.185700
3.193600 9.329500
3.213500 8.806200
3.233400 3.726000
3.253200 3.697200
3.273100 8.923900
3.293000 13.985800
3.312900 12.690700
3.332700 14.029000
3.352600 16.208100
3.372500 48.323700
3.392300 17.490100
3.412200 14.576800
3.432100 14.247900
3.452000 12.654900
3.471800 11.283000
3.491700 10.043400
3.511600 5.443100
3.531500 4.712900
3.551300 17.051400
3.571200 0.000000
3.591100 0.000000
3.611000 0.000000
3.630800 0.000000
3.650700 0.000000
3.670600 0.000000
3.690500 0.000000
3.710300 0.000000
3.730200 0.000000
3.750100 0.000000
3.770000 0.000000
3.789800 0.000000
3.809700 0.000000
3.829600 0.000000
3.849400 0.000000
3.869300 0.000000
3.889200 0.000000
3.909100 5.636100
3.928900 6.292700
3.948800 8.150000
3.968700 3.644800
3.988600 3.640400
4.008400 3.636200
4.028300 3.632000
4.048200 3.628000
4.068100 3.624100
4.087900 14.913700
4.107800 17.054100
4.127700 9.114100
4.147600 17.988800
4.167400 12.939800
4.187300 12.912600
4.207200 12.890600
4.227100 15.801100
4.246900 29.009300
4.266800 16.636600
4.286700 12.578300
4.306500 16.002200
4.326400 7.216000
4.346300 7.419400
4.366200 10.377000
4.386000 10.334700
4.405900 11.621100
4.425800 17.660200
4.445700 9.614700
4.465500 9.449300
4.485400 27.949200
4.505300 18.945000
4.525200 7.769600
4.545000 8.521900
4.564900 0.000000
4.584800 0.000000
4.604700 0.000000
4.624500 0.000000
4.644400 0.000000
4.664300 0.000000
4.684200 0.000000
4.704000 0.000000
4.723900 12.037800
4.743800 5.043300
4.763700 7.174100
4.783500 1.835900
4.803400 1.832100
4.823300 14.801400
4.843100 12.706700
4.863000 14.841800
4.882900 4.759500
4.902800 4.753400
4.922600 7.321600
4.942500 8.965600
4.962400 9.106800
4.982300 15.544600
5.002100 6.258400
5.022000 6.252700
5.041900 6.252300
5.061800 6.257500
5.081600 6.268400
5.101500 6.285000
5.121400 6.306300
5.141300 6.331000
5.161100 6.380700
5.181000 6.467000
5.200900 6.506700
5.220800 6.558300
5.240600 6.621600
5.260500 6.707300
5.280400 6.857300
5.300200 6.954900
5.320100 7.056400
5.340000 8.505400
5.359900 8.788700
5.379700 9.335900
5.399600 9.491500
5.419500 8.312300
5.439400 8.556500
5.459200 8.473800
5.479100 9.321600
5.499000 9.354200
5.518900 9.403900
5.538700 9.470900
5.558600 8.218400
5.578500 7.142500
5.598400 7.237100
5.618200 4.520600
5.638100 20.848300
5.658000 2.266800
5.677900 2.269700
5.697700 36.609600
5.717600 8.384200
5.737500 17.905800
5.757400 39.400500
5.777200 21.934700
5.797100 40.335700
5.817000 17.707300
5.836800 17.103000
5.856700 24.612200
5.876600 24.395800
5.896500 0.000000
5.916300 0.000000
5.936200 22.371700
5.956100 26.212600
5.976000 32.853600
5.995800 33.373300
6.015700 36.511400
6.035600 16.498900
6.055500 15.671600
6.075300 5.300600
6.095200 6.670400
6.115100 3.312500
6.135000 8.741800
6.154800 12.299400
6.174700 15.922500
6.194600 24.913100
6.214500 39.771200
6.234300 33.657400
6.254200 12.113800
6.274100 16.057800
6.293900 25.426600
6.313800 28.792800
6.333700 22.052100
6.353600 13.659000
6.373400 14.267400
6.393300 14.332400
6.413200 16.655000
6.433100 21.493500
6.452900 32.624800
6.472800 13.414000
6.492700 5.133800
6.512600 0.000000
6.532400 0.000000
6.552300 0.000000
6.572200 0.000000
6.592100 0.000000
6.611900 0.000000
6.631800 0.000000
6.651700 0.000000
6.671600 0.000000
6.691400 0.000000
6.711300 0.000000
6.731200 0.000000
6.751000 0.000000
6.770900 0.000000
6.790800 0.000000
6.810700 0.000000
6.830500 0.000000
6.850400 0.000000
6.870300 0.000000
6.890200 0.000000
6.910000 0.000000
6.929900 0.000000
6.949800 0.000000
6.969700 0.000000
6.989500 0.000000
7.009400 0.000000
7.029300 0.000000
7.049200 0.000000
7.069000 0.000000
7.088900 0.000000
7.108800 0.000000
7.128700 0.000000
7.148500 0.000000
7.168400 0.000000
7.188300 0.000000
7.208200 0.000000
7.228000 0.000000
7.247900 0.000000
7.267800 0.000000
7.287600 0.000000
7.307500 12.564200
7.327400 8.134000
7.347300 8.596600
7.367100 10.308500
7.387000 12.020700
7.406900 13.837000
7.426800 19.323700
7.446600 19.630500
7.466500 15.891200
7.486400 15.981800
7.506300 22.498800
7.526100 21.638000
7.546000 20.075300
7.565900 17.038700
7.585800 18.500400
7.605600 21.549300
7.625500 14.853300
7.645400 31.462300
7.665300 11.086100
7.685100 11.104000
7.705000 26.113100
7.724900 15.299700
7.744700 20.808700
7.764600 20.886000
7.784500 0.000000
7.804400 0.000000
7.824200 0.000000
7.844100 0.000000
7.864000 0.000000
7.883900 0.000000
7.903700 0.000000
7.923600 0.000000
7.943500 0.000000
7.963400 0.000000
7.983200 2.822800
8.003100 3.748200
8.023000 1.793300
8.042900 1.930000
8.062700 2.066500
8.082600 2.203100
8.102500 2.339600
8.122400 2.476000
8.142200 2.612300
8.162100 2.748700
8.182000 8.534400
8.201900 4.413100
8.221700 5.068700
8.241600 5.849000
8.261500 5.381000
8.281300 5.578800
8.301200 10.336000
8.321100 4.460100
8.341000 4.382700
8.360800 4.306900
8.380700 4.232700
8.400600 4.160100
8.420500 4.059000
8.440300 3.819500
8.460200 3.653400
8.480100 3.592500
8.500000 3.519200
8.519800 3.433600
8.539700 3.335700
8.559600 3.225500
8.579500 3.024600
8.599300 2.782700
8.619200 2.783400
8.639100 2.784100
8.659000 2.784800
8.678800 2.785500
8.698700 3.784600
8.718600 3.885800
8.738400 5.755900
8.758300 6.494200
8.778200 6.411500
8.798100 5.417100
8.817900 5.496000
8.837800 5.599300
8.857700 5.726900
8.877600 5.878900
8.897400 8.518300
8.917300 8.678600
8.937200 6.681300
8.957100 5.729400
8.976900 5.759500
8.996800 5.742000
9.016700 5.677400
9.036600 5.810900
9.056400 2.386800
9.076300 10.239600
9.096200 3.757900
9.116100 3.806200
9.135900 3.864600
9.155800 3.933000
9.175700 4.011400
9.195500 4.126900
9.215400 4.253400
9.235300 4.380600
9.255200 4.508400
9.275000 4.636900
9.294900 4.766100
9.314800 10.086600
9.334700 6.676900
9.354500 9.136800
9.374400 8.702200
9.394300 8.296800
9.414200 8.007100
9.434000 7.833000
9.453900 10.051700
9.473800 11.968100
9.493700 13.743200
9.513500 6.790700
9.533400 3.533900
9.553300 2.930100
9.573200 3.112000
9.593000 10.064800
9.612900 7.070100
9.632800 6.046200
9.652700 5.024300
9.672500 7.225700
9.692400 9.190100
9.712300 11.989600
9.732100 17.809300
9.752000 11.538000
9.771900 7.381600
9.791800 7.120900
9.811600 6.857800
9.831500 9.567300
9.851400 9.152100
9.871300 7.014800
9.891100 6.978400
9.911000 6.810900
9.930900 6.780900
9.950800 5.319900
9.970600 5.300700
9.990500 11.318000
10.010400 9.279400
10.030300 9.105400
10.050100 8.961600
10.070000 11.210400
10.089900 10.567200
10.109800 10.571900
10.129600 13.615900
10.149500 13.216800
10.169400 13.215200
10.189200 13.356100
10.209100 33.012000
10.229000 19.533900
10.248900 22.982800
10.268700 9.497700
10.288600 10.809700
10.308500 10.640600
10.328400 10.463400
10.348200 9.376700
10.368100 7.786600
10.388000 5.323100
10.407900 3.849500
10.427700 2.118100
10.447600 10.354900
10.467500 6.720600
10.487400 6.712200
10.507200 6.709400
10.527100 6.712100
10.547000 16.536700
10.566900 11.496200
10.586700 19.795000
10.606600 7.018400
10.626500 6.996800
10.646400 8.282600
10.666200 9.866700
10.686100 12.614800
10.706000 19.629000
10.725800 12.538200
10.745700 10.674400
10.765600 11.474300
10.785500 16.192200
10.805300 12.321000
10.825200 14.181400
10.845100 18.375400
10.865000 14.446000
10.884800 13.401000
10.904700 16.988200
10.924600 17.795600
10.944500 16.008600
10.964300 14.806300
10.984200 10.148700
11.004100 10.483100
11.024000 13.938300
11.043800 14.551600
11.063700 19.577500
11.083600 16.466300
11.103500 15.544300
11.123300 10.366400
11.143200 11.020200
11.163100 11.736900
11.182900 16.114500
11.202800 12.862600
11.222700 13.970200
11.242600 14.915200
11.262400 18.233000
11.282300 16.635500
11.302200 11.394700
11.322100 13.758900
11.341900 9.562800
11.361800 9.354700
11.381700 9.219000
11.401600 9.739800
11.421400 8.779300
11.441300 8.221900
11.461200 7.095100
11.481100 16.898100
11.500900 4.617500
11.520800 4.852000
11.540700 4.809600
11.560600 4.811000
11.580400 4.856400
11.600300 8.143200
11.620200 8.182100
11.640000 9.744400
11.659900 8.018500
11.679800 8.164400
11.699700 4.498200
11.719500 4.966600
11.739400 3.937700
11.759300 4.756600
11.779200 5.664400
11.799000 9.427100
11.818900 14.087600
11.838800 22.644900
11.858700 10.280500
11.878500 9.471900
11.898400 9.436900
11.918300 10.606200
11.938200 9.967400
11.958000 7.322400
11.977900 5.052200
11.997800 4.828600
12.017700 4.595900
12.037500 3.949900
12.057400 6.533100
12.077300 9.082500
12.097200 12.861100
12.117000 15.194400
12.136900 16.122100
12.156800 21.606800
12.176600 8.802400
12.196500 12.870200
12.216400 17.870800
12.236300 14.073300
12.256100 13.254600
12.276000 12.889100
12.295900 15.235600
12.315800 16.051600
12.335600 16.449100
12.355500 16.929000
12.375400 16.541000
12.395300 19.477500
12.415100 16.326100
12.435000 17.300000
12.454900 11.729800
12.474800 11.595100
12.494600 11.541600
12.514500 11.464300
12.534400 10.397200
12.554300 18.858000
12.574100 12.451400
12.594000 16.503100
12.613900 19.688500
12.633700 10.938300
12.653600 10.296200
12.673500 10.244300
12.693400 11.348200
12.713200 13.653500
12.733100 12.684800
12.753000 12.082200
12.772900 17.233100
12.792700 16.596900
12.812600 14.118500
12.832500 19.816800
12.852400 22.771700
12.872200 14.860600
12.892100 15.848800
12.912000 15.500400
12.931900 25.874700
12.951700 21.001200
12.971600 17.714200
12.991500 16.251400
13.011400 11.486400
13.031200 26.841000
13.051100 20.226200
13.071000 22.004500
13.090900 22.005800
13.110700 20.943600
13.130600 14.857900
13.150500 14.708900
13.170300 20.423300
13.190200 19.935400
13.210100 14.184000
13.230000 10.120900
13.249800 10.202200
13.269700 16.291800
13.289600 10.809900
13.309500 9.940300
13.329300 7.032300
13.349200 7.405700
13.369100 8.181900
13.389000 9.241600
13.408800 10.140800
13.428700 27.701600
13.448600 26.975800
13.468500 25.497000
13.488300 25.334100
13.508200 13.088100
13.528100 14.652600
13.548000 10.841000
13.567800 25.501800
13.587700 23.713600
13.607600 8.667800
13.627400 7.446400
13.647300 6.275900
13.667200 7.589600
13.687100 10.249700
13.706900 9.677800
13.726800 17.087300
13.746700 21.884300
13.766600 19.673800
13.786400 14.547100
13.806300 10.898300
13.826200 7.126500
13.846100 4.766800
13.865900 8.233700
13.885800 13.317500
13.905700 16.142200
13.925600 16.589900
13.945400 16.542900
13.965300 12.478000
13.985200 3.713000
14.005100 1.937700
14.024900 0.895000
14.044800 0.000000
14.064700 0.000000
14.084500 0.000000
14.104400 0.000000
14.124300 0.000000
14.144200 0.000000
14.164000 0.000000
14.183900 0.000000
14.203800 0.000000
14.223700 0.000000
14.243500 0.000000
14.263400 0.000000
14.283300 0.000000
14.303200 0.000000
14.323000 0.000000
14.342900 0.000000
14.362800 0.000000
14.382700 0.000000
14.402500 0.000000
14.422400 0.000000
14.442300 0.000000
14.462200 0.000000
14.482000 0.000000
14.501900 0.000000
14.521800 0.000000
14.541700 0.000000
14.561500 0.000000
14.581400 0.000000
14.601300 0.000000
14.621100 0.000000
14.641000 0.000000
14.660900 0.000000
14.680800 0.000000
14.700600 0.000000
14.720500 0.000000
14.740400 0.000000
14.760300 0.000000
14.780100 0.000000
14.800000 0.000000
14.819900 0.000000
14.839800 0.000000
14.859600 0.000000
14.879500 0.000000
14.899400 0.000000
14.919300 0.000000
14.939100 0.000000
14.959000 0.000000
14.978900 0.000000
14.998800 0.000000
15.018600 0.000000
15.038500 0.000000
15.058400 0.000000
15.078200 0.000000
15.098100 0.000000
15.118000 0.000000
15.137900 0.000000
15.157700 0.000000
15.177600 0.000000
15.197500 0.000000
15.217400 0.000000
15.237200 0.000000
15.257100 0.000000
15.277000 0.000000
15.296900 0.000000
15.316700 0.000000
15.336600 0.000000
15.356500 0.000000
15.376400 0.000000
15.396200 0.000000
15.416100 0.000000
15.436000 0.000000
15.455900 0.000000
15.475700 0.000000
15.495600 0.000000
15.515500 0.000000
15.535400 0.000000
15.555200 0.000000
15.575100 0.000000
15.595000 0.000000
15.614800 0.000000
15.634700 0.000000
15.654600 0.000000
15.674500 0.000000
15.694300 0.000000
15.714200 0.000000
15.734100 0.000000
15.754000 0.000000
15.773800 0.000000
15.793700 0.000000
15.813600 0.000000
15.833500 0.000000
e
