set title 'mp-1207380 - Density of States'
set xlabel 'Energy (eV)'
set ylabel 'DOS (states/eV)'
set grid
set xrange [-10:10]
set yrange [0:44.484]
set xzeroaxis lt -1
set terminal png size 800,600
set output 'mp-1207380_dos_gnuplot.png'
plot '-' using 1:2 with lines title 'DOS'
-46.391700 0.000000
-46.342000 0.000000
-46.292200 0.000000
-46.242400 0.000000
-46.192700 0.000000
-46.142900 0.000000
-46.093200 0.000000
-46.043400 0.000000
-45.993600 0.000000
-45.943900 0.000000
-45.894100 0.000000
-45.844400 0.000000
-45.794600 0.000000
-45.744800 0.000000
-45.695100 0.000000
-45.645300 0.000000
-45.595600 0.000000
-45.545800 0.000000
-45.496000 0.000000
-45.446300 0.000000
-45.396500 0.000000
-45.346800 0.000000
-45.297000 0.000000
-45.247200 0.000000
-45.197500 0.000000
-45.147700 0.000000
-45.098000 0.000000
-45.048200 0.000000
-44.998400 0.000000
-44.948700 0.000000
-44.898900 0.000000
-44.849100 0.000000
-44.799400 0.000000
-44.749600 0.000000
-44.699900 0.000000
-44.650100 0.000000
-44.600300 0.000000
-44.550600 0.000000
-44.500800 0.000000
-44.451100 0.000000
-44.401300 0.000000
-44.351500 0.000000
-44.301800 0.000000
-44.252000 0.000000
-44.202300 0.000000
-44.152500 0.000000
-44.102700 0.000000
-44.053000 0.000000
-44.003200 0.000000
-43.953500 0.000000
-43.903700 0.000000
-43.853900 0.000000
-43.804200 0.000000
-43.754400 0.000000
-43.704600 0.000000
-43.654900 0.000000
-43.605100 0.000000
-43.555400 0.000000
-43.505600 0.000000
-43.455800 0.000000
-43.406100 0.000000
-43.356300 0.000000
-43.306600 0.000000
-43.256800 0.000000
-43.207000 0.000000
-43.157300 0.000000
-43.107500 0.000000
-43.057800 0.000000
-43.008000 0.000000
-42.958200 0.000000
-42.908500 0.000000
-42.858700 0.000000
-42.809000 0.000000
-42.759200 0.000000
-42.709400 0.000000
-42.659700 0.000000
-42.609900 0.000000
-42.560100 0.000000
-42.510400 0.000000
-42.460600 0.000000
-42.410900 0.000000
-42.361100 0.000000
-42.311300 0.000000
-42.261600 0.000000
-42.211800 0.000000
-42.162100 0.000000
-42.112300 0.000000
-42.062500 0.000000
-42.012800 0.000000
-41.963000 0.000000
-41.913300 0.000000
-41.863500 11.756500
-41.813700 37.718900
-41.764000 13.704300
-41.714200 0.000000
-41.664500 0.000000
-41.614700 0.000000
-41.564900 0.000000
-41.515200 0.000000
-41.465400 0.000000
-41.415700 0.000000
-41.365900 0.000000
-41.316100 0.000000
-41.266400 0.000000
-41.216600 0.000000
-41.166800 0.000000
-41.117100 0.000000
-41.067300 0.000000
-41.017600 0.000000
-40.967800 0.000000
-40.918000 0.000000
-40.868300 0.000000
-40.818500 0.000000
-40.768800 0.000000
-40.719000 0.000000
-40.669200 0.000000
-40.619500 0.000000
-40.569700 0.000000
-40.520000 0.000000
-40.470200 0.000000
-40.420400 0.000000
-40.370700 0.000000
-40.320900 0.000000
-40.271200 0.000000
-40.221400 0.000000
-40.171600 0.000000
-40.121900 0.000000
-40.072100 0.000000
-40.022300 0.000000
-39.972600 0.000000
-39.922800 0.000000
-39.873100 0.000000
-39.823300 0.000000
-39.773500 0.000000
-39.723800 0.000000
-39.674000 0.000000
-39.624300 0.000000
-39.574500 0.000000
-39.524700 0.000000
-39.475000 0.000000
-39.425200 0.000000
-39.375500 0.000000
-39.325700 0.000000
-39.275900 0.000000
-39.226200 0.000000
-39.176400 0.000000
-39.126700 0.000000
-39.076900 0.000000
-39.027100 0.000000
-38.977400 0.000000
-38.927600 0.000000
-38.877800 0.000000
-38.828100 0.000000
-38.778300 0.000000
-38.728600 0.000000
-38.678800 0.000000
-38.629000 0.000000
-38.579300 0.000000
-38.529500 0.000000
-38.479800 0.000000
-38.430000 0.000000
-38.380200 0.000000
-38.330500 0.000000
-38.280700 0.000000
-38.231000 0.000000
-38.181200 0.000000
-38.131400 0.000000
-38.081700 0.000000
-38.031900 0.000000
-37.982200 0.000000
-37.932400 0.000000
-37.882600 0.000000
-37.832900 0.000000
-37.783100 0.000000
-37.733400 0.000000
-37.683600 0.000000
-37.633800 0.000000
-37.584100 0.000000
-37.534300 0.000000
-37.484500 0.000000
-37.434800 0.000000
-37.385000 0.000000
-37.335300 0.000000
-37.285500 0.000000
-37.235700 0.000000
-37.186000 0.000000
-37.136200 0.000000
-37.086500 0.000000
-37.036700 0.000000
-36.986900 0.000000
-36.937200 0.000000
-36.887400 0.000000
-36.837700 0.000000
-36.787900 0.000000
-36.738100 0.000000
-36.688400 0.000000
-36.638600 0.000000
-36.588900 0.000000
-36.539100 0.000000
-36.489300 0.000000
-36.439600 0.000000
-36.389800 0.000000
-36.340000 0.000000
-36.290300 0.000000
-36.240500 0.000000
-36.190800 0.000000
-36.141000 0.000000
-36.091200 0.000000
-36.041500 0.000000
-35.991700 0.000000
-35.942000 0.000000
-35.892200 0.000000
-35.842400 0.000000
-35.792700 0.000000
-35.742900 0.000000
-35.693200 0.000000
-35.643400 0.000000
-35.593600 0.000000
-35.543900 0.000000
-35.494100 0.000000
-35.444400 0.000000
-35.394600 0.000000
-35.344800 0.000000
-35.295100 0.000000
-35.245300 0.000000
-35.195500 0.000000
-35.145800 0.000000
-35.096000 0.000000
-35.046300 0.000000
-34.996500 0.000000
-34.946700 0.000000
-34.897000 0.000000
-34.847200 0.000000
-34.797500 0.000000
-34.747700 0.000000
-34.697900 0.000000
-34.648200 0.000000
-34.598400 0.000000
-34.548700 0.000000
-34.498900 0.000000
-34.449100 0.000000
-34.399400 0.000000
-34.349600 0.000000
-34.299900 0.000000
-34.250100 0.000000
-34.200300 0.000000
-34.150600 0.000000
-34.100800 0.000000
-34.051100 0.000000
-34.001300 0.000000
-33.951500 0.000000
-33.901800 0.000000
-33.852000 0.000000
-33.802200 0.000000
-33.752500 0.000000
-33.702700 0.000000
-33.653000 0.000000
-33.603200 0.000000
-33.553400 0.000000
-33.503700 0.000000
-33.453900 0.000000
-33.404200 0.000000
-33.354400 0.000000
-33.304600 0.000000
-33.254900 0.000000
-33.205100 0.000000
-33.155400 0.000000
-33.105600 0.000000
-33.055800 0.000000
-33.006100 0.000000
-32.956300 0.000000
-32.906600 0.000000
-32.856800 0.000000
-32.807000 0.000000
-32.757300 0.000000
-32.707500 0.000000
-32.657700 0.000000
-32.608000 0.000000
-32.558200 0.000000
-32.508500 0.000000
-32.458700 0.000000
-32.408900 0.000000
-32.359200 0.000000
-32.309400 0.000000
-32.259700 0.000000
-32.209900 0.000000
-32.160100 0.000000
-32.110400 0.000000
-32.060600 0.000000
-32.010900 0.000000
-31.961100 0.000000
-31.911300 0.000000
-31.861600 0.000000
-31.811800 0.000000
-31.762100 0.000000
-31.712300 0.000000
-31.662500 0.000000
-31.612800 0.000000
-31.563000 0.000000
-31.513200 0.000000
-31.463500 0.000000
-31.413700 0.000000
-31.364000 0.000000
-31.314200 0.000000
-31.264400 0.000000
-31.214700 0.000000
-31.164900 0.000000
-31.115200 0.000000
-31.065400 0.000000
-31.015600 0.000000
-30.965900 0.000000
-30.916100 0.000000
-30.866400 0.000000
-30.816600 0.000000
-30.766800 0.000000
-30.717100 0.000000
-30.667300 0.000000
-30.617600 0.000000
-30.567800 0.000000
-30.518000 0.000000
-30.468300 0.000000
-30.418500 0.000000
-30.368800 0.000000
-30.319000 0.000000
-30.269200 0.000000
-30.219500 0.000000
-30.169700 0.000000
-30.119900 0.000000
-30.070200 0.000000
-30.020400 0.000000
-29.970700 0.000000
-29.920900 0.000000
-29.871100 0.000000
-29.821400 0.000000
-29.771600 0.000000
-29.721900 0.000000
-29.672100 0.000000
-29.622300 0.000000
-29.572600 0.000000
-29.522800 0.000000
-29.473100 0.000000
-29.423300 0.000000
-29.373500 0.000000
-29.323800 0.000000
-29.274000 0.000000
-29.224300 0.000000
-29.174500 0.000000
-29.124700 0.000000
-29.075000 0.000000
-29.025200 0.000000
-28.975400 0.000000
-28.925700 0.000000
-28.875900 0.000000
-28.826200 0.000000
-28.776400 0.000000
-28.726600 0.000000
-28.676900 0.000000
-28.627100 0.000000
-28.577400 0.000000
-28.527600 0.000000
-28.477800 0.000000
-28.428100 0.000000
-28.378300 0.000000
-28.328600 0.000000
-28.278800 0.000000
-28.229000 0.000000
-28.179300 0.000000
-28.129500 0.000000
-28.079800 0.000000
-28.030000 0.000000
-27.980200 0.000000
-27.930500 0.000000
-27.880700 0.000000
-27.830900 0.000000
-27.781200 0.000000
-27.731400 0.000000
-27.681700 0.000000
-27.631900 0.000000
-27.582100 0.000000
-27.532400 0.000000
-27.482600 0.000000
-27.432900 0.000000
-27.383100 0.000000
-27.333300 0.000000
-27.283600 0.000000
-27.233800 0.000000
-27.184100 0.000000
-27.134300 0.000000
-27.084500 0.000000
-27.034800 0.000000
-26.985000 0.000000
-26.935300 0.000000
-26.885500 0.000000
-26.835700 0.000000
-26.786000 0.000000
-26.736200 0.000000
-26.686500 0.000000
-26.636700 0.000000
-26.586900 0.000000
-26.537200 0.000000
-26.487400 0.000000
-26.437600 0.000000
-26.387900 0.000000
-26.338100 0.000000
-26.288400 0.000000
-26.238600 0.000000
-26.188800 0.000000
-26.139100 0.000000
-26.089300 0.000000
-26.039600 0.000000
-25.989800 0.000000
-25.940000 0.000000
-25.890300 0.000000
-25.840500 0.000000
-25.790800 0.000000
-25.741000 0.000000
-25.691200 0.000000
-25.641500 0.000000
-25.591700 0.000000
-25.542000 0.000000
-25.492200 0.000000
-25.442400 0.000000
-25.392700 0.000000
-25.342900 0.000000
-25.293100 0.000000
-25.243400 0.000000
-25.193600 0.000000
-25.143900 0.000000
-25.094100 0.000000
-25.044300 0.000000
-24.994600 0.000000
-24.944800 0.000000
-24.895100 0.000000
-24.845300 0.000000
-24.795500 0.000000
-24.745800 0.000000
-24.696000 0.000000
-24.646300 0.000000
-24.596500 0.000000
-24.546700 0.000000
-24.497000 0.000000
-24.447200 0.000000
-24.397500 0.000000
-24.347700 0.000000
-24.297900 0.000000
-24.248200 0.000000
-24.198400 0.000000
-24.148600 0.000000
-24.098900 0.000000
-24.049100 0.000000
-23.999400 0.000000
-23.949600 0.000000
-23.899800 0.000000
-23.850100 0.000000
-23.800300 0.000000
-23.750600 0.000000
-23.700800 0.000000
-23.651000 0.000000
-23.601300 0.000000
-23.551500 0.000000
-23.501800 0.000000
-23.452000 0.000000
-23.402200 0.000000
-23.352500 0.000000
-23.302700 0.000000
-23.253000 0.000000
-23.203200 0.000000
-23.153400 0.000000
-23.103700 0.000000
-23.053900 0.000000
-23.004200 0.000000
-22.954400 0.000000
-22.904600 0.000000
-22.854900 0.000000
-22.805100 0.000000
-22.755300 0.000000
-22.705600 0.000000
-22.655800 0.000000
-22.606100 0.000000
-22.556300 0.000000
-22.506500 0.000000
-22.456800 0.000000
-22.407000 0.000000
-22.357300 0.000000
-22.307500 0.000000
-22.257700 0.000000
-22.208000 0.000000
-22.158200 0.000000
-22.108500 0.000000
-22.058700 0.000000
-22.008900 0.000000
-21.959200 0.000000
-21.909400 0.000000
-21.859700 0.000000
-21.809900 0.000000
-21.760100 0.000000
-21.710400 0.000000
-21.660600 0.000000
-21.610800 0.000000
-21.561100 0.000000
-21.511300 0.000000
-21.461600 0.000000
-21.411800 0.000000
-21.362000 0.000000
-21.312300 0.000000
-21.262500 0.000000
-21.212800 0.000000
-21.163000 0.000000
-21.113200 0.000000
-21.063500 0.000000
-21.013700 0.000000
-20.964000 0.000000
-20.914200 0.000000
-20.864400 0.000000
-20.814700 0.000000
-20.764900 0.000000
-20.715200 0.000000
-20.665400 0.000000
-20.615600 0.000000
-20.565900 0.000000
-20.516100 0.000000
-20.466300 0.000000
-20.416600 0.000000
-20.366800 0.000000
-20.317100 0.000000
-20.267300 0.000000
-20.217500 4.582000
-20.167800 14.968700
-20.118000 21.649900
-20.068300 18.787900
-20.018500 9.209800
-19.968700 4.635500
-19.919000 6.806800
-19.869200 4.369300
-19.819500 4.448800
-19.769700 4.936100
-19.719900 5.785200
-19.670200 7.207800
-19.620400 8.870700
-19.570700 0.000000
-19.520900 0.000000
-19.471100 0.000000
-19.421400 0.000000
-19.371600 0.000000
-19.321800 0.000000
-19.272100 0.000000
-19.222300 0.000000
-19.172600 0.000000
-19.122800 0.000000
-19.073000 0.000000
-19.023300 0.000000
-18.973500 0.000000
-18.923800 0.000000
-18.874000 0.000000
-18.824200 0.000000
-18.774500 0.000000
-18.724700 0.000000
-18.675000 0.000000
-18.625200 0.000000
-18.575400 0.000000
-18.525700 0.000000
-18.475900 0.000000
-18.426200 0.000000
-18.376400 0.000000
-18.326600 0.000000
-18.276900 0.000000
-18.227100 0.000000
-18.177400 0.000000
-18.127600 0.000000
-18.077800 0.000000
-18.028100 0.000000
-17.978300 0.000000
-17.928500 0.000000
-17.878800 0.000000
-17.829000 0.000000
-17.779300 0.000000
-17.729500 0.000000
-17.679700 0.000000
-17.630000 0.000000
-17.580200 0.000000
-17.530500 0.000000
-17.480700 0.000000
-17.430900 0.000000
-17.381200 0.000000
-17.331400 0.000000
-17.281700 0.000000
-17.231900 0.000000
-17.182100 0.000000
-17.132400 0.000000
-17.082600 0.000000
-17.032900 0.000000
-16.983100 0.000000
-16.933300 0.000000
-16.883600 0.000000
-16.833800 0.000000
-16.784000 0.000000
-16.734300 0.000000
-16.684500 0.000000
-16.634800 0.000000
-16.585000 0.000000
-16.535200 0.000000
-16.485500 0.000000
-16.435700 0.000000
-16.386000 0.000000
-16.336200 0.000000
-16.286400 0.000000
-16.236700 0.000000
-16.186900 0.000000
-16.137200 0.000000
-16.087400 0.000000
-16.037600 0.000000
-15.987900 0.000000
-15.938100 0.000000
-15.888400 0.000000
-15.838600 0.000000
-15.788800 0.000000
-15.739100 0.000000
-15.689300 0.000000
-15.639500 0.000000
-15.589800 0.000000
-15.540000 0.000000
-15.490300 0.000000
-15.440500 0.000000
-15.390700 0.000000
-15.341000 0.000000
-15.291200 0.000000
-15.241500 0.000000
-15.191700 0.000000
-15.141900 0.000000
-15.092200 0.000000
-15.042400 0.000000
-14.992700 0.000000
-14.942900 0.000000
-14.893100 0.000000
-14.843400 0.000000
-14.793600 0.000000
-14.743900 0.000000
-14.694100 0.000000
-14.644300 0.000000
-14.594600 0.000000
-14.544800 0.000000
-14.495100 0.000000
-14.445300 0.000000
-14.395500 0.000000
-14.345800 0.000000
-14.296000 0.000000
-14.246200 0.000000
-14.196500 0.000000
-14.146700 0.000000
-14.097000 0.000000
-14.047200 0.000000
-13.997400 0.000000
-13.947700 0.000000
-13.897900 0.000000
-13.848200 0.000000
-13.798400 0.000000
-13.748600 0.000000
-13.698900 0.000000
-13.649100 0.000000
-13.599400 0.000000
-13.549600 0.000000
-13.499800 0.000000
-13.450100 0.000000
-13.400300 0.000000
-13.350600 0.000000
-13.300800 0.000000
-13.251000 0.000000
-13.201300 0.000000
-13.151500 0.000000
-13.101700 0.000000
-13.052000 0.000000
-13.002200 0.000000
-12.952500 0.000000
-12.902700 0.000000
-12.852900 0.000000
-12.803200 0.000000
-12.753400 0.000000
-12.703700 0.000000
-12.653900 0.000000
-12.604100 0.000000
-12.554400 0.000000
-12.504600 0.000000
-12.454900 0.000000
-12.405100 0.000000
-12.355300 0.000000
-12.305600 0.000000
-12.255800 0.000000
-12.206100 0.000000
-12.156300 0.000000
-12.106500 0.000000
-12.056800 0.000000
-12.007000 0.000000
-11.957200 0.000000
-11.907500 0.000000
-11.857700 0.000000
-11.808000 0.000000
-11.758200 0.000000
-11.708400 0.000000
-11.658700 0.000000
-11.608900 0.000000
-11.559200 0.000000
-11.509400 0.000000
-11.459600 0.000000
-11.409900 0.000000
-11.360100 0.000000
-11.310400 0.000000
-11.260600 0.000000
-11.210800 0.000000
-11.161100 0.000000
-11.111300 0.000000
-11.061600 0.000000
-11.011800 0.000000
-10.962000 0.000000
-10.912300 0.000000
-10.862500 0.000000
-10.812800 0.000000
-10.763000 0.000000
-10.713200 0.000000
-10.663500 0.000000
-10.613700 0.000000
-10.563900 0.000000
-10.514200 0.000000
-10.464400 0.000000
-10.414700 0.000000
-10.364900 0.000000
-10.315100 0.000000
-10.265400 0.000000
-10.215600 0.000000
-10.165900 0.000000
-10.116100 0.000000
-10.066300 0.000000
-10.016600 0.000000
-9.966800 0.000000
-9.917100 0.000000
-9.867300 0.000000
-9.817500 0.000000
-9.767800 0.000000
-9.718000 0.000000
-9.668300 0.000000
-9.618500 0.000000
-9.568700 0.000000
-9.519000 0.000000
-9.469200 0.000000
-9.419400 0.000000
-9.369700 0.000000
-9.319900 0.000000
-9.270200 0.000000
-9.220400 0.000000
-9.170600 0.000000
-9.120900 0.000000
-9.071100 0.000000
-9.021400 0.000000
-8.971600 0.000000
-8.921800 0.000000
-8.872100 0.000000
-8.822300 0.000000
-8.772600 0.000000
-8.722800 0.000000
-8.673000 0.000000
-8.623300 0.000000
-8.573500 0.000000
-8.523800 0.000000
-8.474000 0.000000
-8.424200 0.000000
-8.374500 0.000000
-8.324700 0.000000
-8.274900 0.000000
-8.225200 0.000000
-8.175400 0.000000
-8.125700 0.000000
-8.075900 0.000000
-8.026100 0.000000
-7.976400 0.000000
-7.926600 0.000000
-7.876900 0.000000
-7.827100 0.000000
-7.777300 0.000000
-7.727600 2.149700
-7.677800 2.654400
-7.628100 4.814800
-7.578300 11.342800
-7.528500 8.836400
-7.478800 20.743100
-7.429000 20.784000
-7.379300 26.176200
-7.329500 31.985800
-7.279700 40.439700
-7.230000 14.990500
-7.180200 10.275200
-7.130500 3.194100
-7.080700 1.908000
-7.030900 0.000000
-6.981200 0.000000
-6.931400 0.000000
-6.881600 0.000000
-6.831900 0.000000
-6.782100 0.000000
-6.732400 0.000000
-6.682600 0.000000
-6.632800 0.000000
-6.583100 0.000000
-6.533300 0.000000
-6.483600 0.000000
-6.433800 0.000000
-6.384000 0.000000
-6.334300 0.000000
-6.284500 0.000000
-6.234800 0.000000
-6.185000 0.000000
-6.135200 0.000000
-6.085500 0.000000
-6.035700 0.000000
-5.986000 0.000000
-5.936200 0.000000
-5.886400 0.000000
-5.836700 0.000000
-5.786900 0.000000
-5.737100 0.000000
-5.687400 0.000000
-5.637600 0.000000
-5.587900 0.000000
-5.538100 0.000000
-5.488300 0.000000
-5.438600 0.000000
-5.388800 0.000000
-5.339100 0.000000
-5.289300 0.000000
-5.239500 0.000000
-5.189800 0.000000
-5.140000 0.000000
-5.090300 0.000000
-5.040500 0.000000
-4.990700 0.000000
-4.941000 0.000000
-4.891200 0.000000
-4.841500 0.000000
-4.791700 0.000000
-4.741900 0.000000
-4.692200 0.000000
-4.642400 0.000000
-4.592600 0.000000
-4.542900 0.000000
-4.493100 0.000000
-4.443400 0.000000
-4.393600 0.000000
-4.343800 0.000000
-4.294100 0.000000
-4.244300 0.000000
-4.194600 0.000000
-4.144800 0.000000
-4.095000 0.000000
-4.045300 0.000000
-3.995500 0.000000
-3.945800 0.000000
-3.896000 0.000000
-3.846200 0.000000
-3.796500 0.000000
-3.746700 0.000000
-3.697000 0.000000
-3.647200 0.000000
-3.597400 0.000000
-3.547700 0.000000
-3.497900 0.000000
-3.448200 0.000000
-3.398400 0.000000
-3.348600 0.000000
-3.298900 0.000000
-3.249100 0.000000
-3.199300 0.000000
-3.149600 0.000000
-3.099800 0.000000
-3.050100 0.000000
-3.000300 0.000000
-2.950500 0.000000
-2.900800 0.000000
-2.851000 0.000000
-2.801300 0.000000
-2.751500 0.000000
-2.701700 0.000000
-2.652000 0.000000
-2.602200 0.000000
-2.552500 0.000000
-2.502700 0.000000
-2.452900 0.000000
-2.403200 0.000000
-2.353400 0.000000
-2.303700 0.000000
-2.253900 0.000000
-2.204100 0.000000
-2.154400 0.000000
-2.104600 0.000000
-2.054800 0.000000
-2.005100 0.000000
-1.955300 0.000000
-1.905600 0.000000
-1.855800 0.000500
-1.806000 0.024800
-1.756300 0.071200
-1.706500 0.086500
-1.656800 0.094900
-1.607000 0.114100
-1.557200 0.135300
-1.507500 0.149300
-1.457700 0.154400
-1.408000 0.164400
-1.358200 0.176100
-1.308400 0.187700
-1.258700 0.199300
-1.208900 0.212500
-1.159200 0.225800
-1.109400 0.236200
-1.059600 0.244600
-1.009900 0.254500
-0.960100 0.264500
-0.910300 0.275900
-0.860600 0.288000
-0.810800 0.302100
-0.761100 0.318800
-0.711300 0.335300
-0.661500 0.352300
-0.611800 0.370500
-0.562000 0.388300
-0.512300 0.446500
-0.462500 0.452300
-0.412700 0.452700
-0.363000 0.459100
-0.313200 0.452100
-0.263500 0.455000
-0.213700 0.458200
-0.163900 0.461000
-0.114200 0.462400
-0.064400 0.459200
-0.014700 0.462100
0.035100 0.465900
0.084900 0.468000
0.134600 0.469300
0.184400 0.470400
0.234100 0.469000
0.283900 0.469200
0.333700 0.470900
0.383400 0.473100
0.433200 0.475800
0.483000 0.478800
0.532700 0.481800
0.582500 0.484500
0.632200 0.486700
0.682000 0.489700
0.731800 0.493800
0.781500 0.498000
0.831300 0.502700
0.881000 0.506600
0.930800 0.510500
0.980600 0.515400
1.030300 0.523400
1.080100 0.541900
1.129800 0.553800
1.179600 0.564600
1.229400 0.575200
1.279100 0.584500
1.328900 0.593000
1.378600 0.686100
1.428400 0.686600
1.478200 0.657700
1.527900 0.654600
1.577700 0.645800
1.627500 0.625700
1.677200 0.643100
1.727000 0.717600
1.776700 0.566900
1.826500 0.537600
1.876300 0.505300
1.926000 0.459500
1.975800 0.439000
2.025500 0.420900
2.075300 0.403000
2.125100 0.380300
2.174800 0.380700
2.224600 0.391700
2.274300 0.389300
2.324100 0.379800
2.373900 0.371900
2.423600 0.363800
2.473400 0.361800
2.523100 0.360700
2.572900 0.355500
2.622700 0.350600
2.672400 0.351200
2.722200 0.359900
2.772000 0.360200
2.821700 0.357300
2.871500 0.350600
2.921200 0.383100
2.971000 0.458500
3.020800 0.445300
3.070500 0.455300
3.120300 0.490900
3.170000 0.429900
3.219800 0.422700
3.269600 0.411200
3.319300 0.409200
3.369100 0.415400
3.418800 0.421800
3.468600 0.430900
3.518400 0.439200
3.568100 0.452100
3.617900 0.462300
3.667600 0.474400
3.717400 0.488500
3.767200 0.508300
3.816900 0.528600
3.866700 0.551300
3.916400 0.577600
3.966200 0.611800
4.016000 0.639000
4.065700 0.686900
4.115500 0.736400
4.165300 0.791900
4.215000 0.939900
4.264800 1.089300
4.314500 1.231500
4.364300 1.361000
4.414100 1.563900
4.463800 2.135000
4.513600 1.677700
4.563300 1.679400
4.613100 1.715800
4.662900 1.676500
4.712600 1.602300
4.762400 1.521100
4.812100 1.367400
4.861900 1.240800
4.911700 1.235900
4.961400 1.244600
5.011200 1.313000
5.060900 1.389300
5.110700 1.501000
5.160500 1.631100
5.210200 1.717200
5.260000 1.874100
5.309800 2.170900
5.359500 2.355700
5.409300 2.256200
5.459000 2.192700
5.508800 2.019500
5.558600 1.875600
5.608300 1.560200
5.658100 1.346900
5.707800 1.056700
5.757600 0.939700
5.807400 0.898500
5.857100 0.867600
5.906900 1.318100
5.956600 1.361500
6.006400 1.417800
6.056200 1.639200
6.105900 1.716800
6.155700 1.771700
6.205400 1.799200
6.255200 1.977700
6.305000 2.253900
6.354700 2.398000
6.404500 2.253500
6.454300 1.678500
6.504000 1.597800
6.553800 1.566100
6.603500 1.650900
6.653300 1.734000
6.703100 1.699300
6.752800 1.599100
6.802600 1.550800
6.852300 1.489800
6.902100 1.400300
6.951900 1.333000
7.001600 1.296400
7.051400 1.304000
7.101100 1.301600
7.150900 1.327000
7.200700 1.287500
7.250400 1.222200
7.300200 1.154700
7.349900 1.108000
7.399700 1.019100
7.449500 0.968600
7.499200 0.927500
7.549000 0.947000
7.598700 0.876800
7.648500 0.895300
7.698300 0.798400
7.748000 0.802500
7.797800 0.867100
7.847600 0.935400
7.897300 1.075500
7.947100 1.269200
7.996800 1.748200
8.046600 1.964300
8.096400 1.868100
8.146100 1.905100
8.195900 1.873700
8.245600 1.896700
8.295400 1.899000
8.345200 1.920200
8.394900 1.939500
8.444700 2.054100
8.494400 2.214600
8.544200 2.169700
8.594000 2.196800
8.643700 2.285800
8.693500 2.368900
8.743200 2.708700
8.793000 2.791200
8.842800 3.263600
8.892500 2.848700
8.942300 2.855100
8.992100 2.747700
9.041800 2.342500
9.091600 2.344300
9.141300 2.590200
9.191100 2.902100
9.240900 2.903300
9.290600 2.788600
9.340400 2.671500
9.390100 2.297300
9.439900 1.973000
9.489700 1.793900
9.539400 1.755500
9.589200 1.756300
9.638900 1.789000
9.688700 1.878900
9.738500 2.015000
9.788200 2.067500
9.838000 1.752200
9.887700 1.537000
9.937500 1.353300
9.987300 1.334900
10.037000 1.342500
10.086800 1.347900
10.136600 1.333100
10.186300 1.294400
10.236100 1.300900
10.285800 1.430600
10.335600 1.377200
10.385400 1.397100
10.435100 1.493700
10.484900 1.564500
10.534600 1.591600
10.584400 1.579400
10.634200 1.576700
10.683900 1.654200
10.733700 1.797500
10.783400 1.723000
10.833200 1.604900
10.883000 1.550600
10.932700 1.560800
10.982500 1.767300
11.032200 1.844800
11.082000 1.837800
11.131800 1.827400
11.181500 1.773000
11.231300 1.666900
11.281000 1.673600
11.330800 1.732400
11.380600 1.719400
11.430300 1.677500
11.480100 1.561800
11.529900 1.488500
11.579600 1.399100
11.629400 1.408400
11.679100 1.241100
11.728900 1.135100
11.778700 1.039400
11.828400 0.962100
11.878200 0.907300
11.927900 0.881600
11.977700 0.782400
12.027500 0.706300
12.077200 0.654400
12.127000 0.614400
12.176700 0.619000
12.226500 0.629200
12.276300 0.641800
12.326000 0.660100
12.375800 0.726400
12.425500 0.732700
12.475300 0.783700
12.525100 0.826700
12.574800 0.887100
12.624600 0.861000
12.674400 0.850800
12.724100 0.845500
12.773900 0.814300
12.823600 0.793800
12.873400 0.797000
12.923200 0.796800
12.972900 0.800900
13.022700 0.810800
13.072400 0.819900
13.122200 0.821400
13.172000 0.831800
13.221700 0.860400
13.271500 0.897100
13.321200 0.977000
13.371000 0.978800
13.420800 0.941700
13.470500 0.951200
13.520300 0.963800
13.570000 0.973900
13.619800 0.976300
13.669600 0.987100
13.719300 1.001000
13.769100 1.078600
13.818900 1.109400
13.868600 1.181200
13.918400 2.072200
13.968100 1.927800
14.017900 1.793800
14.067700 1.704100
14.117400 1.665000
14.167200 1.619900
14.216900 1.497400
14.266700 1.461800
14.316500 1.425000
14.366200 1.585500
14.416000 1.381100
14.465700 1.211300
14.515500 1.176400
14.565300 1.171900
14.615000 1.244800
14.664800 1.299800
14.714500 1.383900
14.764300 1.288600
14.814100 1.269500
14.863800 1.313600
14.913600 1.339600
14.963300 1.374400
15.013100 1.547500
15.062900 1.652700
15.112600 1.632000
15.162400 1.526300
15.212200 1.382500
15.261900 1.431200
15.311700 1.400900
15.361400 1.387800
15.411200 1.381200
15.461000 1.412800
15.510700 1.396900
15.560500 1.406400
15.610200 1.404600
15.660000 1.443800
15.709800 1.426400
15.759500 1.462300
15.809300 1.479200
15.859000 1.476200
15.908800 1.427200
15.958600 1.385300
16.008300 1.356800
16.058100 1.368600
16.107800 1.376200
16.157600 1.371500
16.207400 1.380400
16.257100 1.363200
16.306900 1.372400
16.356700 1.345000
16.406400 1.296300
16.456200 1.236800
16.505900 1.241200
16.555700 1.207700
16.605500 1.267900
16.655200 1.283500
16.705000 1.266500
16.754700 1.222400
16.804500 1.240600
16.854300 1.158100
16.904000 1.109100
16.953800 1.133200
17.003500 1.043100
17.053300 1.027600
17.103100 1.016500
17.152800 1.024400
17.202600 1.042300
17.252300 1.107800
17.302100 1.128400
17.351900 1.139500
17.401600 1.169500
17.451400 1.205000
17.501200 1.265200
17.550900 1.251800
17.600700 1.265500
17.650400 1.322200
17.700200 1.291100
17.750000 1.274900
17.799700 1.265600
17.849500 1.270900
17.899200 1.300800
17.949000 1.184700
17.998800 1.028100
18.048500 1.002500
18.098300 1.013600
18.148000 1.029000
18.197800 1.089000
18.247600 1.123400
18.297300 1.197000
18.347100 1.277000
18.396800 1.402300
18.446600 1.536600
18.496400 1.614200
18.546100 1.655800
18.595900 1.672100
18.645700 1.664800
18.695400 1.554600
18.745200 1.522900
18.794900 1.432700
18.844700 1.348400
18.894500 1.279400
18.944200 1.212300
18.994000 1.177800
19.043700 1.145800
19.093500 1.094000
19.143300 1.186000
19.193000 1.431900
19.242800 1.566800
19.292500 1.703900
19.342300 1.846200
19.392100 1.886500
19.441800 1.824900
19.491600 1.737300
19.541300 1.704700
19.591100 1.666200
19.640900 1.606700
19.690600 1.648600
19.740400 1.525000
19.790100 1.442700
19.839900 1.376400
19.889700 1.335400
19.939400 1.271200
19.989200 1.215900
20.039000 1.197400
20.088700 1.194100
20.138500 1.192700
20.188200 1.226100
20.238000 1.232000
20.287800 1.233900
20.337500 1.214200
20.387300 1.195800
20.437000 1.071800
20.486800 1.072400
20.536600 1.062700
20.586300 1.089300
20.636100 1.036800
20.685800 0.989200
20.735600 1.029800
20.785400 1.067700
20.835100 1.122900
20.884900 1.216100
20.934600 1.354500
20.984400 1.637900
21.034200 1.457000
21.083900 1.503600
21.133700 1.579900
21.183500 1.631600
21.233200 1.588600
21.283000 1.677700
21.332700 1.682900
21.382500 1.744400
21.432300 1.777900
21.482000 1.647900
21.531800 1.605800
21.581500 1.629700
21.631300 1.874500
21.681100 1.807700
21.730800 1.586100
21.780600 1.576500
21.830300 1.690700
21.880100 1.641700
21.929900 1.664500
21.979600 1.726900
22.029400 1.795200
22.079100 1.896800
22.128900 2.017800
22.178700 2.084600
22.228400 2.167200
22.278200 2.324100
22.328000 2.453100
22.377700 2.356300
22.427500 2.121800
22.477200 1.935400
22.527000 1.842400
22.576800 1.749400
22.626500 1.679300
22.676300 1.632400
22.726000 1.574800
22.775800 1.540200
22.825600 1.470000
22.875300 1.426400
22.925100 1.431200
22.974800 1.184000
23.024600 1.078500
23.074400 1.075200
23.124100 1.093000
23.173900 1.067100
23.223600 1.079600
23.273400 1.073400
23.323200 1.103800
23.372900 1.140900
23.422700 1.185700
23.472400 1.236300
23.522200 1.311700
23.572000 1.392300
23.621700 1.507200
23.671500 1.457300
23.721300 1.422900
23.771000 1.417500
23.820800 1.404200
23.870500 1.415300
23.920300 1.292200
23.970100 1.296700
24.019800 1.241600
24.069600 1.174300
24.119300 1.159400
24.169100 1.128600
24.218900 1.111100
24.268600 1.117600
24.318400 1.144400
24.368100 1.209200
24.417900 1.400700
24.467700 1.760100
24.517400 1.671500
24.567200 1.559100
24.616900 1.549700
24.666700 1.434700
24.716500 1.312300
24.766200 1.181100
24.816000 1.133600
24.865800 1.170300
24.915500 1.209400
24.965300 1.218300
25.015000 1.237300
25.064800 1.216900
25.114600 1.220200
25.164300 1.257400
25.214100 1.294600
25.263800 1.269500
25.313600 1.298900
25.363400 1.356400
25.413100 1.420700
25.462900 1.475200
25.512600 1.478800
25.562400 1.594600
25.612200 1.668900
25.661900 1.678700
25.711700 1.793300
25.761400 1.565500
25.811200 1.536300
25.861000 1.513300
25.910700 1.467500
25.960500 1.420600
26.010300 1.478600
26.060000 1.437800
26.109800 1.389700
26.159500 1.451300
26.209300 1.492400
26.259100 1.503500
26.308800 1.532500
26.358600 1.605100
26.408300 1.772700
26.458100 1.951000
26.507900 1.995700
26.557600 1.975300
26.607400 1.953200
26.657100 2.027900
26.706900 2.003500
26.756700 1.754500
26.806400 1.679100
26.856200 1.631400
26.905900 1.545800
26.955700 1.493100
27.005500 1.717200
27.055200 1.612300
27.105000 1.723600
27.154700 1.814500
27.204500 1.745200
27.254300 1.867000
27.304000 1.755500
27.353800 1.805600
27.403600 1.798800
27.453300 1.796500
27.503100 1.723900
27.552800 1.725600
27.602600 1.741600
27.652400 1.690900
27.702100 1.654800
27.751900 1.667500
27.801600 1.837900
27.851400 1.840400
27.901200 1.785000
27.950900 1.748000
28.000700 1.818400
28.050400 1.934300
28.100200 1.895500
28.150000 1.823900
28.199700 1.802200
28.249500 1.794300
28.299200 1.813200
28.349000 1.870200
28.398800 2.011600
28.448500 2.310000
28.498300 2.296500
28.548100 2.249200
28.597800 2.266900
28.647600 2.195800
28.697300 2.146900
28.747100 2.146100
28.796900 2.128400
28.846600 2.148300
28.896400 2.025200
28.946100 1.888100
28.995900 1.734000
29.045700 1.604800
29.095400 1.545000
29.145200 1.507400
29.194900 1.500400
29.244700 1.526200
29.294500 1.595900
29.344200 1.773800
29.394000 2.000800
29.443700 2.105700
29.493500 2.006900
29.543300 1.890200
29.593000 1.819800
29.642800 1.812500
29.692600 1.924100
29.742300 2.015800
29.792100 2.071500
29.841800 2.328500
29.891600 2.397200
29.941400 2.360100
29.991100 2.303700
30.040900 2.330300
30.090600 2.412000
30.140400 2.465300
30.190200 2.339800
30.239900 2.191700
30.289700 1.923400
30.339400 1.972900
30.389200 1.926100
30.439000 1.906600
30.488700 1.849200
30.538500 1.829100
30.588200 1.814000
30.638000 1.889400
30.687800 1.948500
30.737500 2.003200
30.787300 2.029000
30.837000 2.057000
30.886800 2.134000
30.936600 2.230800
30.986300 2.219400
31.036100 2.264300
31.085900 2.270500
31.135600 2.349800
31.185400 2.266100
31.235100 2.045500
31.284900 1.954100
31.334700 1.886700
31.384400 1.848400
31.434200 1.858500
31.483900 1.898900
31.533700 1.907900
31.583500 1.880600
31.633200 1.816000
31.683000 1.780700
31.732700 1.790600
31.782500 1.805000
31.832300 1.821400
31.882000 1.885300
31.931800 1.955100
31.981500 1.856900
32.031300 1.825300
32.081100 1.821300
32.130800 1.780400
32.180600 1.702600
32.230400 1.677000
32.280100 1.649800
32.329900 1.643000
32.379600 1.585400
32.429400 1.569600
32.479200 1.602300
32.528900 1.628400
32.578700 1.680400
32.628400 1.777400
32.678200 1.900200
32.728000 2.078300
32.777700 2.057200
32.827500 2.031900
32.877200 2.020800
32.927000 2.056900
32.976800 2.005000
33.026500 1.981700
33.076300 1.904300
33.126000 1.879600
33.175800 1.859800
33.225600 1.852700
33.275300 1.841600
33.325100 1.791700
33.374900 1.762700
33.424600 1.756600
33.474400 1.677000
33.524100 1.580800
33.573900 1.560600
33.623700 1.559800
33.673400 1.588400
33.723200 1.638500
33.772900 1.677300
33.822700 1.756900
33.872500 1.808900
33.922200 1.810200
33.972000 1.840000
34.021700 1.807800
34.071500 1.779800
34.121300 1.799800
34.171000 1.840500
34.220800 1.835800
34.270500 1.816600
34.320300 1.778400
34.370100 1.727300
34.419800 1.713400
34.469600 1.724900
34.519300 1.755500
34.569100 1.845400
34.618900 2.169300
34.668600 2.247400
34.718400 2.296500
34.768200 2.323600
34.817900 2.176900
34.867700 2.224200
34.917400 2.250300
34.967200 2.444700
35.017000 2.315100
35.066700 2.263100
35.116500 2.276400
35.166200 2.245000
35.216000 2.319400
35.265800 2.333100
35.315500 2.268100
35.365300 2.181400
35.415000 2.188600
35.464800 2.349100
35.514600 2.178400
35.564300 2.125700
35.614100 1.998600
35.663800 1.944400
35.713600 1.955200
35.763400 2.107500
35.813100 2.113100
35.862900 2.156500
35.912700 2.161200
35.962400 2.243100
36.012200 2.273300
36.061900 2.291300
36.111700 2.370500
36.161500 2.482000
36.211200 2.215100
36.261000 2.088800
36.310700 2.012900
36.360500 1.941000
36.410300 1.934400
36.460000 1.946600
36.509800 1.937300
36.559500 1.923300
36.609300 1.923300
36.659100 2.013400
36.708800 1.934500
36.758600 1.823800
36.808300 1.801300
36.858100 1.819600
36.907900 1.879800
36.957600 2.004300
37.007400 2.059400
37.057200 2.083000
37.106900 2.084100
37.156700 1.905000
37.206400 1.795900
37.256200 1.773400
37.306000 1.743300
37.355700 1.595300
37.405500 1.635700
37.455200 1.656900
37.505000 1.689500
37.554800 1.776500
37.604500 1.911800
37.654300 1.976400
37.704000 1.965500
37.753800 1.792400
37.803600 1.793800
37.853300 1.737600
37.903100 1.772300
37.952800 1.743900
38.002600 1.832300
38.052400 1.886700
38.102100 1.922200
38.151900 1.972400
38.201600 2.030900
38.251400 2.139000
38.301200 2.211800
38.350900 2.249600
38.400700 2.323500
38.450500 2.393800
38.500200 2.352700
38.550000 2.145500
38.599700 2.007900
38.649500 1.932300
38.699300 1.893500
38.749000 1.972600
38.798800 1.926300
38.848500 2.074100
38.898300 2.093500
38.948100 1.991100
38.997800 1.996200
39.047600 2.042000
39.097300 2.120200
39.147100 2.180700
39.196900 2.199500
39.246600 2.205800
39.296400 2.213300
39.346100 2.330000
39.395900 2.273700
39.445700 2.224700
39.495400 2.162000
39.545200 2.128700
39.595000 2.211600
39.644700 2.194400
39.694500 2.132400
39.744200 2.154100
39.794000 2.268600
39.843800 2.469100
39.893500 2.523500
39.943300 2.577400
39.993000 2.701700
40.042800 2.703300
40.092600 2.674300
40.142300 2.583900
40.192100 2.517700
40.241800 2.462500
40.291600 2.419800
40.341400 2.448800
40.391100 2.263000
40.440900 2.185200
40.490600 2.333500
40.540400 2.222200
40.590200 2.317500
40.639900 2.441200
40.689700 2.604900
40.739500 2.624000
40.789200 2.669000
40.839000 2.919800
40.888700 2.597100
40.938500 2.483000
40.988300 2.456300
41.038000 2.421300
41.087800 2.380000
41.137500 2.265600
41.187300 2.333800
41.237100 2.069200
41.286800 1.947200
41.336600 1.868100
41.386300 1.831500
41.436100 1.917700
41.485900 2.052000
41.535600 2.123600
41.585400 2.235600
41.635100 2.445500
41.684900 2.686500
41.734700 2.846400
41.784400 2.967900
41.834200 3.005000
41.883900 3.053400
41.933700 2.893700
41.983500 2.810200
42.033200 2.874800
42.083000 3.020900
42.132800 3.143400
42.182500 3.992000
42.232300 5.555900
42.282000 5.795500
42.331800 4.876100
42.381600 3.578400
42.431300 2.620700
42.481100 2.896400
42.530800 2.662500
42.580600 2.600900
42.630400 2.734900
42.680100 2.913400
42.729900 2.812600
42.779600 2.571400
42.829400 2.596600
42.879200 2.344100
42.928900 2.905000
42.978700 2.675800
43.028400 2.537500
43.078200 2.283300
43.128000 2.134200
43.177700 2.201200
43.227500 2.274600
43.277300 2.262600
43.327000 2.253000
43.376800 2.212600
43.426500 2.243100
43.476300 2.309900
43.526100 2.233800
43.575800 2.187700
43.625600 2.221700
43.675300 2.208800
43.725100 2.189500
43.774900 2.126000
43.824600 2.110100
43.874400 2.176800
43.924100 2.264700
43.973900 2.439500
44.023700 2.466800
44.073400 2.389000
44.123200 2.245800
44.172900 2.226300
44.222700 2.218000
44.272500 2.262400
44.322200 2.250600
44.372000 2.216000
44.421800 2.271900
44.471500 2.411500
44.521300 2.492200
44.571000 2.637000
44.620800 2.645600
44.670600 2.527400
44.720300 2.467100
44.770100 2.350000
44.819800 2.279100
44.869600 2.158100
44.919400 2.120200
44.969100 2.097700
45.018900 2.063000
45.068600 2.073300
45.118400 2.110300
45.168200 2.116400
45.217900 2.118200
45.267700 2.106500
45.317400 2.116500
45.367200 2.179000
45.417000 2.266000
45.466700 2.151500
45.516500 2.105700
45.566200 2.047100
45.616000 2.012600
45.665800 2.011700
45.715500 1.979800
45.765300 1.869500
45.815100 1.812400
45.864800 1.750800
45.914600 1.685400
45.964300 1.623700
46.014100 1.586200
46.063900 1.575100
46.113600 1.549400
46.163400 1.552100
46.213100 1.595400
46.262900 1.623100
46.312700 1.641600
46.362400 1.613800
46.412200 1.541300
46.461900 1.451500
46.511700 1.383600
46.561500 1.399400
46.611200 1.466100
46.661000 1.562100
46.710700 1.651400
46.760500 1.664200
46.810300 1.617200
46.860000 1.379600
46.909800 1.119500
46.959600 0.913800
47.009300 0.734800
47.059100 0.592400
47.108800 0.491400
47.158600 0.412100
47.208400 0.355000
47.258100 0.319700
47.307900 0.319500
47.357600 0.265700
47.407400 0.234500
47.457200 0.210500
47.506900 0.204200
47.556700 0.208800
47.606400 0.206400
47.656200 0.208500
47.706000 0.196900
47.755700 0.219800
47.805500 0.229100
47.855200 0.203800
47.905000 0.174300
47.954800 0.147900
48.004500 0.124000
48.054300 0.107800
48.104100 0.096900
48.153800 0.085100
48.203600 0.074400
48.253300 0.064300
48.303100 0.055000
48.352900 0.044600
48.402600 0.033900
48.452400 0.024500
48.502100 0.016600
48.551900 0.010100
48.601700 0.000000
48.651400 0.000000
48.701200 0.000000
48.750900 0.000000
48.800700 0.000000
48.850500 0.000000
48.900200 0.000000
48.950000 0.000000
48.999700 0.000000
49.049500 0.000000
49.099300 0.000000
49.149000 0.000000
49.198800 0.000000
49.248500 0.000000
49.298300 0.000000
49.348100 0.000000
49.397800 0.000000
49.447600 0.000000
49.497400 0.000000
49.547100 0.000000
49.596900 0.000000
49.646600 0.000000
49.696400 0.000000
49.746200 0.000000
49.795900 0.000000
49.845700 0.000000
49.895400 0.000000
49.945200 0.000000
49.995000 0.000000
50.044700 0.000000
50.094500 0.000000
50.144200 0.000000
50.194000 0.000000
50.243800 0.000000
50.293500 0.000000
50.343300 0.000000
50.393000 0.000000
50.442800 0.000000
50.492600 0.000000
50.542300 0.000000
50.592100 0.000000
50.641900 0.000000
50.691600 0.000000
50.741400 0.000000
50.791100 0.000000
50.840900 0.000000
50.890700 0.000000
50.940400 0.000000
50.990200 0.000000
51.039900 0.000000
51.089700 0.000000
51.139500 0.000000
51.189200 0.000000
51.239000 0.000000
51.288700 0.000000
51.338500 0.000000
51.388300 0.000000
51.438000 0.000000
51.487800 0.000000
51.537500 0.000000
51.587300 0.000000
51.637100 0.000000
51.686800 0.000000
51.736600 0.000000
51.786400 0.000000
51.836100 0.000000
51.885900 0.000000
51.935600 0.000000
51.985400 0.000000
52.035200 0.000000
52.084900 0.000000
52.134700 0.000000
52.184400 0.000000
52.234200 0.000000
52.284000 0.000000
52.333700 0.000000
52.383500 0.000000
52.433200 0.000000
52.483000 0.000000
52.532800 0.000000
52.582500 0.000000
52.632300 0.000000
52.682000 0.000000
52.731800 0.000000
52.781600 0.000000
52.831300 0.000000
52.881100 0.000000
52.930800 0.000000
52.980600 0.000000
53.030400 0.000000
53.080100 0.000000
53.129900 0.000000
e
