set title 'mp-1187309 - Density of States'
set xlabel 'Energy (eV)'
set ylabel 'DOS (states/eV)'
set grid
set xrange [-10:10]
set yrange [0:13.445]
set xzeroaxis lt -1
set terminal png size 800,600
set output 'mp-1187309_dos_gnuplot.png'
plot '-' using 1:2 with lines title 'DOS'
-19.710100 0.000000
-19.689000 0.000000
-19.667900 0.000000
-19.646800 0.000000
-19.625700 0.000000
-19.604600 0.000000
-19.583400 0.000000
-19.562300 0.000000
-19.541200 0.000000
-19.520100 0.000000
-19.499000 0.000000
-19.477900 0.000000
-19.456800 0.000000
-19.435700 0.000000
-19.414600 0.000000
-19.393500 0.000000
-19.372400 0.000000
-19.351300 0.000000
-19.330200 0.000000
-19.309000 0.000000
-19.287900 0.000000
-19.266800 0.000000
-19.245700 0.000000
-19.224600 0.000000
-19.203500 0.000000
-19.182400 0.000000
-19.161300 0.000000
-19.140200 0.000000
-19.119100 0.000000
-19.098000 0.000000
-19.076900 0.000000
-19.055700 0.000000
-19.034600 0.000000
-19.013500 0.000000
-18.992400 0.000000
-18.971300 0.000000
-18.950200 0.000000
-18.929100 0.000000
-18.908000 0.000000
-18.886900 0.000000
-18.865800 0.000000
-18.844700 0.000000
-18.823600 0.000000
-18.802500 0.000000
-18.781300 0.000000
-18.760200 0.000000
-18.739100 0.000000
-18.718000 0.000000
-18.696900 0.000000
-18.675800 0.000000
-18.654700 0.000000
-18.633600 0.000000
-18.612500 0.000000
-18.591400 0.000000
-18.570300 0.000000
-18.549200 0.000000
-18.528000 0.000000
-18.506900 0.000000
-18.485800 0.000000
-18.464700 0.000000
-18.443600 0.000000
-18.422500 0.000000
-18.401400 0.000000
-18.380300 0.000000
-18.359200 0.000000
-18.338100 0.000000
-18.317000 0.000000
-18.295900 0.000000
-18.274800 0.000000
-18.253600 0.000000
-18.232500 0.000000
-18.211400 0.000000
-18.190300 0.000000
-18.169200 0.000000
-18.148100 0.000000
-18.127000 0.000000
-18.105900 0.000000
-18.084800 0.000000
-18.063700 0.000000
-18.042600 0.000000
-18.021500 0.000000
-18.000300 0.000000
-17.979200 0.000000
-17.958100 0.000000
-17.937000 0.000000
-17.915900 0.000300
-17.894800 0.002500
-17.873700 0.016400
-17.852600 0.081300
-17.831500 0.302600
-17.810400 0.869700
-17.789300 2.017100
-17.768200 4.001300
-17.747000 7.151600
-17.725900 11.755000
-17.704800 17.593100
-17.683700 23.537700
-17.662600 27.912900
-17.641500 29.735000
-17.620400 29.603400
-17.599300 28.914200
-17.578200 28.310100
-17.557100 27.312200
-17.536000 25.217700
-17.514900 22.023400
-17.493800 18.590900
-17.472600 16.057300
-17.451500 15.147200
-17.430400 15.939700
-17.409300 17.939000
-17.388200 20.309800
-17.367100 22.331000
-17.346000 23.778500
-17.324900 24.951600
-17.303800 26.136600
-17.282700 26.781200
-17.261600 25.766700
-17.240500 22.775700
-17.219300 18.683600
-17.198200 14.619700
-17.177100 11.427600
-17.156000 9.961800
-17.134900 10.877600
-17.113800 13.660500
-17.092700 16.566500
-17.071600 18.178300
-17.050500 18.585700
-17.029400 18.508500
-17.008300 17.948900
-16.987200 16.600200
-16.966100 15.069500
-16.944900 14.516200
-16.923800 15.070000
-16.902700 15.513200
-16.881600 14.620200
-16.860500 12.147500
-16.839400 8.661800
-16.818300 5.112500
-16.797200 2.401400
-16.776100 0.869100
-16.755000 0.237000
-16.733900 0.047900
-16.712800 0.007100
-16.691600 0.000800
-16.670500 0.000100
-16.649400 0.000000
-16.628300 0.000000
-16.607200 0.000000
-16.586100 0.000000
-16.565000 0.000000
-16.543900 0.000000
-16.522800 0.000000
-16.501700 0.000000
-16.480600 0.000000
-16.459500 0.000000
-16.438400 0.000000
-16.417200 0.000000
-16.396100 0.000000
-16.375000 0.000000
-16.353900 0.000000
-16.332800 0.000000
-16.311700 0.000000
-16.290600 0.000000
-16.269500 0.000000
-16.248400 0.000000
-16.227300 0.000000
-16.206200 0.000000
-16.185100 0.000000
-16.163900 0.000000
-16.142800 0.000000
-16.121700 0.000000
-16.100600 0.000000
-16.079500 0.000000
-16.058400 0.000000
-16.037300 0.000000
-16.016200 0.000000
-15.995100 0.000000
-15.974000 0.000000
-15.952900 0.000000
-15.931800 0.000000
-15.910700 0.000000
-15.889500 0.000000
-15.868400 0.000000
-15.847300 0.000000
-15.826200 0.000000
-15.805100 0.000000
-15.784000 0.000000
-15.762900 0.000000
-15.741800 0.000000
-15.720700 0.000000
-15.699600 0.000000
-15.678500 0.000000
-15.657400 0.000000
-15.636200 0.000000
-15.615100 0.000000
-15.594000 0.000000
-15.572900 0.000000
-15.551800 0.000000
-15.530700 0.000000
-15.509600 0.000000
-15.488500 0.000000
-15.467400 0.000000
-15.446300 0.000000
-15.425200 0.000000
-15.404100 0.000000
-15.382900 0.000000
-15.361800 0.000000
-15.340700 0.000000
-15.319600 0.000000
-15.298500 0.000000
-15.277400 0.000000
-15.256300 0.000000
-15.235200 0.000000
-15.214100 0.000000
-15.193000 0.000000
-15.171900 0.000000
-15.150800 0.000000
-15.129700 0.000000
-15.108500 0.000000
-15.087400 0.000000
-15.066300 0.000000
-15.045200 0.000000
-15.024100 0.000000
-15.003000 0.000000
-14.981900 0.000000
-14.960800 0.000000
-14.939700 0.000000
-14.918600 0.000000
-14.897500 0.000000
-14.876400 0.000000
-14.855200 0.000000
-14.834100 0.000000
-14.813000 0.000000
-14.791900 0.000000
-14.770800 0.000000
-14.749700 0.000000
-14.728600 0.000000
-14.707500 0.000000
-14.686400 0.000000
-14.665300 0.000000
-14.644200 0.000000
-14.623100 0.000000
-14.602000 0.000000
-14.580800 0.000000
-14.559700 0.000000
-14.538600 0.000000
-14.517500 0.000000
-14.496400 0.000000
-14.475300 0.000000
-14.454200 0.000000
-14.433100 0.000000
-14.412000 0.000000
-14.390900 0.000000
-14.369800 0.000000
-14.348700 0.000000
-14.327500 0.000000
-14.306400 0.000000
-14.285300 0.000000
-14.264200 0.000000
-14.243100 0.000000
-14.222000 0.000000
-14.200900 0.000000
-14.179800 0.000000
-14.158700 0.000000
-14.137600 0.000000
-14.116500 0.000000
-14.095400 0.000000
-14.074300 0.000000
-14.053100 0.000000
-14.032000 0.000000
-14.010900 0.000000
-13.989800 0.000000
-13.968700 0.000000
-13.947600 0.000000
-13.926500 0.000000
-13.905400 0.000000
-13.884300 0.000000
-13.863200 0.000000
-13.842100 0.000000
-13.821000 0.000000
-13.799800 0.000000
-13.778700 0.000000
-13.757600 0.000000
-13.736500 0.000000
-13.715400 0.000000
-13.694300 0.000000
-13.673200 0.000000
-13.652100 0.000000
-13.631000 0.000000
-13.609900 0.000000
-13.588800 0.000000
-13.567700 0.000000
-13.546600 0.000000
-13.525400 0.000000
-13.504300 0.000000
-13.483200 0.000000
-13.462100 0.000000
-13.441000 0.000000
-13.419900 0.000000
-13.398800 0.000000
-13.377700 0.000000
-13.356600 0.000000
-13.335500 0.000000
-13.314400 0.000000
-13.293300 0.000000
-13.272100 0.000000
-13.251000 0.000000
-13.229900 0.000000
-13.208800 0.000000
-13.187700 0.000000
-13.166600 0.000000
-13.145500 0.000000
-13.124400 0.000000
-13.103300 0.000000
-13.082200 0.000000
-13.061100 0.000000
-13.040000 0.000000
-13.018800 0.000000
-12.997700 0.000000
-12.976600 0.000000
-12.955500 0.000000
-12.934400 0.000000
-12.913300 0.000000
-12.892200 0.000000
-12.871100 0.000000
-12.850000 0.000000
-12.828900 0.000000
-12.807800 0.000000
-12.786700 0.000000
-12.765600 0.000000
-12.744400 0.000000
-12.723300 0.000000
-12.702200 0.000000
-12.681100 0.000000
-12.660000 0.000000
-12.638900 0.000000
-12.617800 0.000000
-12.596700 0.000000
-12.575600 0.000000
-12.554500 0.000000
-12.533400 0.000000
-12.512300 0.000000
-12.491100 0.000000
-12.470000 0.000000
-12.448900 0.000000
-12.427800 0.000000
-12.406700 0.000000
-12.385600 0.000000
-12.364500 0.000000
-12.343400 0.000000
-12.322300 0.000000
-12.301200 0.000000
-12.280100 0.000000
-12.259000 0.000000
-12.237900 0.000000
-12.216700 0.000000
-12.195600 0.000000
-12.174500 0.000000
-12.153400 0.000000
-12.132300 0.000000
-12.111200 0.000000
-12.090100 0.000000
-12.069000 0.000000
-12.047900 0.000000
-12.026800 0.000000
-12.005700 0.000000
-11.984600 0.000000
-11.963400 0.000000
-11.942300 0.000000
-11.921200 0.000000
-11.900100 0.000000
-11.879000 0.000000
-11.857900 0.000000
-11.836800 0.000000
-11.815700 0.000000
-11.794600 0.000000
-11.773500 0.000000
-11.752400 0.000000
-11.731300 0.000000
-11.710200 0.000000
-11.689000 0.000000
-11.667900 0.000000
-11.646800 0.000000
-11.625700 0.000000
-11.604600 0.000000
-11.583500 0.000000
-11.562400 0.000000
-11.541300 0.000000
-11.520200 0.000000
-11.499100 0.000000
-11.478000 0.000000
-11.456900 0.000000
-11.435700 0.000000
-11.414600 0.000000
-11.393500 0.000000
-11.372400 0.000000
-11.351300 0.000000
-11.330200 0.000000
-11.309100 0.000000
-11.288000 0.000000
-11.266900 0.000000
-11.245800 0.000000
-11.224700 0.000000
-11.203600 0.000000
-11.182400 0.000000
-11.161300 0.000000
-11.140200 0.000000
-11.119100 0.000000
-11.098000 0.000000
-11.076900 0.000000
-11.055800 0.000000
-11.034700 0.000000
-11.013600 0.000000
-10.992500 0.000000
-10.971400 0.000000
-10.950300 0.000000
-10.929200 0.000000
-10.908000 0.000000
-10.886900 0.000000
-10.865800 0.000000
-10.844700 0.000000
-10.823600 0.000000
-10.802500 0.000000
-10.781400 0.000000
-10.760300 0.000000
-10.739200 0.000000
-10.718100 0.000000
-10.697000 0.000000
-10.675900 0.000000
-10.654700 0.000000
-10.633600 0.000000
-10.612500 0.000000
-10.591400 0.000000
-10.570300 0.000000
-10.549200 0.000000
-10.528100 0.000000
-10.507000 0.000000
-10.485900 0.000000
-10.464800 0.000000
-10.443700 0.000000
-10.422600 0.000000
-10.401500 0.000000
-10.380300 0.000000
-10.359200 0.000000
-10.338100 0.000000
-10.317000 0.000000
-10.295900 0.000000
-10.274800 0.000000
-10.253700 0.000000
-10.232600 0.000000
-10.211500 0.000000
-10.190400 0.000000
-10.169300 0.000000
-10.148200 0.000000
-10.127000 0.000000
-10.105900 0.000000
-10.084800 0.000000
-10.063700 0.000000
-10.042600 0.000000
-10.021500 0.000000
-10.000400 0.000000
-9.979300 0.000000
-9.958200 0.000000
-9.937100 0.000000
-9.916000 0.000000
-9.894900 0.000000
-9.873800 0.000000
-9.852600 0.000000
-9.831500 0.000000
-9.810400 0.000000
-9.789300 0.000000
-9.768200 0.000000
-9.747100 0.000000
-9.726000 0.000000
-9.704900 0.000000
-9.683800 0.000000
-9.662700 0.000000
-9.641600 0.000000
-9.620500 0.000000
-9.599300 0.000000
-9.578200 0.000000
-9.557100 0.000000
-9.536000 0.000000
-9.514900 0.000000
-9.493800 0.000000
-9.472700 0.000000
-9.451600 0.000000
-9.430500 0.000000
-9.409400 0.000000
-9.388300 0.000000
-9.367200 0.000000
-9.346100 0.000000
-9.324900 0.000000
-9.303800 0.000000
-9.282700 0.000000
-9.261600 0.000000
-9.240500 0.000000
-9.219400 0.000000
-9.198300 0.000000
-9.177200 0.000000
-9.156100 0.000000
-9.135000 0.000000
-9.113900 0.000000
-9.092800 0.000000
-9.071600 0.000000
-9.050500 0.000000
-9.029400 0.000000
-9.008300 0.000000
-8.987200 0.000000
-8.966100 0.000000
-8.945000 0.000000
-8.923900 0.000000
-8.902800 0.000000
-8.881700 0.000000
-8.860600 0.000000
-8.839500 0.000000
-8.818300 0.000000
-8.797200 0.000000
-8.776100 0.000000
-8.755000 0.000000
-8.733900 0.000000
-8.712800 0.000000
-8.691700 0.000000
-8.670600 0.000000
-8.649500 0.000000
-8.628400 0.000000
-8.607300 0.000000
-8.586200 0.000000
-8.565100 0.000000
-8.543900 0.000000
-8.522800 0.000000
-8.501700 0.000000
-8.480600 0.000000
-8.459500 0.000000
-8.438400 0.000000
-8.417300 0.000000
-8.396200 0.000000
-8.375100 0.000000
-8.354000 0.000000
-8.332900 0.000000
-8.311800 0.000000
-8.290600 0.000000
-8.269500 0.000000
-8.248400 0.000000
-8.227300 0.000000
-8.206200 0.000000
-8.185100 0.000000
-8.164000 0.000000
-8.142900 0.000000
-8.121800 0.000000
-8.100700 0.000000
-8.079600 0.000000
-8.058500 0.000000
-8.037400 0.000000
-8.016200 0.000000
-7.995100 0.000000
-7.974000 0.000000
-7.952900 0.000000
-7.931800 0.000000
-7.910700 0.000000
-7.889600 0.000000
-7.868500 0.000000
-7.847400 0.000000
-7.826300 0.000000
-7.805200 0.000000
-7.784100 0.000000
-7.762900 0.000000
-7.741800 0.000000
-7.720700 0.000000
-7.699600 0.000000
-7.678500 0.000000
-7.657400 0.000000
-7.636300 0.000000
-7.615200 0.000000
-7.594100 0.000000
-7.573000 0.000000
-7.551900 0.000000
-7.530800 0.000000
-7.509700 0.000000
-7.488500 0.000000
-7.467400 0.000000
-7.446300 0.000000
-7.425200 0.000000
-7.404100 0.000000
-7.383000 0.000000
-7.361900 0.000000
-7.340800 0.000000
-7.319700 0.000000
-7.298600 0.000000
-7.277500 0.000000
-7.256400 0.000000
-7.235200 0.000000
-7.214100 0.000000
-7.193000 0.000000
-7.171900 0.000000
-7.150800 0.000000
-7.129700 0.000200
-7.108600 0.001400
-7.087500 0.006600
-7.066400 0.024300
-7.045300 0.070100
-7.024200 0.163600
-7.003100 0.313400
-6.982000 0.499100
-6.960800 0.680200
-6.939700 0.837000
-6.918600 1.003800
-6.897500 1.245400
-6.876400 1.571400
-6.855300 1.899300
-6.834200 2.159800
-6.813100 2.389300
-6.792000 2.680600
-6.770900 3.097400
-6.749800 3.618100
-6.728700 4.192300
-6.707500 4.975600
-6.686400 6.426000
-6.665300 8.781300
-6.644200 11.253600
-6.623100 12.222300
-6.602000 10.720100
-6.580900 7.450300
-6.559800 4.056300
-6.538700 1.707400
-6.517600 0.546800
-6.496500 0.131100
-6.475400 0.023200
-6.454200 0.003000
-6.433100 0.000300
-6.412000 0.000000
-6.390900 0.000000
-6.369800 0.000000
-6.348700 0.000000
-6.327600 0.000000
-6.306500 0.000000
-6.285400 0.000000
-6.264300 0.000000
-6.243200 0.000000
-6.222100 0.000000
-6.201000 0.000000
-6.179800 0.000000
-6.158700 0.000000
-6.137600 0.000000
-6.116500 0.000000
-6.095400 0.000000
-6.074300 0.000000
-6.053200 0.000000
-6.032100 0.000000
-6.011000 0.000000
-5.989900 0.000000
-5.968800 0.000000
-5.947700 0.000000
-5.926500 0.000000
-5.905400 0.000000
-5.884300 0.000000
-5.863200 0.000000
-5.842100 0.000000
-5.821000 0.000000
-5.799900 0.000000
-5.778800 0.000000
-5.757700 0.000000
-5.736600 0.000000
-5.715500 0.000000
-5.694400 0.000000
-5.673300 0.000000
-5.652100 0.000000
-5.631000 0.000000
-5.609900 0.000000
-5.588800 0.000000
-5.567700 0.000000
-5.546600 0.000000
-5.525500 0.000000
-5.504400 0.000000
-5.483300 0.000000
-5.462200 0.000000
-5.441100 0.000000
-5.420000 0.000000
-5.398800 0.000000
-5.377700 0.000000
-5.356600 0.000000
-5.335500 0.000000
-5.314400 0.000000
-5.293300 0.000000
-5.272200 0.000000
-5.251100 0.000000
-5.230000 0.000000
-5.208900 0.000000
-5.187800 0.000000
-5.166700 0.000000
-5.145600 0.000000
-5.124400 0.000000
-5.103300 0.000000
-5.082200 0.000000
-5.061100 0.000000
-5.040000 0.000000
-5.018900 0.000000
-4.997800 0.000000
-4.976700 0.000000
-4.955600 0.000000
-4.934500 0.000000
-4.913400 0.000000
-4.892300 0.000000
-4.871100 0.000000
-4.850000 0.000000
-4.828900 0.000000
-4.807800 0.000000
-4.786700 0.000000
-4.765600 0.000000
-4.744500 0.000000
-4.723400 0.000000
-4.702300 0.000000
-4.681200 0.000000
-4.660100 0.000000
-4.639000 0.000000
-4.617900 0.000000
-4.596700 0.000000
-4.575600 0.000000
-4.554500 0.000000
-4.533400 0.000000
-4.512300 0.000000
-4.491200 0.000000
-4.470100 0.000000
-4.449000 0.000000
-4.427900 0.000000
-4.406800 0.000000
-4.385700 0.000000
-4.364600 0.000000
-4.343400 0.000000
-4.322300 0.000000
-4.301200 0.000000
-4.280100 0.000000
-4.259000 0.000000
-4.237900 0.000000
-4.216800 0.000000
-4.195700 0.000000
-4.174600 0.000000
-4.153500 0.000000
-4.132400 0.000000
-4.111300 0.000000
-4.090100 0.000000
-4.069000 0.000000
-4.047900 0.000000
-4.026800 0.000000
-4.005700 0.000000
-3.984600 0.000000
-3.963500 0.000000
-3.942400 0.000000
-3.921300 0.000000
-3.900200 0.000000
-3.879100 0.000000
-3.858000 0.000000
-3.836900 0.000000
-3.815700 0.000000
-3.794600 0.000000
-3.773500 0.000000
-3.752400 0.000000
-3.731300 0.000000
-3.710200 0.000000
-3.689100 0.000000
-3.668000 0.000000
-3.646900 0.000000
-3.625800 0.000000
-3.604700 0.000000
-3.583600 0.000000
-3.562400 0.000000
-3.541300 0.000000
-3.520200 0.000000
-3.499100 0.000000
-3.478000 0.000000
-3.456900 0.000000
-3.435800 0.000000
-3.414700 0.000000
-3.393600 0.000000
-3.372500 0.000000
-3.351400 0.000000
-3.330300 0.000000
-3.309200 0.000000
-3.288000 0.000000
-3.266900 0.000000
-3.245800 0.000000
-3.224700 0.000000
-3.203600 0.000000
-3.182500 0.000000
-3.161400 0.000000
-3.140300 0.000000
-3.119200 0.000000
-3.098100 0.000000
-3.077000 0.000000
-3.055900 0.000000
-3.034700 0.000000
-3.013600 0.000000
-2.992500 0.000000
-2.971400 0.000000
-2.950300 0.000000
-2.929200 0.000000
-2.908100 0.000000
-2.887000 0.000000
-2.865900 0.000000
-2.844800 0.000000
-2.823700 0.000000
-2.802600 0.000000
-2.781500 0.000000
-2.760300 0.000000
-2.739200 0.000000
-2.718100 0.000000
-2.697000 0.000000
-2.675900 0.000000
-2.654800 0.000000
-2.633700 0.000000
-2.612600 0.000000
-2.591500 0.000000
-2.570400 0.000000
-2.549300 0.000000
-2.528200 0.000000
-2.507000 0.000000
-2.485900 0.000000
-2.464800 0.000000
-2.443700 0.000000
-2.422600 0.000000
-2.401500 0.000000
-2.380400 0.000000
-2.359300 0.000000
-2.338200 0.000000
-2.317100 0.000000
-2.296000 0.000000
-2.274900 0.000000
-2.253800 0.000000
-2.232600 0.000000
-2.211500 0.000000
-2.190400 0.000000
-2.169300 0.000000
-2.148200 0.000000
-2.127100 0.000000
-2.106000 0.000000
-2.084900 0.000000
-2.063800 0.000000
-2.042700 0.000000
-2.021600 0.000000
-2.000500 0.000000
-1.979300 0.000000
-1.958200 0.000000
-1.937100 0.000000
-1.916000 0.000000
-1.894900 0.000000
-1.873800 0.000000
-1.852700 0.000000
-1.831600 0.000000
-1.810500 0.000000
-1.789400 0.000000
-1.768300 0.000000
-1.747200 0.000000
-1.726000 0.000000
-1.704900 0.000000
-1.683800 0.000000
-1.662700 0.000000
-1.641600 0.000000
-1.620500 0.000000
-1.599400 0.000000
-1.578300 0.000000
-1.557200 0.000000
-1.536100 0.000000
-1.515000 0.000000
-1.493900 0.000000
-1.472800 0.000000
-1.451600 0.000000
-1.430500 0.000000
-1.409400 0.000000
-1.388300 0.000000
-1.367200 0.000000
-1.346100 0.000000
-1.325000 0.000000
-1.303900 0.000000
-1.282800 0.000000
-1.261700 0.000000
-1.240600 0.000000
-1.219500 0.000000
-1.198300 0.000000
-1.177200 0.000000
-1.156100 0.000000
-1.135000 0.000000
-1.113900 0.000000
-1.092800 0.000000
-1.071700 0.000000
-1.050600 0.000000
-1.029500 0.000000
-1.008400 0.000000
-0.987300 0.000000
-0.966200 0.000000
-0.945100 0.000000
-0.923900 0.000000
-0.902800 0.000000
-0.881700 0.000000
-0.860600 0.000000
-0.839500 0.000000
-0.818400 0.000000
-0.797300 0.000000
-0.776200 0.000000
-0.755100 0.000000
-0.734000 0.000000
-0.712900 0.000000
-0.691800 0.000000
-0.670600 0.000000
-0.649500 0.000000
-0.628400 0.000000
-0.607300 0.000000
-0.586200 0.000000
-0.565100 0.000000
-0.544000 0.000000
-0.522900 0.000000
-0.501800 0.000000
-0.480700 0.000000
-0.459600 0.000000
-0.438500 0.000000
-0.417400 0.000000
-0.396200 0.000000
-0.375100 0.000000
-0.354000 0.000000
-0.332900 0.000000
-0.311800 0.000000
-0.290700 0.000000
-0.269600 0.000000
-0.248500 0.000000
-0.227400 0.000100
-0.206300 0.000500
-0.185200 0.003500
-0.164100 0.016800
-0.142900 0.058900
-0.121800 0.152300
-0.100700 0.296400
-0.079600 0.456300
-0.058500 0.613400
-0.037400 0.813200
-0.016300 1.096300
0.004800 1.398800
0.025900 1.612400
0.047000 1.711900
0.068100 1.728700
0.089200 1.671000
0.110300 1.575000
0.131500 1.563700
0.152600 1.764600
0.173700 2.152200
0.194800 2.468700
0.215900 2.426000
0.237000 2.071500
0.258100 1.779500
0.279200 1.835600
0.300300 2.239300
0.321400 2.844300
0.342500 3.450700
0.363600 3.827000
0.384800 3.821600
0.405900 3.493200
0.427000 3.089000
0.448100 2.839900
0.469200 2.804700
0.490300 2.894700
0.511400 2.933700
0.532500 2.787400
0.553600 2.512500
0.574700 2.254200
0.595800 2.091000
0.616900 2.103400
0.638100 2.334700
0.659200 2.559700
0.680300 2.438500
0.701400 2.028600
0.722500 1.784700
0.743600 1.962000
0.764700 2.316100
0.785800 2.476900
0.806900 2.391500
0.828000 2.242600
0.849100 2.114000
0.870200 1.940200
0.891300 1.679400
0.912500 1.431700
0.933600 1.415800
0.954700 1.816700
0.975800 2.602200
0.996900 3.472300
1.018000 4.048400
1.039100 4.183500
1.060200 4.070500
1.081300 4.045400
1.102400 4.317800
1.123500 4.865400
1.144600 5.521800
1.165800 6.098200
1.186900 6.409600
1.208000 6.339600
1.229100 6.035700
1.250200 5.898000
1.271300 6.162500
1.292400 6.635900
1.313500 6.956400
1.334600 6.913700
1.355700 6.513000
1.376800 5.940200
1.397900 5.434500
1.419000 5.071200
1.440200 4.724600
1.461300 4.251400
1.482400 3.670400
1.503500 3.175700
1.524600 2.927500
1.545700 2.844000
1.566800 2.710800
1.587900 2.432400
1.609000 2.053400
1.630100 1.678500
1.651200 1.485600
1.672300 1.625200
1.693500 1.991700
1.714600 2.261300
1.735700 2.225800
1.756800 1.958600
1.777900 1.653900
1.799000 1.434100
1.820100 1.311300
1.841200 1.246300
1.862300 1.213000
1.883400 1.205700
1.904500 1.203300
1.925600 1.153300
1.946700 1.010400
1.967900 0.792800
1.989000 0.570200
2.010100 0.399900
2.031200 0.307200
2.052300 0.288400
2.073400 0.294800
2.094500 0.266700
2.115600 0.205700
2.136700 0.169200
2.157800 0.193400
2.178900 0.256800
2.200000 0.309800
2.221200 0.320800
2.242300 0.294100
2.263400 0.252000
2.284500 0.212000
2.305600 0.178100
2.326700 0.143600
2.347800 0.101800
2.368900 0.058100
2.390000 0.026500
2.411100 0.016000
2.432200 0.031600
2.453300 0.076800
2.474400 0.140000
2.495600 0.186400
2.516700 0.194100
2.537800 0.186200
2.558900 0.191600
2.580000 0.192900
2.601100 0.159600
2.622200 0.105900
2.643300 0.078800
2.664400 0.106300
2.685500 0.175000
2.706600 0.247000
2.727700 0.292800
2.748900 0.298700
2.770000 0.254500
2.791100 0.170200
2.812200 0.085000
2.833300 0.031700
2.854400 0.015000
2.875500 0.034600
2.896600 0.110900
2.917700 0.262500
2.938800 0.442400
2.959900 0.530500
2.981000 0.454600
3.002200 0.289500
3.023300 0.177700
3.044400 0.195800
3.065500 0.315700
3.086600 0.439600
3.107700 0.482500
3.128800 0.448500
3.149900 0.398900
3.171000 0.366700
3.192100 0.362200
3.213200 0.422500
3.234300 0.566800
3.255400 0.717800
3.276600 0.763500
3.297700 0.695600
3.318800 0.609300
3.339900 0.584200
3.361000 0.621100
3.382100 0.678200
3.403200 0.739200
3.424300 0.846800
3.445400 1.041800
3.466500 1.266500
3.487600 1.411400
3.508700 1.450400
3.529900 1.451000
3.551000 1.489700
3.572100 1.586400
3.593200 1.656900
3.614300 1.566100
3.635400 1.305500
3.656500 1.049800
3.677600 0.997800
3.698700 1.210900
3.719800 1.572100
3.740900 1.876800
3.762000 2.043200
3.783100 2.242800
3.804300 2.765700
3.825400 3.715000
3.846500 4.852600
3.867600 5.772200
3.888700 6.148700
3.909800 5.862000
3.930900 5.076900
3.952000 4.168200
3.973100 3.464600
3.994200 3.130100
4.015300 3.225800
4.036400 3.710700
4.057600 4.372700
4.078700 4.873600
4.099800 5.006400
4.120900 4.887800
4.142000 4.751400
4.163100 4.629500
4.184200 4.359400
4.205300 3.821900
4.226400 3.142200
4.247500 2.656000
4.268600 2.604200
4.289700 2.887800
4.310800 3.185000
4.332000 3.275300
4.353100 3.168200
4.374200 2.958500
4.395300 2.745700
4.416400 2.683100
4.437500 2.898500
4.458600 3.324000
4.479700 3.712700
4.500800 3.852200
4.521900 3.727400
4.543000 3.484400
4.564100 3.294400
4.585300 3.238400
4.606400 3.292900
4.627500 3.431100
4.648600 3.626400
4.669700 3.752400
4.690800 3.723900
4.711900 3.692200
4.733000 3.811700
4.754100 3.947400
4.775200 3.892700
4.796300 3.710100
4.817400 3.633700
4.838500 3.758300
4.859700 3.986800
4.880800 4.175000
4.901900 4.227000
4.923000 4.179900
4.944100 4.219400
4.965200 4.446400
4.986300 4.699700
5.007400 4.755400
5.028500 4.564700
5.049600 4.206300
5.070700 3.755900
5.091800 3.310200
5.113000 3.056300
5.134100 3.132400
5.155200 3.428700
5.176300 3.712800
5.197400 3.890500
5.218500 3.999400
5.239600 4.098900
5.260700 4.222800
5.281800 4.307700
5.302900 4.281700
5.324000 4.258200
5.345100 4.390900
5.366300 4.603100
5.387400 4.753600
5.408500 4.946800
5.429600 5.377100
5.450700 5.945700
5.471800 6.306900
5.492900 6.249600
5.514000 5.849900
5.535100 5.324600
5.556200 4.861100
5.577300 4.542300
5.598400 4.401000
5.619500 4.443800
5.640700 4.530500
5.661800 4.440700
5.682900 4.145000
5.704000 3.806300
5.725100 3.574200
5.746200 3.544100
5.767300 3.804000
5.788400 4.379600
5.809500 5.151900
5.830600 5.847500
5.851700 6.143000
5.872800 5.919400
5.894000 5.454000
5.915100 5.203700
5.936200 5.340100
5.957300 5.614600
5.978400 5.711200
5.999500 5.581200
6.020600 5.366700
6.041700 5.191900
6.062800 5.116400
6.083900 5.138200
6.105000 5.226300
6.126100 5.422400
6.147200 5.815600
6.168400 6.309400
6.189500 6.528500
6.210600 6.217100
6.231700 5.683300
6.252800 5.498400
6.273900 5.794800
6.295000 6.188900
6.316100 6.274200
6.337200 5.936300
6.358300 5.367400
6.379400 4.885600
6.400500 4.586800
6.421700 4.259600
6.442800 3.801100
6.463900 3.478100
6.485000 3.562300
6.506100 3.939100
6.527200 4.272200
6.548300 4.346300
6.569400 4.131000
6.590500 3.725500
6.611600 3.312600
6.632700 3.059700
6.653800 3.050800
6.674900 3.244800
6.696100 3.436700
6.717200 3.404300
6.738300 3.150300
6.759400 2.898800
6.780500 2.854700
6.801600 2.997500
6.822700 3.088400
6.843800 2.943600
6.864900 2.718200
6.886000 2.760400
6.907100 3.157100
6.928200 3.603300
6.949400 3.712600
6.970500 3.356000
6.991600 2.791500
7.012700 2.451100
7.033800 2.501800
7.054900 2.774100
7.076000 3.180900
7.097100 3.861800
7.118200 4.789500
7.139300 5.599000
7.160400 5.954800
7.181500 5.812200
7.202600 5.321700
7.223800 4.723200
7.244900 4.291800
7.266000 4.223300
7.287100 4.536200
7.308200 5.110600
7.329300 5.801300
7.350400 6.434500
7.371500 6.755600
7.392600 6.607400
7.413700 6.126300
7.434800 5.563200
7.455900 5.023900
7.477100 4.538000
7.498200 4.242000
7.519300 4.316600
7.540400 4.725600
7.561500 5.140100
7.582600 5.220000
7.603700 4.955600
7.624800 4.690000
7.645900 4.771800
7.667000 5.169400
7.688100 5.481300
7.709200 5.385600
7.730400 5.041400
7.751500 4.935800
7.772600 5.266800
7.793700 5.632200
7.814800 5.515100
7.835900 4.906700
7.857000 4.231700
7.878100 3.859500
7.899200 3.869600
7.920300 4.066300
7.941400 4.116600
7.962500 3.882800
7.983600 3.609300
8.004800 3.583800
8.025900 3.756600
8.047000 3.928400
8.068100 4.082000
8.089200 4.275800
8.110300 4.435700
8.131400 4.433900
8.152500 4.234400
8.173600 3.915800
8.194700 3.624900
8.215800 3.491700
8.236900 3.569500
8.258100 3.865100
8.279200 4.340000
8.300300 4.824200
8.321400 5.061600
8.342500 4.934000
8.363600 4.560500
8.384700 4.193800
8.405800 4.114900
8.426900 4.500000
8.448000 5.232300
8.469100 5.910500
8.490200 6.175100
8.511300 6.083600
8.532500 6.013000
8.553600 6.102700
8.574700 6.097500
8.595800 5.827600
8.616900 5.474600
8.638000 5.256000
8.659100 5.175500
8.680200 5.202600
8.701300 5.410600
8.722400 5.763500
8.743500 5.958600
8.764600 5.721100
8.785800 5.193300
8.806900 4.797400
8.828000 4.747600
8.849100 4.897900
8.870200 5.009200
8.891300 4.978800
8.912400 4.811900
8.933500 4.533000
8.954600 4.194300
8.975700 3.922000
8.996800 3.917800
9.017900 4.372300
9.039000 5.300600
9.060200 6.427600
9.081300 7.286300
9.102400 7.562100
9.123500 7.371500
9.144600 7.084100
9.165700 6.845200
9.186800 6.459200
9.207900 5.809200
9.229000 5.129400
9.250100 4.738800
9.271200 4.754000
9.292300 5.089500
9.313500 5.474800
9.334600 5.552500
9.355700 5.230700
9.376800 4.828200
9.397900 4.687800
9.419000 4.867200
9.440100 5.305900
9.461200 5.898700
9.482300 6.344200
9.503400 6.331800
9.524500 5.914200
9.545600 5.436700
9.566800 5.165200
9.587900 5.156400
9.609000 5.390400
9.630100 5.784400
9.651200 6.021900
9.672300 5.703200
9.693400 4.893900
9.714500 4.149100
9.735600 3.813800
9.756700 3.767900
9.777800 3.878000
9.798900 4.132100
9.820000 4.346000
9.841200 4.252900
9.862300 3.887400
9.883400 3.605300
9.904500 3.723500
9.925600 4.192000
9.946700 4.574500
9.967800 4.404900
9.988900 3.651900
10.010000 2.758200
10.031100 2.181400
10.052200 2.026600
10.073300 2.154000
10.094500 2.493800
10.115600 3.107000
10.136700 4.004400
10.157800 5.092800
10.178900 6.162800
10.200000 6.806700
10.221100 6.671300
10.242200 5.865900
10.263300 4.879800
10.284400 4.184500
10.305500 4.023200
10.326600 4.375100
10.347700 4.936600
10.368900 5.248100
10.390000 5.060600
10.411100 4.543900
10.432200 4.005900
10.453300 3.566800
10.474400 3.235300
10.495500 3.065900
10.516600 3.094800
10.537700 3.274400
10.558800 3.517100
10.579900 3.667700
10.601000 3.535700
10.622200 3.150200
10.643300 2.846000
10.664400 2.936600
10.685500 3.400700
10.706600 3.946900
10.727700 4.325600
10.748800 4.553200
10.769900 4.768600
10.791000 4.905000
10.812100 4.723800
10.833200 4.188300
10.854300 3.603900
10.875400 3.332000
10.896600 3.459200
10.917700 3.812700
10.938800 4.185400
10.959900 4.433400
10.981000 4.487400
11.002100 4.368600
11.023200 4.143900
11.044300 3.868400
11.065400 3.584700
11.086500 3.377800
11.107600 3.380700
11.128700 3.566500
11.149900 3.620900
11.171000 3.321900
11.192100 2.895800
11.213200 2.692100
11.234300 2.740100
11.255400 2.828000
11.276500 2.789500
11.297600 2.644300
11.318700 2.564300
11.339800 2.647000
11.360900 2.747300
11.382000 2.666900
11.403100 2.413300
11.424300 2.134800
11.445400 1.952700
11.466500 1.941000
11.487600 2.063300
11.508700 2.126700
11.529800 2.026700
11.550900 1.944400
11.572000 2.064800
11.593100 2.237700
11.614200 2.153400
11.635300 1.757600
11.656400 1.317100
11.677600 1.104700
11.698700 1.121900
11.719800 1.181500
11.740900 1.207400
11.762000 1.307400
11.783100 1.529200
11.804200 1.720300
11.825300 1.723200
11.846400 1.576800
11.867500 1.424500
11.888600 1.327100
11.909700 1.254300
11.930900 1.199100
11.952000 1.237100
11.973100 1.450400
11.994200 1.801800
12.015300 2.147700
12.036400 2.384900
12.057500 2.487900
12.078600 2.440400
12.099700 2.286400
12.120800 2.166300
12.141900 2.160900
12.163000 2.186200
12.184100 2.171400
12.205300 2.242300
12.226400 2.544900
12.247500 2.968800
12.268600 3.246700
12.289700 3.275900
12.310800 3.198500
12.331900 3.206300
12.353000 3.412500
12.374100 3.834600
12.395200 4.280300
12.416300 4.385900
12.437400 3.998300
12.458600 3.360700
12.479700 2.849200
12.500800 2.711000
12.521900 2.931300
12.543000 3.172900
12.564100 3.042500
12.585200 2.541800
12.606300 2.100600
12.627400 2.088000
12.648500 2.397300
12.669600 2.610200
12.690700 2.474300
12.711800 2.110400
12.733000 1.851200
12.754100 1.923800
12.775200 2.196000
12.796300 2.273900
12.817400 1.957000
12.838500 1.493500
12.859600 1.271200
12.880700 1.388600
12.901800 1.646200
12.922900 1.810900
12.944000 1.784100
12.965100 1.641600
12.986300 1.575300
13.007400 1.703100
13.028500 1.946200
13.049600 2.150500
13.070700 2.279100
13.091800 2.426100
13.112900 2.648900
13.134000 2.851500
13.155100 2.919200
13.176200 2.935500
13.197300 3.087100
13.218400 3.370200
13.239500 3.594100
13.260700 3.663500
13.281800 3.675100
13.302900 3.728200
13.324000 3.762900
13.345100 3.610100
13.366200 3.233200
13.387300 2.866800
13.408400 2.770200
13.429500 2.951600
13.450600 3.252600
13.471700 3.532800
13.492800 3.712600
13.514000 3.780100
13.535100 3.774000
13.556200 3.722000
13.577300 3.657500
13.598400 3.646400
13.619500 3.664100
13.640600 3.566100
13.661700 3.313500
13.682800 3.053000
13.703900 2.929900
13.725000 2.970000
13.746100 3.100400
13.767200 3.270100
13.788400 3.574200
13.809500 4.099400
13.830600 4.666700
13.851700 4.981600
13.872800 5.007600
13.893900 4.993200
13.915000 5.162600
13.936100 5.516500
13.957200 5.917500
13.978300 6.230600
13.999400 6.338000
14.020500 6.095700
14.041700 5.417300
14.062800 4.523800
14.083900 3.893900
14.105000 3.714900
14.126100 3.643000
14.147200 3.291000
14.168300 2.679600
14.189400 2.121800
14.210500 1.852500
14.231600 1.817800
14.252700 1.803100
14.273800 1.703200
14.295000 1.543400
14.316100 1.368800
14.337200 1.313500
14.358300 1.569800
14.379400 2.102900
14.400500 2.596900
14.421600 2.786700
14.442700 2.709600
14.463800 2.624900
14.484900 2.785000
14.506000 3.285100
14.527100 4.039500
14.548200 4.813200
14.569400 5.284900
14.590500 5.225100
14.611600 4.725300
14.632700 4.164000
14.653800 3.857000
14.674900 3.835500
14.696000 3.978300
14.717100 4.180400
14.738200 4.343200
14.759300 4.327300
14.780400 4.062800
14.801500 3.676900
14.822700 3.357800
14.843800 3.180600
14.864900 3.152700
14.886000 3.237500
14.907100 3.301500
14.928200 3.224900
14.949300 3.053500
14.970400 2.901300
14.991500 2.804800
15.012600 2.801000
15.033700 2.948800
15.054800 3.157500
15.075900 3.263500
15.097100 3.332100
15.118200 3.596700
15.139300 4.248100
15.160400 5.873000
15.181500 10.128500
15.202600 19.103600
15.223700 33.087400
15.244800 48.705500
15.265900 59.136700
15.287000 57.623900
15.308100 43.976900
15.329200 26.261200
15.350400 12.947000
15.371500 6.171300
15.392600 3.693900
15.413700 3.146700
15.434800 3.259500
15.455900 3.455200
15.477000 3.496700
15.498100 3.327000
15.519200 3.014500
15.540300 2.705400
15.561400 2.554600
15.582500 2.637400
15.603600 2.856900
15.624800 3.028400
15.645900 3.083700
15.667000 3.058100
15.688100 2.968800
15.709200 2.921600
15.730300 3.210000
15.751400 3.981100
15.772500 4.852600
15.793600 5.254000
15.814700 5.089900
15.835800 4.704300
15.856900 4.390600
15.878100 4.265900
15.899200 4.412500
15.920300 4.801100
15.941400 5.100900
15.962500 4.889000
15.983600 4.140500
16.004700 3.265600
16.025800 2.648700
16.046900 2.375500
16.068000 2.354800
16.089100 2.496300
16.110200 2.732200
16.131300 2.925600
16.152500 2.890400
16.173600 2.622500
16.194700 2.379000
16.215800 2.380500
16.236900 2.552600
16.258000 2.676600
16.279100 2.676400
16.300200 2.659000
16.321300 2.804200
16.342400 3.230300
16.363500 3.807100
16.384600 4.178200
16.405800 4.141100
16.426900 3.897700
16.448000 3.783400
16.469100 3.844400
16.490200 3.823400
16.511300 3.573800
16.532400 3.325100
16.553500 3.343800
16.574600 3.480600
16.595700 3.405700
16.616800 3.168100
16.637900 3.114000
16.659100 3.349200
16.680200 3.656600
16.701300 3.876000
16.722400 4.032400
16.743500 4.111000
16.764600 3.989100
16.785700 3.634800
16.806800 3.215800
16.827900 2.990500
16.849000 3.111600
16.870100 3.466700
16.891200 3.692500
16.912300 3.492300
16.933500 3.030000
16.954600 2.803800
16.975700 3.052500
16.996800 3.531800
17.017900 3.903500
17.039000 4.081100
17.060100 4.141500
17.081200 4.105700
17.102300 3.912400
17.123400 3.561500
17.144500 3.229300
17.165600 3.138800
17.186800 3.288400
17.207900 3.457000
17.229000 3.512300
17.250100 3.551800
17.271200 3.719100
17.292300 4.049100
17.313400 4.489700
17.334500 4.885400
17.355600 5.027500
17.376700 4.939600
17.397800 4.902500
17.418900 5.022000
17.440000 5.094700
17.461200 4.972000
17.482300 4.699600
17.503400 4.305300
17.524500 3.761500
17.545600 3.139500
17.566700 2.601800
17.587800 2.292000
17.608900 2.288600
17.630000 2.553000
17.651100 2.898800
17.672200 3.094100
17.693300 3.033500
17.714500 2.810400
17.735600 2.603100
17.756700 2.525800
17.777800 2.642700
17.798900 3.005800
17.820000 3.540500
17.841100 3.980700
17.862200 4.089600
17.883300 3.925300
17.904400 3.750000
17.925500 3.770300
17.946600 4.076400
17.967700 4.637200
17.988900 5.180800
18.010000 5.258100
18.031100 4.707500
18.052200 3.948900
18.073300 3.544400
18.094400 3.590400
18.115500 3.729800
18.136600 3.626800
18.157700 3.292200
18.178800 3.010600
18.199900 3.038200
18.221000 3.357300
18.242200 3.734000
18.263300 4.004100
18.284400 4.156900
18.305500 4.169700
18.326600 3.985500
18.347700 3.631900
18.368800 3.251500
18.389900 3.069600
18.411000 3.259900
18.432100 3.740600
18.453200 4.192600
18.474300 4.349800
18.495400 4.232200
18.516600 4.059200
18.537700 3.956400
18.558800 3.833300
18.579900 3.597700
18.601000 3.361900
18.622100 3.313800
18.643200 3.522000
18.664300 3.945300
18.685400 4.471200
18.706500 4.910000
18.727600 5.100500
18.748700 5.028200
18.769900 4.782500
18.791000 4.443000
18.812100 4.020400
18.833200 3.489900
18.854300 2.875200
18.875400 2.293400
18.896500 1.919900
18.917600 1.880900
18.938700 2.123300
18.959800 2.429100
18.980900 2.661200
19.002000 2.906600
19.023200 3.266500
19.044300 3.711800
19.065400 4.216300
19.086500 4.744200
19.107600 5.087100
19.128700 5.041400
19.149800 4.728800
19.170900 4.390400
19.192000 3.994800
19.213100 3.456700
19.234200 3.003900
19.255300 2.942500
19.276400 3.264700
19.297600 3.659500
19.318700 3.790900
19.339800 3.562200
19.360900 3.183500
19.382000 2.973200
19.403100 3.078900
19.424200 3.418000
19.445300 3.827000
19.466400 4.171000
19.487500 4.348800
19.508600 4.337300
19.529700 4.236400
19.550900 4.142000
19.572000 3.990800
19.593100 3.658100
19.614200 3.196400
19.635300 2.856100
19.656400 2.835300
19.677500 3.079300
19.698600 3.345600
19.719700 3.485900
19.740800 3.663400
19.761900 4.163100
19.783000 4.947800
19.804100 5.554600
19.825300 5.524700
19.846400 4.818000
19.867500 3.792800
19.888600 2.944000
19.909700 2.625000
19.930800 2.855600
19.951900 3.339500
19.973000 3.725000
19.994100 3.921000
20.015200 4.077500
20.036300 4.229100
20.057400 4.158900
20.078600 3.687800
20.099700 2.919100
20.120800 2.138200
20.141900 1.584000
20.163000 1.316000
20.184100 1.223600
20.205200 1.177600
20.226300 1.186600
20.247400 1.334100
20.268500 1.566700
20.289600 1.687300
20.310700 1.605300
20.331800 1.439500
20.353000 1.307900
20.374100 1.163200
20.395200 0.910200
20.416300 0.580900
20.437400 0.319200
20.458500 0.238000
20.479600 0.337100
20.500700 0.520000
20.521800 0.661100
20.542900 0.697600
20.564000 0.655600
20.585100 0.572600
20.606300 0.446100
20.627400 0.284000
20.648500 0.137700
20.669600 0.048800
20.690700 0.012400
20.711800 0.002300
20.732900 0.000300
20.754000 0.000000
20.775100 0.000000
20.796200 0.000000
20.817300 0.000000
20.838400 0.000000
20.859500 0.000000
20.880700 0.000000
20.901800 0.000000
20.922900 0.000000
20.944000 0.000000
20.965100 0.000000
20.986200 0.000000
21.007300 0.000000
21.028400 0.000000
21.049500 0.000000
21.070600 0.000000
21.091700 0.000000
21.112800 0.000000
21.134000 0.000000
21.155100 0.000000
21.176200 0.000000
21.197300 0.000000
21.218400 0.000000
21.239500 0.000000
21.260600 0.000000
21.281700 0.000000
21.302800 0.000000
21.323900 0.000000
21.345000 0.000000
21.366100 0.000000
21.387300 0.000000
21.408400 0.000000
21.429500 0.000000
21.450600 0.000000
21.471700 0.000000
21.492800 0.000000
21.513900 0.000000
21.535000 0.000000
21.556100 0.000000
21.577200 0.000000
21.598300 0.000000
21.619400 0.000000
21.640500 0.000000
21.661700 0.000000
21.682800 0.000000
21.703900 0.000000
21.725000 0.000000
21.746100 0.000000
21.767200 0.000000
21.788300 0.000000
21.809400 0.000000
21.830500 0.000000
21.851600 0.000000
21.872700 0.000000
21.893800 0.000000
21.915000 0.000000
21.936100 0.000000
21.957200 0.000000
21.978300 0.000000
21.999400 0.000000
22.020500 0.000000
22.041600 0.000000
22.062700 0.000000
22.083800 0.000000
22.104900 0.000000
22.126000 0.000000
22.147100 0.000000
22.168200 0.000000
22.189400 0.000000
22.210500 0.000000
22.231600 0.000000
22.252700 0.000000
22.273800 0.000000
22.294900 0.000000
22.316000 0.000000
22.337100 0.000000
22.358200 0.000000
22.379300 0.000000
22.400400 0.000000
22.421500 0.000000
22.442700 0.000000
22.463800 0.000000
22.484900 0.000000
22.506000 0.000000
e
