set title 'mp-1219925 - Density of States'
set xlabel 'Energy (eV)'
set ylabel 'DOS (states/eV)'
set grid
set xrange [-10:10]
set yrange [0:7.562]
set xzeroaxis lt -1
set terminal png size 800,600
set output 'mp-1219925_dos_gnuplot.png'
plot '-' using 1:2 with lines title 'DOS'
-45.861100 0.000000
-45.805300 0.000000
-45.749500 0.000000
-45.693700 0.000000
-45.637900 0.000000
-45.582000 0.000000
-45.526200 0.000000
-45.470400 0.000000
-45.414600 0.000000
-45.358800 0.000000
-45.303000 0.000000
-45.247100 0.000000
-45.191300 0.000000
-45.135500 0.000000
-45.079700 0.000000
-45.023900 0.000000
-44.968000 0.000000
-44.912200 0.000000
-44.856400 0.000000
-44.800600 0.000000
-44.744800 0.000000
-44.689000 0.000000
-44.633100 0.000000
-44.577300 0.000000
-44.521500 0.000000
-44.465700 0.000000
-44.409900 0.000000
-44.354100 0.000000
-44.298200 0.000000
-44.242400 0.000000
-44.186600 0.000000
-44.130800 0.000000
-44.075000 0.000000
-44.019200 0.000000
-43.963300 0.000000
-43.907500 0.000000
-43.851700 0.000000
-43.795900 0.000000
-43.740100 0.000000
-43.684200 0.000000
-43.628400 0.000000
-43.572600 0.000000
-43.516800 0.000000
-43.461000 0.000000
-43.405200 0.000000
-43.349300 0.000000
-43.293500 0.000000
-43.237700 0.000000
-43.181900 0.000000
-43.126100 0.000000
-43.070300 0.000000
-43.014400 0.000000
-42.958600 0.000000
-42.902800 0.000000
-42.847000 0.000000
-42.791200 0.000000
-42.735300 0.000000
-42.679500 0.000000
-42.623700 0.000000
-42.567900 0.000000
-42.512100 0.000000
-42.456300 0.000000
-42.400400 0.000000
-42.344600 0.000000
-42.288800 0.000000
-42.233000 0.000000
-42.177200 0.000000
-42.121400 0.000000
-42.065500 0.000000
-42.009700 0.000000
-41.953900 0.000000
-41.898100 0.000000
-41.842300 0.000000
-41.786500 0.000000
-41.730600 0.000000
-41.674800 0.000000
-41.619000 0.000000
-41.563200 0.000000
-41.507400 0.000000
-41.451500 0.000000
-41.395700 0.000000
-41.339900 0.000000
-41.284100 0.000000
-41.228300 0.000000
-41.172500 0.000000
-41.116600 0.000000
-41.060800 0.000000
-41.005000 0.000000
-40.949200 0.000000
-40.893400 0.000000
-40.837600 0.000000
-40.781700 5.479600
-40.725900 11.386600
-40.670100 5.226100
-40.614300 5.506000
-40.558500 6.793400
-40.502600 24.750100
-40.446800 79.383000
-40.391000 9.343800
-40.335200 0.000000
-40.279400 0.000000
-40.223600 0.000000
-40.167700 0.000000
-40.111900 0.000000
-40.056100 0.000000
-40.000300 0.000000
-39.944500 0.000000
-39.888700 0.000000
-39.832800 0.000000
-39.777000 0.000000
-39.721200 0.000000
-39.665400 0.000000
-39.609600 0.000000
-39.553700 0.000000
-39.497900 0.000000
-39.442100 0.000000
-39.386300 0.000000
-39.330500 0.000000
-39.274700 0.000000
-39.218800 0.000000
-39.163000 0.000000
-39.107200 0.000000
-39.051400 0.000000
-38.995600 0.000000
-38.939800 0.000000
-38.883900 0.000000
-38.828100 0.000000
-38.772300 0.000000
-38.716500 0.000000
-38.660700 0.000000
-38.604900 0.000000
-38.549000 0.000000
-38.493200 0.000000
-38.437400 0.000000
-38.381600 0.000000
-38.325800 0.000000
-38.269900 0.000000
-38.214100 0.000000
-38.158300 0.000000
-38.102500 0.000000
-38.046700 0.000000
-37.990900 0.000000
-37.935000 0.000000
-37.879200 0.000000
-37.823400 0.000000
-37.767600 0.000000
-37.711800 0.000000
-37.656000 0.000000
-37.600100 0.000000
-37.544300 0.000000
-37.488500 0.000000
-37.432700 0.000000
-37.376900 0.000000
-37.321000 0.000000
-37.265200 0.000000
-37.209400 0.000000
-37.153600 0.000000
-37.097800 0.000000
-37.042000 0.000000
-36.986100 0.000000
-36.930300 0.000000
-36.874500 0.000000
-36.818700 0.000000
-36.762900 0.000000
-36.707100 0.000000
-36.651200 0.000000
-36.595400 0.000000
-36.539600 0.000000
-36.483800 0.000000
-36.428000 0.000000
-36.372200 0.000000
-36.316300 0.000000
-36.260500 0.000000
-36.204700 0.000000
-36.148900 0.000000
-36.093100 0.000000
-36.037200 0.000000
-35.981400 0.000000
-35.925600 0.000000
-35.869800 0.000000
-35.814000 0.000000
-35.758200 0.000000
-35.702300 0.000000
-35.646500 0.000000
-35.590700 0.000000
-35.534900 0.000000
-35.479100 0.000000
-35.423300 0.000000
-35.367400 0.000000
-35.311600 0.000000
-35.255800 0.000000
-35.200000 0.000000
-35.144200 0.000000
-35.088300 0.000000
-35.032500 0.000000
-34.976700 0.000000
-34.920900 0.000000
-34.865100 0.000000
-34.809300 0.000000
-34.753400 0.000000
-34.697600 0.000000
-34.641800 0.000000
-34.586000 0.000000
-34.530200 0.000000
-34.474400 0.000000
-34.418500 0.000000
-34.362700 0.000000
-34.306900 0.000000
-34.251100 0.000000
-34.195300 0.000000
-34.139500 0.000000
-34.083600 0.000000
-34.027800 0.000000
-33.972000 0.000000
-33.916200 0.000000
-33.860400 0.000000
-33.804500 0.000000
-33.748700 0.000000
-33.692900 0.000000
-33.637100 0.000000
-33.581300 0.000000
-33.525500 0.000000
-33.469600 0.000000
-33.413800 0.000000
-33.358000 0.000000
-33.302200 0.000000
-33.246400 0.000000
-33.190600 0.000000
-33.134700 0.000000
-33.078900 0.000000
-33.023100 0.000000
-32.967300 0.000000
-32.911500 0.000000
-32.855600 0.000000
-32.799800 0.000000
-32.744000 0.000000
-32.688200 0.000000
-32.632400 0.000000
-32.576600 0.000000
-32.520700 0.000000
-32.464900 0.000000
-32.409100 0.000000
-32.353300 0.000000
-32.297500 0.000000
-32.241700 0.000000
-32.185800 0.000000
-32.130000 0.000000
-32.074200 0.000000
-32.018400 0.000000
-31.962600 0.000000
-31.906700 0.000000
-31.850900 0.000000
-31.795100 0.000000
-31.739300 0.000000
-31.683500 0.000000
-31.627700 0.000000
-31.571800 0.000000
-31.516000 0.000000
-31.460200 0.000000
-31.404400 0.000000
-31.348600 0.000000
-31.292800 0.000000
-31.236900 0.000000
-31.181100 0.000000
-31.125300 0.000000
-31.069500 0.000000
-31.013700 0.000000
-30.957900 0.000000
-30.902000 0.000000
-30.846200 0.000000
-30.790400 0.000000
-30.734600 0.000000
-30.678800 0.000000
-30.622900 0.000000
-30.567100 0.000000
-30.511300 0.000000
-30.455500 0.000000
-30.399700 0.000000
-30.343900 0.000000
-30.288000 0.000000
-30.232200 0.000000
-30.176400 0.000000
-30.120600 0.000000
-30.064800 0.000000
-30.009000 0.000000
-29.953100 0.000000
-29.897300 0.000000
-29.841500 0.000000
-29.785700 0.000000
-29.729900 0.000000
-29.674000 0.000000
-29.618200 0.000000
-29.562400 0.000000
-29.506600 0.000000
-29.450800 0.000000
-29.395000 0.000000
-29.339100 0.000000
-29.283300 0.000000
-29.227500 0.000000
-29.171700 0.000000
-29.115900 0.000000
-29.060100 0.000000
-29.004200 0.000000
-28.948400 0.000000
-28.892600 0.000000
-28.836800 0.000000
-28.781000 0.000000
-28.725200 0.000000
-28.669300 0.000000
-28.613500 0.000000
-28.557700 0.000000
-28.501900 0.000000
-28.446100 0.000000
-28.390200 0.000000
-28.334400 0.000000
-28.278600 0.000000
-28.222800 0.000000
-28.167000 0.000000
-28.111200 0.000000
-28.055300 0.000000
-27.999500 0.000000
-27.943700 0.000000
-27.887900 0.000000
-27.832100 0.000000
-27.776300 0.000000
-27.720400 0.000000
-27.664600 0.000000
-27.608800 0.000000
-27.553000 0.000000
-27.497200 0.000000
-27.441300 0.000000
-27.385500 0.000000
-27.329700 0.000000
-27.273900 0.000000
-27.218100 0.000000
-27.162300 0.000000
-27.106400 0.000000
-27.050600 0.000000
-26.994800 0.000000
-26.939000 0.000000
-26.883200 0.000000
-26.827400 0.000000
-26.771500 0.000000
-26.715700 0.000000
-26.659900 0.000000
-26.604100 0.000000
-26.548300 0.000000
-26.492400 0.000000
-26.436600 0.000000
-26.380800 0.000000
-26.325000 0.000000
-26.269200 0.000000
-26.213400 0.000000
-26.157500 0.000000
-26.101700 0.000000
-26.045900 0.000000
-25.990100 0.000000
-25.934300 0.000000
-25.878500 0.000000
-25.822600 0.000000
-25.766800 0.000000
-25.711000 0.000000
-25.655200 0.000000
-25.599400 0.000000
-25.543600 0.000000
-25.487700 0.000000
-25.431900 0.000000
-25.376100 0.000000
-25.320300 0.000000
-25.264500 0.000000
-25.208600 0.000000
-25.152800 0.000000
-25.097000 0.000000
-25.041200 0.000000
-24.985400 0.000000
-24.929600 0.000000
-24.873700 0.000000
-24.817900 0.000000
-24.762100 0.000000
-24.706300 0.000000
-24.650500 0.000000
-24.594700 0.000000
-24.538800 0.000000
-24.483000 0.000000
-24.427200 0.000000
-24.371400 0.000000
-24.315600 0.000000
-24.259700 0.000000
-24.203900 0.000000
-24.148100 0.000000
-24.092300 0.000000
-24.036500 0.000000
-23.980700 0.000000
-23.924800 0.000000
-23.869000 0.000000
-23.813200 0.000000
-23.757400 0.000000
-23.701600 0.000000
-23.645800 0.000000
-23.589900 0.000000
-23.534100 0.000000
-23.478300 0.000000
-23.422500 0.000000
-23.366700 0.000000
-23.310900 0.000000
-23.255000 0.000000
-23.199200 0.000000
-23.143400 0.000000
-23.087600 0.000000
-23.031800 0.000000
-22.975900 0.000000
-22.920100 0.000000
-22.864300 0.000000
-22.808500 0.000000
-22.752700 0.000000
-22.696900 0.000000
-22.641000 0.000000
-22.585200 0.000000
-22.529400 0.000000
-22.473600 0.000000
-22.417800 0.000000
-22.362000 0.000000
-22.306100 0.000000
-22.250300 0.000000
-22.194500 0.000000
-22.138700 0.000000
-22.082900 0.000000
-22.027000 0.000000
-21.971200 0.000000
-21.915400 0.000000
-21.859600 0.000000
-21.803800 0.000000
-21.748000 0.000000
-21.692100 0.000000
-21.636300 0.000000
-21.580500 0.000000
-21.524700 0.000000
-21.468900 0.000000
-21.413100 0.000000
-21.357200 0.000000
-21.301400 0.000000
-21.245600 0.000000
-21.189800 0.000000
-21.134000 0.000000
-21.078200 0.000000
-21.022300 0.000000
-20.966500 0.000000
-20.910700 0.000000
-20.854900 0.000000
-20.799100 0.000000
-20.743200 0.000000
-20.687400 0.000000
-20.631600 0.000000
-20.575800 0.000000
-20.520000 0.000000
-20.464200 0.000000
-20.408300 0.000000
-20.352500 0.000000
-20.296700 0.000000
-20.240900 0.000000
-20.185100 0.000000
-20.129300 0.000000
-20.073400 0.000000
-20.017600 0.000000
-19.961800 0.000000
-19.906000 0.000000
-19.850200 0.000000
-19.794300 0.000000
-19.738500 0.000000
-19.682700 0.000000
-19.626900 0.000000
-19.571100 0.000000
-19.515300 0.000000
-19.459400 0.000000
-19.403600 0.000000
-19.347800 0.000000
-19.292000 0.000000
-19.236200 0.000000
-19.180400 0.000000
-19.124500 0.000000
-19.068700 0.000000
-19.012900 0.000000
-18.957100 0.000000
-18.901300 0.000000
-18.845400 0.000000
-18.789600 0.000000
-18.733800 0.000000
-18.678000 0.000000
-18.622200 0.000000
-18.566400 0.000000
-18.510500 0.000000
-18.454700 0.000000
-18.398900 0.000000
-18.343100 0.000000
-18.287300 0.000000
-18.231500 0.000000
-18.175600 0.000000
-18.119800 0.000000
-18.064000 0.000000
-18.008200 0.000000
-17.952400 0.000000
-17.896600 0.000000
-17.840700 0.000000
-17.784900 0.000000
-17.729100 0.000000
-17.673300 0.000000
-17.617500 0.000000
-17.561600 0.000000
-17.505800 0.000000
-17.450000 0.000000
-17.394200 0.000000
-17.338400 0.000000
-17.282600 0.000000
-17.226700 0.000000
-17.170900 0.000000
-17.115100 0.000000
-17.059300 0.000000
-17.003500 0.000000
-16.947700 0.000000
-16.891800 0.000000
-16.836000 0.000000
-16.780200 0.000000
-16.724400 0.000000
-16.668600 0.000000
-16.612700 0.000000
-16.556900 0.000000
-16.501100 0.000000
-16.445300 0.000000
-16.389500 0.000000
-16.333700 0.000000
-16.277800 0.000000
-16.222000 0.000000
-16.166200 0.000000
-16.110400 0.000000
-16.054600 0.000000
-15.998800 0.000000
-15.942900 0.000000
-15.887100 0.000000
-15.831300 0.000000
-15.775500 0.000000
-15.719700 0.000000
-15.663900 0.000000
-15.608000 0.000000
-15.552200 0.000000
-15.496400 0.000000
-15.440600 0.000000
-15.384800 0.000000
-15.328900 0.000000
-15.273100 0.000000
-15.217300 0.000000
-15.161500 0.000000
-15.105700 0.000000
-15.049900 0.000000
-14.994000 0.000000
-14.938200 0.000000
-14.882400 0.000000
-14.826600 0.000000
-14.770800 0.000000
-14.715000 0.000000
-14.659100 0.000000
-14.603300 0.000000
-14.547500 0.000000
-14.491700 0.000000
-14.435900 0.000000
-14.380000 0.000000
-14.324200 0.000000
-14.268400 0.000000
-14.212600 0.000000
-14.156800 0.000000
-14.101000 0.000000
-14.045100 0.000000
-13.989300 0.000000
-13.933500 0.000000
-13.877700 0.000000
-13.821900 0.000000
-13.766100 0.000000
-13.710200 0.000000
-13.654400 0.000000
-13.598600 0.000000
-13.542800 0.000000
-13.487000 0.000000
-13.431100 0.000000
-13.375300 0.000000
-13.319500 0.000000
-13.263700 0.000000
-13.207900 0.000000
-13.152100 0.000000
-13.096200 0.000000
-13.040400 0.000000
-12.984600 0.000000
-12.928800 0.000000
-12.873000 0.000000
-12.817200 0.000000
-12.761300 0.000000
-12.705500 0.000000
-12.649700 0.000000
-12.593900 0.000000
-12.538100 0.000000
-12.482300 0.000000
-12.426400 0.000000
-12.370600 0.000000
-12.314800 0.000000
-12.259000 0.000000
-12.203200 0.000000
-12.147300 0.000000
-12.091500 0.000000
-12.035700 0.000000
-11.979900 0.000000
-11.924100 0.000000
-11.868300 0.000000
-11.812400 0.000000
-11.756600 0.000000
-11.700800 0.000000
-11.645000 0.000000
-11.589200 0.000000
-11.533400 0.000000
-11.477500 0.000000
-11.421700 0.000000
-11.365900 0.000000
-11.310100 0.000000
-11.254300 0.000000
-11.198400 0.000000
-11.142600 0.000000
-11.086800 0.000000
-11.031000 0.000000
-10.975200 0.000000
-10.919400 0.000000
-10.863500 0.000000
-10.807700 0.000000
-10.751900 0.000000
-10.696100 0.000000
-10.640300 0.000000
-10.584500 0.000000
-10.528600 0.000000
-10.472800 0.000000
-10.417000 0.000000
-10.361200 0.000000
-10.305400 0.000000
-10.249600 0.000000
-10.193700 0.000000
-10.137900 0.000000
-10.082100 0.000000
-10.026300 0.000000
-9.970500 0.000000
-9.914600 0.000000
-9.858800 0.000000
-9.803000 0.000000
-9.747200 0.000000
-9.691400 0.000000
-9.635600 0.000000
-9.579700 0.000000
-9.523900 0.000000
-9.468100 0.000000
-9.412300 0.000000
-9.356500 0.000000
-9.300700 0.000000
-9.244800 0.000000
-9.189000 0.000000
-9.133200 0.000000
-9.077400 0.000000
-9.021600 0.000000
-8.965700 0.000000
-8.909900 0.000000
-8.854100 0.000000
-8.798300 0.000000
-8.742500 0.000000
-8.686700 0.000000
-8.630800 0.000000
-8.575000 0.000000
-8.519200 0.000000
-8.463400 0.000000
-8.407600 0.000000
-8.351800 0.000000
-8.295900 0.000000
-8.240100 0.000000
-8.184300 0.000000
-8.128500 0.000000
-8.072700 0.000000
-8.016900 0.000000
-7.961000 0.000000
-7.905200 0.000000
-7.849400 0.000000
-7.793600 0.000000
-7.737800 0.000000
-7.681900 0.000000
-7.626100 0.000000
-7.570300 0.000000
-7.514500 0.000000
-7.458700 0.000000
-7.402900 0.000000
-7.347000 0.000000
-7.291200 0.000000
-7.235400 0.000000
-7.179600 0.000000
-7.123800 0.000000
-7.068000 0.000000
-7.012100 0.000000
-6.956300 0.000000
-6.900500 0.000000
-6.844700 0.000000
-6.788900 0.000000
-6.733000 0.000000
-6.677200 0.000000
-6.621400 0.000000
-6.565600 0.000000
-6.509800 0.000000
-6.454000 0.000000
-6.398100 0.000000
-6.342300 0.000000
-6.286500 0.000000
-6.230700 0.000000
-6.174900 0.000000
-6.119100 0.000000
-6.063200 0.000000
-6.007400 0.000000
-5.951600 0.000000
-5.895800 0.000000
-5.840000 0.000000
-5.784100 0.000000
-5.728300 0.000000
-5.672500 0.000000
-5.616700 0.000000
-5.560900 0.000000
-5.505100 0.000000
-5.449200 0.000000
-5.393400 0.000000
-5.337600 0.000000
-5.281800 0.000000
-5.226000 0.000000
-5.170200 0.000000
-5.114300 0.000000
-5.058500 0.000000
-5.002700 0.000000
-4.946900 0.000000
-4.891100 0.000000
-4.835300 0.000000
-4.779400 0.000000
-4.723600 0.000000
-4.667800 0.000000
-4.612000 0.000000
-4.556200 0.000000
-4.500300 0.000000
-4.444500 0.000000
-4.388700 0.000000
-4.332900 0.000000
-4.277100 0.000000
-4.221300 0.000000
-4.165400 0.000000
-4.109600 0.000000
-4.053800 0.000000
-3.998000 0.000000
-3.942200 0.000000
-3.886400 0.000000
-3.830500 0.000000
-3.774700 0.000000
-3.718900 0.000000
-3.663100 0.000000
-3.607300 0.000000
-3.551400 0.000000
-3.495600 0.000000
-3.439800 0.000000
-3.384000 0.000000
-3.328200 0.000000
-3.272400 0.000000
-3.216500 0.000000
-3.160700 0.000000
-3.104900 0.000000
-3.049100 0.000000
-2.993300 0.000000
-2.937500 0.000000
-2.881600 0.000000
-2.825800 0.000000
-2.770000 0.000000
-2.714200 0.000000
-2.658400 0.000000
-2.602600 0.000000
-2.546700 0.000000
-2.490900 0.000000
-2.435100 0.000000
-2.379300 0.000000
-2.323500 0.000000
-2.267600 0.000000
-2.211800 0.000000
-2.156000 0.000000
-2.100200 0.000000
-2.044400 0.000000
-1.988600 0.000000
-1.932700 0.000000
-1.876900 0.000000
-1.821100 0.000000
-1.765300 0.000000
-1.709500 0.000000
-1.653700 0.000000
-1.597800 0.008400
-1.542000 0.034900
-1.486200 0.051800
-1.430400 0.060000
-1.374600 0.070100
-1.318700 0.080100
-1.262900 0.091200
-1.207100 0.100400
-1.151300 0.106300
-1.095500 0.112800
-1.039700 0.120400
-0.983800 0.128600
-0.928000 0.136700
-0.872200 0.144900
-0.816400 0.153500
-0.760600 0.161200
-0.704800 0.169100
-0.648900 0.177200
-0.593100 0.185600
-0.537300 0.194500
-0.481500 0.204100
-0.425700 0.214300
-0.369800 0.224900
-0.314000 0.236400
-0.258200 0.248400
-0.202400 0.261100
-0.146600 0.275100
-0.090800 0.291300
-0.034900 0.312000
0.020900 0.336900
0.076700 0.357900
0.132500 0.476300
0.188300 0.680200
0.244100 0.932000
0.300000 1.424200
0.355800 1.946000
0.411600 2.100400
0.467400 2.377200
0.523200 2.688000
0.579000 2.966500
0.634900 3.216400
0.690700 3.525200
0.746500 3.912900
0.802300 4.191700
0.858100 4.746200
0.914000 5.005600
0.969800 4.627300
1.025600 4.278100
1.081400 4.157500
1.137200 4.071300
1.193000 4.186800
1.248900 3.900300
1.304700 3.669300
1.360500 3.458700
1.416300 3.406200
1.472100 3.354000
1.527900 2.914200
1.583800 2.853500
1.639600 2.402400
1.695400 2.033100
1.751200 2.200500
1.807000 2.365200
1.862900 2.944100
1.918700 3.420600
1.974500 3.098000
2.030300 2.991600
2.086100 3.371000
2.141900 3.198900
2.197800 3.496300
2.253600 2.825800
2.309400 2.893700
2.365200 2.987500
2.421000 3.108900
2.476800 3.472600
2.532700 3.460600
2.588500 3.473700
2.644300 3.543700
2.700100 3.807200
2.755900 3.692100
2.811700 4.244600
2.867600 4.423900
2.923400 4.724400
2.979200 4.916700
3.035000 5.542500
3.090800 5.962600
3.146700 6.874200
3.202500 5.210700
3.258300 3.684300
3.314100 4.166500
3.369900 3.415800
3.425700 3.278200
3.481600 3.444900
3.537400 3.605400
3.593200 2.835500
3.649000 2.801400
3.704800 3.063800
3.760600 2.793900
3.816500 2.922200
3.872300 3.566800
3.928100 3.416200
3.983900 3.447700
4.039700 3.204300
4.095600 3.584700
4.151400 3.877800
4.207200 3.264600
4.263000 2.406500
4.318800 2.398900
4.374600 2.538200
4.430500 3.181400
4.486300 4.527000
4.542100 3.955900
4.597900 3.921400
4.653700 3.878000
4.709500 3.441600
4.765400 3.086300
4.821200 2.907700
4.877000 2.798600
4.932800 2.718700
4.988600 2.642700
5.044500 2.592600
5.100300 2.693400
5.156100 2.835800
5.211900 3.381500
5.267700 3.383800
5.323500 3.616200
5.379400 4.030400
5.435200 4.034000
5.491000 3.928000
5.546800 3.641500
5.602600 3.718300
5.658400 3.629200
5.714300 3.122500
5.770100 3.568300
5.825900 3.666800
5.881700 4.019500
5.937500 3.594800
5.993300 3.241300
6.049200 3.126300
6.105000 3.207900
6.160800 2.430200
6.216600 1.363500
6.272400 1.076500
6.328300 0.843500
6.384100 0.600400
6.439900 0.503100
6.495700 0.501700
6.551500 0.504500
6.607300 0.509100
6.663200 0.514600
6.719000 0.517800
6.774800 0.518400
6.830600 0.518200
6.886400 0.516200
6.942200 0.515600
6.998100 0.515500
7.053900 0.517200
7.109700 0.517600
7.165500 0.513600
7.221300 0.508700
7.277200 0.507700
7.333000 0.507500
7.388800 0.507200
7.444600 0.506900
7.500400 0.508000
7.556200 0.511000
7.612100 0.514500
7.667900 0.517200
7.723700 0.518900
7.779500 0.519500
7.835300 0.520400
7.891100 0.521100
7.947000 0.521700
8.002800 0.521500
8.058600 0.520600
8.114400 0.519800
8.170200 0.518700
8.226000 0.516500
8.281900 0.514900
8.337700 0.514500
8.393500 0.514800
8.449300 0.515600
8.505100 0.517300
8.561000 0.518900
8.616800 0.521500
8.672600 0.526900
8.728400 0.537900
8.784200 0.552900
8.840000 0.556000
8.895900 0.542600
8.951700 0.535500
9.007500 0.523100
9.063300 0.515800
9.119100 0.509100
9.174900 0.503400
9.230800 0.497700
9.286600 0.492400
9.342400 0.487400
9.398200 0.483000
9.454000 0.478600
9.509900 0.476000
9.565700 0.476800
9.621500 0.491300
9.677300 0.480300
9.733100 0.497400
9.788900 0.509900
9.844800 0.471400
9.900600 0.464800
9.956400 0.463800
10.012200 0.463900
10.068000 0.464500
10.123800 0.466200
10.179700 0.471400
10.235500 0.482900
10.291300 0.491200
10.347100 0.494000
10.402900 0.492500
10.458700 0.486800
10.514600 0.476400
10.570400 0.461100
10.626200 0.443900
10.682000 0.430600
10.737800 0.422300
10.793700 0.419700
10.849500 0.425500
10.905300 0.434100
10.961100 0.458700
11.016900 0.439200
11.072700 0.405300
11.128600 0.397500
11.184400 0.391200
11.240200 0.390800
11.296000 0.405100
11.351800 0.402100
11.407600 0.380800
11.463500 0.360100
11.519300 0.350000
11.575100 0.342700
11.630900 0.336100
11.686700 0.329800
11.742600 0.323900
11.798400 0.320100
11.854200 0.318400
11.910000 0.317200
11.965800 0.316200
12.021600 0.314500
12.077500 0.311500
12.133300 0.307500
12.189100 0.305200
12.244900 0.308800
12.300700 0.343500
12.356500 0.335200
12.412400 0.335400
12.468200 0.325300
12.524000 0.307700
12.579800 0.286300
12.635600 0.266800
12.691500 0.249300
12.747300 0.230300
12.803100 0.209900
12.858900 0.190700
12.914700 0.179100
12.970500 0.169700
13.026400 0.160100
13.082200 0.147500
13.138000 0.136100
13.193800 0.126400
13.249600 0.324800
13.305400 0.805400
13.361300 0.891900
13.417100 0.906500
13.472900 0.866200
13.528700 0.815700
13.584500 0.789800
13.640300 0.758600
13.696200 0.741700
13.752000 0.738800
13.807800 0.726200
13.863600 0.724100
13.919400 0.729200
13.975300 0.732300
14.031100 0.725800
14.086900 0.709800
14.142700 0.693500
14.198500 0.675800
14.254300 0.673000
14.310200 0.659200
14.366000 0.652400
14.421800 0.648400
14.477600 0.646700
14.533400 0.645200
14.589200 0.644200
14.645100 0.639900
14.700900 0.637800
14.756700 0.638600
14.812500 0.637900
14.868300 0.633900
14.924200 0.609300
14.980000 0.582700
15.035800 0.564600
15.091600 0.602500
15.147400 0.533800
15.203200 0.522800
15.259100 0.510900
15.314900 0.497900
15.370700 0.484800
15.426500 0.472300
15.482300 0.461900
15.538100 0.451500
15.594000 0.444400
15.649800 0.440000
15.705600 0.442100
15.761400 0.448100
15.817200 0.455500
15.873000 0.467900
15.928900 0.478500
15.984700 0.484400
16.040500 0.491700
16.096300 0.506500
16.152100 0.528000
16.208000 0.562900
16.263800 0.600300
16.319600 0.628200
16.375400 0.642300
16.431200 0.646100
16.487000 0.652700
16.542900 0.679200
16.598700 0.704600
16.654500 0.789500
16.710300 0.775500
16.766100 0.862600
16.821900 0.883300
16.877800 0.941600
16.933600 0.945800
16.989400 0.959800
17.045200 0.992900
17.101000 1.022400
17.156900 1.086500
17.212700 0.997700
17.268500 0.964700
17.324300 0.960600
17.380100 0.954200
17.435900 0.946500
17.491800 0.936600
17.547600 0.921600
17.603400 0.909200
17.659200 0.907200
17.715000 0.910100
17.770800 0.912400
17.826700 0.905400
17.882500 0.914200
17.938300 0.920500
17.994100 0.928400
18.049900 0.931700
18.105800 0.932300
18.161600 0.934100
18.217400 0.942500
18.273200 0.947100
18.329000 0.946000
18.384800 0.954900
18.440700 0.959900
18.496500 0.961200
18.552300 0.964200
18.608100 0.965200
18.663900 0.966300
18.719700 0.967100
18.775600 0.969600
18.831400 0.980800
18.887200 0.998100
18.943000 1.031800
18.998800 1.054800
19.054600 1.077800
19.110500 1.091200
19.166300 1.094800
19.222100 1.102000
19.277900 1.108900
19.333700 1.107500
19.389600 1.091600
19.445400 1.075100
19.501200 1.066200
19.557000 1.064700
19.612800 1.072300
19.668600 1.065800
19.724500 1.073900
19.780300 1.058000
19.836100 1.061600
19.891900 1.067200
19.947700 1.069000
20.003500 1.064500
20.059400 1.062600
20.115200 1.050600
20.171000 1.036000
20.226800 1.032200
20.282600 1.033400
20.338500 1.045700
20.394300 1.062300
20.450100 1.048200
20.505900 1.045700
20.561700 1.046900
20.617500 1.029800
20.673400 1.017200
20.729200 1.008900
20.785000 1.002600
20.840800 1.006900
20.896600 1.008900
20.952400 1.011300
21.008300 1.030000
21.064100 1.040900
21.119900 1.075100
21.175700 1.027400
21.231500 0.995400
21.287300 0.982400
21.343200 0.979400
21.399000 0.974500
21.454800 0.989400
21.510600 1.008700
21.566400 1.014200
21.622300 1.008100
21.678100 0.993000
21.733900 1.016300
21.789700 1.001900
21.845500 1.011100
21.901300 1.032900
21.957200 1.044100
22.013000 1.062000
22.068800 1.075600
22.124600 1.100600
22.180400 1.122400
22.236200 1.158100
22.292100 1.187300
22.347900 1.223300
22.403700 1.238200
22.459500 1.285700
22.515300 1.435100
22.571200 1.591600
22.627000 1.829000
22.682800 1.485700
22.738600 1.348000
22.794400 1.296100
22.850200 1.253000
22.906100 1.215600
22.961900 1.183900
23.017700 1.160100
23.073500 1.141200
23.129300 1.130100
23.185100 1.115000
23.241000 1.090300
23.296800 1.060500
23.352600 1.028100
23.408400 1.069300
23.464200 1.145100
23.520000 1.146500
23.575900 1.160700
23.631700 1.207500
23.687500 1.185300
23.743300 1.147200
23.799100 1.096400
23.855000 1.016000
23.910800 0.987500
23.966600 0.965100
24.022400 0.975500
24.078200 0.962100
24.134000 0.938000
24.189900 0.923600
24.245700 0.923500
24.301500 0.927300
24.357300 0.957100
24.413100 0.966200
24.468900 0.952000
24.524800 0.924900
24.580600 0.930200
24.636400 0.825100
24.692200 0.790400
24.748000 0.753900
24.803900 0.719100
24.859700 0.689000
24.915500 0.666300
24.971300 0.647400
25.027100 0.630600
25.082900 0.617600
25.138800 0.613100
25.194600 0.596400
25.250400 0.590200
25.306200 0.586500
25.362000 0.580800
25.417800 0.601200
25.473700 0.636000
25.529500 0.656800
25.585300 0.665200
25.641100 0.691400
25.696900 0.719100
25.752800 0.752400
25.808600 0.787200
25.864400 0.814000
25.920200 0.848200
25.976000 0.883600
26.031800 0.921400
26.087700 0.964100
26.143500 1.007900
26.199300 1.059800
26.255100 1.107300
26.310900 1.159800
26.366700 1.256500
26.422600 1.353900
26.478400 1.455500
26.534200 1.577200
26.590000 1.658500
26.645800 1.779800
26.701600 1.858200
26.757500 1.957200
26.813300 2.010600
26.869100 2.062600
26.924900 2.090000
26.980700 2.126300
27.036600 2.252300
27.092400 2.449100
27.148200 2.827600
27.204000 3.666300
27.259800 6.726300
27.315600 13.568000
27.371500 16.875000
27.427300 6.209500
27.483100 3.788300
27.538900 2.955400
27.594700 2.518900
27.650500 2.196600
27.706400 1.888500
27.762200 1.694000
27.818000 1.567800
27.873800 1.512200
27.929600 1.473600
27.985500 1.420000
28.041300 1.361500
28.097100 1.320600
28.152900 1.288000
28.208700 1.254800
28.264500 1.216700
28.320400 1.200600
28.376200 1.175200
28.432000 1.167500
28.487800 1.172200
28.543600 1.186100
28.599400 1.200300
28.655300 1.206700
28.711100 1.182800
28.766900 1.140200
28.822700 1.090700
28.878500 1.046200
28.934300 1.015400
28.990200 0.981500
29.046000 0.949900
29.101800 0.923600
29.157600 0.901800
29.213400 0.877300
29.269300 0.850800
29.325100 0.826600
29.380900 0.800800
29.436700 0.767800
29.492500 0.734400
29.548300 0.708200
29.604200 0.690000
29.660000 0.689100
29.715800 0.691000
29.771600 0.689200
29.827400 0.684800
29.883200 0.687600
29.939100 0.697200
29.994900 0.704600
30.050700 0.705800
30.106500 0.700900
30.162300 0.710600
30.218200 0.734900
30.274000 0.767600
30.329800 0.845200
30.385600 0.950000
30.441400 1.245600
30.497200 2.013200
30.553100 4.330000
30.608900 8.982500
30.664700 1.474100
30.720500 0.988000
30.776300 0.881900
30.832100 0.866400
30.888000 0.879200
30.943800 0.895500
30.999600 0.912700
31.055400 0.907000
31.111200 0.902300
31.167100 0.921600
31.222900 0.945400
31.278700 0.973300
31.334500 1.017200
31.390300 1.068900
31.446100 1.097200
31.502000 1.114100
31.557800 1.126300
31.613600 1.095200
31.669400 1.065800
31.725200 1.047200
31.781000 1.033800
31.836900 1.044800
31.892700 1.062600
31.948500 1.058300
32.004300 1.050300
32.060100 1.057100
32.115900 1.074100
32.171800 1.098700
32.227600 1.145500
32.283400 1.194700
32.339200 1.257900
32.395000 1.331300
32.450900 1.365400
32.506700 1.416300
32.562500 1.622200
32.618300 1.601100
32.674100 1.610200
32.729900 1.587600
32.785800 1.553600
32.841600 1.532300
32.897400 1.564700
32.953200 1.599100
33.009000 1.622000
33.064800 1.632000
33.120700 1.777300
33.176500 1.651800
33.232300 1.595300
33.288100 1.431500
33.343900 1.381800
33.399800 1.373100
33.455600 1.323100
33.511400 1.286900
33.567200 1.249400
33.623000 1.245000
33.678800 1.218800
33.734700 1.173400
33.790500 1.126700
33.846300 1.104900
33.902100 1.091200
33.957900 1.097100
34.013700 1.108700
34.069600 1.110600
34.125400 1.109100
34.181200 1.106700
34.237000 1.113900
34.292800 1.135600
34.348600 1.170200
34.404500 1.194200
34.460300 1.186400
34.516100 1.165200
34.571900 1.160900
34.627700 1.204200
34.683600 1.165200
34.739400 1.213800
34.795200 1.314600
34.851000 1.321300
34.906800 1.350500
34.962600 1.398500
35.018500 1.446300
35.074300 1.488800
35.130100 1.524900
35.185900 1.572500
35.241700 1.549200
35.297500 1.540100
35.353400 1.564400
35.409200 1.590900
35.465000 1.643700
35.520800 1.735800
35.576600 1.782800
35.632500 1.855500
35.688300 1.868800
35.744100 1.851800
35.799900 1.800700
35.855700 1.806400
35.911500 1.812300
35.967400 1.780100
36.023200 1.724400
36.079000 1.699700
36.134800 1.665700
36.190600 1.620100
36.246400 1.550500
36.302300 1.520400
36.358100 1.485800
36.413900 1.447400
36.469700 1.433400
36.525500 1.431500
36.581300 1.442700
36.637200 1.428400
36.693000 1.411700
36.748800 1.434000
36.804600 1.456500
36.860400 1.489700
36.916300 1.486800
36.972100 1.524600
37.027900 1.440400
37.083700 1.418000
37.139500 1.438200
37.195300 1.418600
37.251200 1.394900
37.307000 1.376100
37.362800 1.346800
37.418600 1.327700
37.474400 1.315900
37.530200 1.325100
37.586100 1.306600
37.641900 1.262600
37.697700 1.240300
37.753500 1.228100
37.809300 1.213000
37.865200 1.198200
37.921000 1.198600
37.976800 1.197100
38.032600 1.165000
38.088400 1.151000
38.144200 1.160600
38.200100 1.163300
38.255900 1.158700
38.311700 1.163700
38.367500 1.167900
38.423300 1.197900
38.479100 1.204000
38.535000 1.222000
38.590800 1.223500
38.646600 1.214200
38.702400 1.202200
38.758200 1.208200
38.814100 1.215600
38.869900 1.229500
38.925700 1.246000
38.981500 1.233900
39.037300 1.218100
39.093100 1.212100
39.149000 1.212200
39.204800 1.198100
39.260600 1.182000
39.316400 1.164700
39.372200 1.137500
39.428000 1.103900
39.483900 1.078900
39.539700 1.060800
39.595500 1.044500
39.651300 1.031100
39.707100 1.025400
39.762900 1.026400
39.818800 1.033000
39.874600 1.041300
39.930400 1.059600
39.986200 1.071400
40.042000 1.088200
40.097900 1.107800
40.153700 1.120600
40.209500 1.133600
40.265300 1.106500
40.321100 1.077200
40.376900 1.052000
40.432800 1.039000
40.488600 1.036400
40.544400 1.058300
40.600200 1.073600
40.656000 1.090300
40.711800 1.078400
40.767700 1.078100
40.823500 1.074200
40.879300 1.075600
40.935100 1.079000
40.990900 1.089500
41.046800 1.096200
41.102600 1.107700
41.158400 1.126500
41.214200 1.158600
41.270000 1.182200
41.325800 1.228100
41.381700 1.280600
41.437500 1.270800
41.493300 1.242400
41.549100 1.246000
41.604900 1.263300
41.660700 1.295100
41.716600 1.325600
41.772400 1.340200
41.828200 1.345900
41.884000 1.364800
41.939800 1.389300
41.995600 1.430300
42.051500 1.425600
42.107300 1.418500
42.163100 1.450400
42.218900 1.492400
42.274700 1.509500
42.330600 1.570300
42.386400 1.582000
42.442200 1.585500
42.498000 1.616800
42.553800 1.694300
42.609600 1.582600
42.665500 1.516700
42.721300 1.484800
42.777100 1.517500
42.832900 1.559800
42.888700 1.551500
42.944500 1.502900
43.000400 1.474500
43.056200 1.445700
43.112000 1.409500
43.167800 1.376900
43.223600 1.362900
43.279500 1.344900
43.335300 1.349800
43.391100 1.375000
43.446900 1.487500
43.502700 1.476600
43.558500 1.492900
43.614400 1.519300
43.670200 1.527700
43.726000 1.516100
43.781800 1.508000
43.837600 1.457000
43.893400 1.456400
43.949300 1.456500
44.005100 1.492300
44.060900 1.532100
44.116700 1.612000
44.172500 1.583500
44.228400 1.614600
44.284200 1.669900
44.340000 1.765000
44.395800 1.857000
44.451600 1.889700
44.507400 1.856500
44.563300 1.779800
44.619100 1.778700
44.674900 1.803600
44.730700 1.824800
44.786500 1.859200
44.842300 1.854700
44.898200 1.816100
44.954000 1.837700
45.009800 1.844900
45.065600 1.869300
45.121400 1.844600
45.177200 1.872200
45.233100 1.865400
45.288900 1.821600
45.344700 1.802400
45.400500 1.735300
45.456300 1.678000
45.512200 1.646500
45.568000 1.654000
45.623800 1.700000
45.679600 1.669100
45.735400 1.642100
45.791200 1.629000
45.847100 1.564300
45.902900 1.552700
45.958700 1.556400
46.014500 1.581700
46.070300 1.630700
46.126100 1.703300
46.182000 1.757300
46.237800 1.811800
46.293600 1.790000
46.349400 1.706500
46.405200 1.659900
46.461100 1.599600
46.516900 1.565000
46.572700 1.516500
46.628500 1.486000
46.684300 1.420400
46.740100 1.394400
46.796000 1.398800
46.851800 1.439900
46.907600 1.514000
46.963400 1.572100
47.019200 1.605000
47.075000 1.585100
47.130900 1.559300
47.186700 1.541500
47.242500 1.577400
47.298300 1.497200
47.354100 1.373200
47.409900 1.236100
47.465800 1.175300
47.521600 1.183500
47.577400 1.198000
47.633200 1.217700
47.689000 1.251200
47.744900 1.270700
47.800700 1.299400
47.856500 1.359100
47.912300 1.396100
47.968100 1.392200
48.023900 1.389800
48.079800 1.392800
48.135600 1.391100
48.191400 1.381400
48.247200 1.335900
48.303000 1.350000
48.358800 1.341300
48.414700 1.338700
48.470500 1.343800
48.526300 1.342900
48.582100 1.352000
48.637900 1.355000
48.693800 1.311300
48.749600 1.270600
48.805400 1.247600
48.861200 1.288300
48.917000 1.371900
48.972800 1.433400
49.028700 1.496100
49.084500 1.521600
49.140300 1.525800
49.196100 1.503200
49.251900 1.458700
49.307700 1.410800
49.363600 1.370100
49.419400 1.342300
49.475200 1.309000
49.531000 1.291900
49.586800 1.296800
49.642600 1.265300
49.698500 1.254100
49.754300 1.235800
49.810100 1.214800
49.865900 1.227400
49.921700 1.196500
49.977600 1.176600
50.033400 1.195100
50.089200 1.212100
50.145000 1.242100
50.200800 1.293700
50.256600 1.373200
50.312500 1.468100
50.368300 1.557400
50.424100 1.618900
50.479900 1.680000
50.535700 1.689100
50.591500 1.714500
50.647400 1.702900
50.703200 1.661600
50.759000 1.673800
50.814800 1.652000
50.870600 1.612200
50.926500 1.587900
50.982300 1.521700
51.038100 1.467100
51.093900 1.436000
51.149700 1.345400
51.205500 1.304900
51.261400 1.265200
51.317200 1.248300
51.373000 1.275000
51.428800 1.302800
51.484600 1.319500
51.540400 1.367600
51.596300 1.344700
51.652100 1.341400
51.707900 1.351100
51.763700 1.370200
51.819500 1.393800
51.875400 1.417400
51.931200 1.438500
51.987000 1.532200
52.042800 1.613700
52.098600 1.624100
52.154400 1.694400
52.210300 1.762000
52.266100 1.820900
52.321900 1.882800
52.377700 1.994200
52.433500 1.909300
52.489300 1.859700
52.545200 1.796300
52.601000 1.729900
52.656800 1.680200
52.712600 1.662500
52.768400 1.646000
52.824200 1.614400
52.880100 1.604800
52.935900 1.630200
52.991700 1.656900
53.047500 1.685100
53.103300 1.738700
53.159200 1.819400
53.215000 1.859600
53.270800 1.838300
53.326600 1.815100
53.382400 1.882600
53.438200 1.966900
53.494100 2.061600
53.549900 1.968200
53.605700 1.854700
53.661500 1.764900
53.717300 1.696400
53.773100 1.729900
53.829000 1.771600
53.884800 1.878000
53.940600 1.984700
53.996400 2.070400
54.052200 2.142700
54.108100 2.136200
54.163900 2.066600
54.219700 2.014300
54.275500 2.030100
54.331300 2.114200
54.387100 2.289400
54.443000 2.268600
54.498800 2.214900
54.554600 2.142600
54.610400 2.038900
54.666200 1.990100
54.722000 1.968800
54.777900 1.965000
54.833700 1.940800
54.889500 1.927400
54.945300 1.919500
55.001100 1.890700
55.056900 1.883200
55.112800 1.783200
55.168600 1.640400
55.224400 1.525400
55.280200 1.463100
55.336000 1.443700
55.391900 1.365500
55.447700 1.287600
55.503500 1.285700
55.559300 1.211300
55.615100 1.135800
55.670900 1.029000
55.726800 1.003000
55.782600 0.946100
55.838400 0.927700
55.894200 1.005000
55.950000 1.157600
56.005800 1.293600
56.061700 1.442700
56.117500 1.628600
56.173300 1.752100
56.229100 1.847200
56.284900 1.907800
56.340800 1.976500
56.396600 2.017200
56.452400 2.150900
56.508200 2.256500
56.564000 2.302400
56.619800 2.308200
56.675700 2.269500
56.731500 2.379900
56.787300 2.421800
56.843100 2.577800
56.898900 2.603600
56.954700 2.519100
57.010600 2.455400
57.066400 2.555000
57.122200 2.543200
57.178000 2.666900
57.233800 2.612900
57.289700 2.372000
57.345500 2.193300
57.401300 2.037200
57.457100 1.872500
57.512900 1.764200
57.568700 1.790500
57.624600 2.104900
57.680400 2.269300
57.736200 2.057400
57.792000 1.892100
57.847800 1.785600
57.903600 1.642900
57.959500 1.606000
58.015300 1.563600
58.071100 1.469000
58.126900 1.362600
58.182700 1.224500
58.238500 1.130600
58.294400 1.039100
58.350200 0.946000
58.406000 0.875600
58.461800 0.828300
58.517600 0.782600
58.573500 0.717500
58.629300 0.671900
58.685100 0.635200
58.740900 0.586900
58.796700 0.534300
58.852500 0.487200
58.908400 0.446300
58.964200 0.406700
59.020000 0.378900
59.075800 0.353500
59.131600 0.324200
59.187400 0.292500
59.243300 0.264200
59.299100 0.242600
59.354900 0.224000
59.410700 0.207200
59.466500 0.199600
59.522400 0.197500
59.578200 0.202300
59.634000 0.222600
59.689800 0.245800
59.745600 0.249800
59.801400 0.232700
59.857300 0.197100
59.913100 0.164400
59.968900 0.136000
60.024700 0.112900
60.080500 0.098500
60.136300 0.088400
60.192200 0.082000
60.248000 0.073000
60.303800 0.057800
60.359600 0.040500
60.415400 0.023400
60.471200 0.007200
60.527100 0.002400
60.582900 0.001100
60.638700 0.000300
60.694500 0.000000
60.750300 0.000000
60.806200 0.000000
60.862000 0.000000
60.917800 0.000000
60.973600 0.000000
61.029400 0.000000
61.085200 0.000000
61.141100 0.000000
61.196900 0.000000
61.252700 0.000000
61.308500 0.000000
61.364300 0.000000
61.420100 0.000000
61.476000 0.000000
61.531800 0.000000
61.587600 0.000000
61.643400 0.000000
61.699200 0.000000
61.755100 0.000000
61.810900 0.000000
61.866700 0.000000
61.922500 0.000000
61.978300 0.000000
62.034100 0.000000
62.090000 0.000000
62.145800 0.000000
62.201600 0.000000
62.257400 0.000000
62.313200 0.000000
62.369000 0.000000
62.424900 0.000000
62.480700 0.000000
62.536500 0.000000
62.592300 0.000000
62.648100 0.000000
62.704000 0.000000
62.759800 0.000000
62.815600 0.000000
62.871400 0.000000
62.927200 0.000000
62.983000 0.000000
63.038900 0.000000
63.094700 0.000000
63.150500 0.000000
63.206300 0.000000
63.262100 0.000000
63.317900 0.000000
63.373800 0.000000
63.429600 0.000000
63.485400 0.000000
63.541200 0.000000
63.597000 0.000000
63.652800 0.000000
63.708700 0.000000
63.764500 0.000000
63.820300 0.000000
63.876100 0.000000
63.931900 0.000000
63.987800 0.000000
64.043600 0.000000
64.099400 0.000000
64.155200 0.000000
64.211000 0.000000
64.266800 0.000000
64.322700 0.000000
64.378500 0.000000
64.434300 0.000000
64.490100 0.000000
64.545900 0.000000
64.601700 0.000000
64.657600 0.000000
64.713400 0.000000
64.769200 0.000000
64.825000 0.000000
64.880800 0.000000
64.936700 0.000000
64.992500 0.000000
65.048300 0.000000
65.104100 0.000000
65.159900 0.000000
65.215700 0.000000
65.271600 0.000000
65.327400 0.000000
65.383200 0.000000
65.439000 0.000000
65.494800 0.000000
65.550600 0.000000
65.606500 0.000000
65.662300 0.000000
65.718100 0.000000
65.773900 0.000000
e
