set title 'mp-2123 - Density of States'
set xlabel 'Energy (eV)'
set ylabel 'DOS (states/eV)'
set grid
set xrange [-10:10]
set yrange [0:19.826]
set xzeroaxis lt -1
set terminal png size 800,600
set output 'mp-2123_dos_gnuplot.png'
plot '-' using 1:2 with lines title 'DOS'
-29.270500 0.000000
-29.235100 0.000000
-29.199700 0.000000
-29.164300 0.000000
-29.128900 0.000000
-29.093500 0.000000
-29.058100 0.000000
-29.022700 0.000000
-28.987300 0.000000
-28.951800 0.000000
-28.916400 0.000000
-28.881000 0.000000
-28.845600 0.000000
-28.810200 0.000000
-28.774800 0.000000
-28.739400 0.000000
-28.704000 0.000000
-28.668600 0.000000
-28.633200 0.000000
-28.597800 0.000000
-28.562400 0.000000
-28.527000 0.000000
-28.491600 0.000000
-28.456100 0.000000
-28.420700 0.000000
-28.385300 0.000000
-28.349900 0.000000
-28.314500 0.000000
-28.279100 0.000000
-28.243700 0.000000
-28.208300 0.000000
-28.172900 0.000000
-28.137500 0.000000
-28.102100 0.000000
-28.066700 0.000000
-28.031300 0.000000
-27.995900 0.000000
-27.960400 0.000000
-27.925000 0.000000
-27.889600 0.000000
-27.854200 0.000000
-27.818800 0.000000
-27.783400 0.000000
-27.748000 0.000000
-27.712600 0.000000
-27.677200 0.000000
-27.641800 0.000000
-27.606400 0.000000
-27.571000 0.000000
-27.535600 0.000000
-27.500200 0.000000
-27.464700 0.000000
-27.429300 0.000000
-27.393900 0.000000
-27.358500 0.000000
-27.323100 0.000000
-27.287700 0.000000
-27.252300 0.000000
-27.216900 0.000000
-27.181500 0.000000
-27.146100 0.000000
-27.110700 0.000000
-27.075300 0.000000
-27.039900 0.000000
-27.004500 0.000000
-26.969000 0.000000
-26.933600 0.000000
-26.898200 0.000000
-26.862800 0.000000
-26.827400 0.000000
-26.792000 0.000000
-26.756600 0.000000
-26.721200 0.000000
-26.685800 0.000000
-26.650400 0.000000
-26.615000 0.000000
-26.579600 0.000000
-26.544200 0.000000
-26.508800 0.000000
-26.473300 0.000000
-26.437900 0.000000
-26.402500 0.000000
-26.367100 0.000000
-26.331700 0.000000
-26.296300 0.000000
-26.260900 0.000000
-26.225500 0.000000
-26.190100 0.000000
-26.154700 0.000000
-26.119300 0.000000
-26.083900 0.000000
-26.048500 15.386200
-26.013100 25.541600
-25.977600 24.944600
-25.942200 19.757700
-25.906800 10.196700
-25.871400 24.447200
-25.836000 26.484800
-25.800600 26.179400
-25.765200 18.262200
-25.729800 21.644900
-25.694400 18.966900
-25.659000 22.202300
-25.623600 80.454800
-25.588200 0.000000
-25.552800 0.000000
-25.517400 0.000000
-25.482000 0.000000
-25.446500 0.000000
-25.411100 0.000000
-25.375700 0.000000
-25.340300 0.000000
-25.304900 0.000000
-25.269500 0.000000
-25.234100 0.000000
-25.198700 0.000000
-25.163300 0.000000
-25.127900 0.000000
-25.092500 2.097500
-25.057100 3.307500
-25.021700 8.044100
-24.986300 12.505100
-24.950800 20.777100
-24.915400 35.089300
-24.880000 30.894500
-24.844600 31.023100
-24.809200 20.643800
-24.773800 0.000000
-24.738400 0.000000
-24.703000 0.000000
-24.667600 0.000000
-24.632200 0.000000
-24.596800 0.000000
-24.561400 0.000000
-24.526000 0.000000
-24.490600 0.000000
-24.455100 0.000000
-24.419700 0.000000
-24.384300 0.000000
-24.348900 0.000000
-24.313500 0.000000
-24.278100 0.000000
-24.242700 0.000000
-24.207300 0.000000
-24.171900 0.000000
-24.136500 0.000000
-24.101100 0.000000
-24.065700 0.000000
-24.030300 0.000000
-23.994900 0.000000
-23.959400 0.000000
-23.924000 0.000000
-23.888600 0.000000
-23.853200 0.000000
-23.817800 0.000000
-23.782400 0.000000
-23.747000 0.000000
-23.711600 0.000000
-23.676200 0.000000
-23.640800 0.000000
-23.605400 0.000000
-23.570000 0.000000
-23.534600 0.000000
-23.499200 0.000000
-23.463700 0.000000
-23.428300 0.000000
-23.392900 0.000000
-23.357500 0.000000
-23.322100 0.000000
-23.286700 0.000000
-23.251300 0.000000
-23.215900 0.000000
-23.180500 0.000000
-23.145100 0.000000
-23.109700 0.000000
-23.074300 0.000000
-23.038900 0.000000
-23.003500 0.000000
-22.968000 0.000000
-22.932600 0.000000
-22.897200 0.000000
-22.861800 0.000000
-22.826400 0.000000
-22.791000 0.000000
-22.755600 0.000000
-22.720200 0.000000
-22.684800 0.000000
-22.649400 0.000000
-22.614000 0.000000
-22.578600 0.000000
-22.543200 0.000000
-22.507800 0.000000
-22.472300 0.000000
-22.436900 0.000000
-22.401500 0.000000
-22.366100 0.000000
-22.330700 0.000000
-22.295300 0.000000
-22.259900 0.000000
-22.224500 0.000000
-22.189100 0.000000
-22.153700 0.000000
-22.118300 0.000000
-22.082900 0.000000
-22.047500 0.000000
-22.012100 0.000000
-21.976600 0.000000
-21.941200 0.000000
-21.905800 0.000000
-21.870400 0.000000
-21.835000 0.000000
-21.799600 0.000000
-21.764200 0.000000
-21.728800 0.000000
-21.693400 0.000000
-21.658000 0.000000
-21.622600 0.000000
-21.587200 0.000000
-21.551800 0.000000
-21.516400 0.000000
-21.480900 0.000000
-21.445500 0.000000
-21.410100 0.000000
-21.374700 0.000000
-21.339300 0.000000
-21.303900 0.000000
-21.268500 0.000000
-21.233100 0.000000
-21.197700 0.000000
-21.162300 0.000000
-21.126900 0.000000
-21.091500 0.000000
-21.056100 0.000000
-21.020700 0.000000
-20.985200 0.000000
-20.949800 0.000000
-20.914400 0.000000
-20.879000 0.000000
-20.843600 0.000000
-20.808200 0.000000
-20.772800 0.000000
-20.737400 0.000000
-20.702000 0.000000
-20.666600 0.000000
-20.631200 0.000000
-20.595800 0.000000
-20.560400 0.000000
-20.525000 0.000000
-20.489600 0.000000
-20.454100 0.000000
-20.418700 0.000000
-20.383300 0.000000
-20.347900 0.000000
-20.312500 0.000000
-20.277100 0.000000
-20.241700 0.000000
-20.206300 0.000000
-20.170900 0.000000
-20.135500 0.000000
-20.100100 0.000000
-20.064700 0.000000
-20.029300 0.000000
-19.993900 0.000000
-19.958400 0.000000
-19.923000 0.000000
-19.887600 0.000000
-19.852200 0.000000
-19.816800 0.000000
-19.781400 0.000000
-19.746000 0.000000
-19.710600 0.000000
-19.675200 0.000000
-19.639800 0.000000
-19.604400 0.000000
-19.569000 0.000000
-19.533600 0.000000
-19.498200 0.000000
-19.462700 0.000000
-19.427300 0.000000
-19.391900 0.000000
-19.356500 0.000000
-19.321100 0.000000
-19.285700 0.000000
-19.250300 0.000000
-19.214900 0.000000
-19.179500 0.000000
-19.144100 0.000000
-19.108700 0.000000
-19.073300 0.000000
-19.037900 0.000000
-19.002500 0.000000
-18.967000 0.000000
-18.931600 0.000000
-18.896200 0.000000
-18.860800 0.000000
-18.825400 0.000000
-18.790000 0.000000
-18.754600 0.000000
-18.719200 0.000000
-18.683800 0.000000
-18.648400 0.000000
-18.613000 0.000000
-18.577600 0.000000
-18.542200 0.000000
-18.506800 0.000000
-18.471300 0.000000
-18.435900 0.000000
-18.400500 0.000000
-18.365100 0.000000
-18.329700 0.000000
-18.294300 0.000000
-18.258900 0.000000
-18.223500 0.000000
-18.188100 0.000000
-18.152700 0.000000
-18.117300 0.000000
-18.081900 0.000000
-18.046500 0.000000
-18.011100 0.000000
-17.975600 0.000000
-17.940200 0.000000
-17.904800 0.000000
-17.869400 0.000000
-17.834000 0.000000
-17.798600 0.000000
-17.763200 0.000000
-17.727800 0.000000
-17.692400 0.000000
-17.657000 0.000000
-17.621600 0.000000
-17.586200 0.000000
-17.550800 0.000000
-17.515400 0.000000
-17.479900 0.000000
-17.444500 0.000000
-17.409100 0.000000
-17.373700 0.000000
-17.338300 0.000000
-17.302900 0.000000
-17.267500 0.000000
-17.232100 0.000000
-17.196700 0.000000
-17.161300 0.000000
-17.125900 0.000000
-17.090500 0.000000
-17.055100 0.000000
-17.019700 0.000000
-16.984200 0.000000
-16.948800 0.000000
-16.913400 0.000000
-16.878000 0.000000
-16.842600 0.000000
-16.807200 0.000000
-16.771800 0.000000
-16.736400 0.000000
-16.701000 0.000000
-16.665600 0.000000
-16.630200 0.000000
-16.594800 0.000000
-16.559400 0.000000
-16.524000 0.000000
-16.488500 0.000000
-16.453100 0.000000
-16.417700 0.000000
-16.382300 0.000000
-16.346900 0.000000
-16.311500 0.000000
-16.276100 0.000000
-16.240700 0.000000
-16.205300 0.000000
-16.169900 0.000000
-16.134500 0.000000
-16.099100 0.000000
-16.063700 0.000000
-16.028300 0.000000
-15.992800 0.000000
-15.957400 0.000000
-15.922000 0.000000
-15.886600 0.000000
-15.851200 0.000000
-15.815800 0.000000
-15.780400 0.000000
-15.745000 0.000000
-15.709600 0.000000
-15.674200 0.000000
-15.638800 0.000000
-15.603400 0.000000
-15.568000 0.000000
-15.532600 0.000000
-15.497200 0.000000
-15.461700 0.000000
-15.426300 0.000000
-15.390900 0.000000
-15.355500 0.000000
-15.320100 0.000000
-15.284700 0.000000
-15.249300 0.000000
-15.213900 0.000000
-15.178500 0.000000
-15.143100 0.000000
-15.107700 0.000000
-15.072300 0.000000
-15.036900 0.000000
-15.001500 0.000000
-14.966000 0.000000
-14.930600 0.000000
-14.895200 0.000000
-14.859800 0.000000
-14.824400 0.000000
-14.789000 0.000000
-14.753600 0.000000
-14.718200 0.000000
-14.682800 0.000000
-14.647400 0.000000
-14.612000 0.000000
-14.576600 0.000000
-14.541200 0.000000
-14.505800 0.000000
-14.470300 0.000000
-14.434900 0.000000
-14.399500 0.000000
-14.364100 0.000000
-14.328700 0.000000
-14.293300 0.000000
-14.257900 0.000000
-14.222500 0.000000
-14.187100 0.000000
-14.151700 0.000000
-14.116300 0.000000
-14.080900 0.000000
-14.045500 0.000000
-14.010100 0.000000
-13.974600 0.000000
-13.939200 0.000000
-13.903800 0.000000
-13.868400 0.000000
-13.833000 0.000000
-13.797600 0.000000
-13.762200 0.000000
-13.726800 0.000000
-13.691400 0.000000
-13.656000 0.000000
-13.620600 0.000000
-13.585200 0.000000
-13.549800 0.000000
-13.514400 0.000000
-13.478900 0.000000
-13.443500 0.000000
-13.408100 0.000000
-13.372700 0.000000
-13.337300 0.000000
-13.301900 0.000000
-13.266500 0.000000
-13.231100 0.000000
-13.195700 0.000000
-13.160300 0.000000
-13.124900 0.000000
-13.089500 0.000000
-13.054100 0.000000
-13.018700 0.000000
-12.983200 0.000000
-12.947800 0.000000
-12.912400 0.000000
-12.877000 0.000000
-12.841600 0.000000
-12.806200 0.000000
-12.770800 0.000000
-12.735400 0.000000
-12.700000 0.000000
-12.664600 0.000000
-12.629200 0.000000
-12.593800 0.000000
-12.558400 0.000000
-12.523000 0.000000
-12.487500 0.000000
-12.452100 0.000000
-12.416700 0.000000
-12.381300 0.000000
-12.345900 0.000000
-12.310500 0.000000
-12.275100 0.000000
-12.239700 0.000000
-12.204300 0.000000
-12.168900 0.000000
-12.133500 0.000000
-12.098100 0.000000
-12.062700 0.000000
-12.027300 0.000000
-11.991800 0.000000
-11.956400 0.000000
-11.921000 0.000000
-11.885600 0.000000
-11.850200 0.000000
-11.814800 0.000000
-11.779400 0.000000
-11.744000 0.000000
-11.708600 0.000000
-11.673200 0.000000
-11.637800 0.000000
-11.602400 0.000000
-11.567000 0.000000
-11.531600 0.000000
-11.496100 0.000000
-11.460700 0.000000
-11.425300 0.000000
-11.389900 0.000000
-11.354500 0.000000
-11.319100 0.000000
-11.283700 0.000000
-11.248300 0.000000
-11.212900 0.000000
-11.177500 0.000000
-11.142100 0.000000
-11.106700 0.000000
-11.071300 0.000000
-11.035900 0.000000
-11.000400 0.000000
-10.965000 0.000000
-10.929600 0.000000
-10.894200 0.000000
-10.858800 0.000000
-10.823400 0.000000
-10.788000 0.000000
-10.752600 0.000000
-10.717200 0.000000
-10.681800 0.000000
-10.646400 0.000000
-10.611000 0.000000
-10.575600 0.000000
-10.540200 0.000000
-10.504800 0.000000
-10.469300 0.000000
-10.433900 0.000000
-10.398500 0.000000
-10.363100 0.000000
-10.327700 0.000000
-10.292300 0.000000
-10.256900 0.000000
-10.221500 0.000000
-10.186100 0.000000
-10.150700 0.000000
-10.115300 0.000000
-10.079900 0.000000
-10.044500 0.000000
-10.009100 0.000000
-9.973600 0.000000
-9.938200 0.000000
-9.902800 0.000000
-9.867400 0.000000
-9.832000 0.000000
-9.796600 0.000000
-9.761200 0.000000
-9.725800 0.000000
-9.690400 0.000000
-9.655000 0.000000
-9.619600 0.000000
-9.584200 0.000000
-9.548800 0.000000
-9.513400 0.000000
-9.477900 0.000000
-9.442500 0.000000
-9.407100 0.000000
-9.371700 0.000000
-9.336300 0.000000
-9.300900 0.000000
-9.265500 0.000000
-9.230100 0.000000
-9.194700 0.000000
-9.159300 0.000000
-9.123900 0.000000
-9.088500 0.000000
-9.053100 0.000000
-9.017700 0.000000
-8.982200 0.000000
-8.946800 0.000000
-8.911400 0.000000
-8.876000 0.000000
-8.840600 0.000000
-8.805200 0.000000
-8.769800 0.000000
-8.734400 0.000000
-8.699000 0.000000
-8.663600 0.000000
-8.628200 0.000000
-8.592800 0.000000
-8.557400 0.000000
-8.522000 0.000000
-8.486500 0.000000
-8.451100 0.000000
-8.415700 0.000000
-8.380300 0.000000
-8.344900 0.000000
-8.309500 0.000000
-8.274100 0.000000
-8.238700 0.000000
-8.203300 0.000000
-8.167900 0.000000
-8.132500 0.000000
-8.097100 0.000000
-8.061700 0.000000
-8.026300 0.000000
-7.990800 0.000000
-7.955400 0.000000
-7.920000 0.000000
-7.884600 0.000000
-7.849200 0.000000
-7.813800 0.000000
-7.778400 0.000000
-7.743000 0.000000
-7.707600 0.000000
-7.672200 0.000000
-7.636800 0.000000
-7.601400 0.000000
-7.566000 0.000000
-7.530600 0.000000
-7.495100 0.000000
-7.459700 0.000000
-7.424300 0.000000
-7.388900 0.000000
-7.353500 0.000000
-7.318100 0.000000
-7.282700 0.000000
-7.247300 0.000000
-7.211900 0.000000
-7.176500 0.000000
-7.141100 0.000000
-7.105700 0.000000
-7.070300 0.000000
-7.034900 0.000000
-6.999400 0.000000
-6.964000 0.000000
-6.928600 0.000000
-6.893200 0.000000
-6.857800 0.000000
-6.822400 0.000000
-6.787000 0.000000
-6.751600 0.000000
-6.716200 0.000000
-6.680800 0.000000
-6.645400 0.000000
-6.610000 0.000000
-6.574600 0.000000
-6.539200 0.000000
-6.503700 0.000000
-6.468300 0.000000
-6.432900 0.000000
-6.397500 0.000000
-6.362100 0.000000
-6.326700 0.000000
-6.291300 0.000000
-6.255900 0.000000
-6.220500 0.000000
-6.185100 0.000000
-6.149700 0.000000
-6.114300 0.000000
-6.078900 0.000000
-6.043500 0.000000
-6.008000 0.000000
-5.972600 0.000000
-5.937200 0.000000
-5.901800 0.000000
-5.866400 0.000000
-5.831000 0.000000
-5.795600 0.000000
-5.760200 0.000000
-5.724800 0.000000
-5.689400 0.000000
-5.654000 0.000000
-5.618600 0.000000
-5.583200 0.000000
-5.547800 0.000000
-5.512400 0.000000
-5.476900 0.000000
-5.441500 0.000000
-5.406100 0.000000
-5.370700 0.000000
-5.335300 0.000000
-5.299900 0.000000
-5.264500 0.000000
-5.229100 0.000000
-5.193700 0.000000
-5.158300 0.000000
-5.122900 0.000000
-5.087500 0.000000
-5.052100 0.000000
-5.016700 0.000000
-4.981200 0.000000
-4.945800 0.000000
-4.910400 0.000000
-4.875000 0.000000
-4.839600 0.000000
-4.804200 0.000000
-4.768800 0.000000
-4.733400 0.000000
-4.698000 0.000000
-4.662600 0.000000
-4.627200 0.000000
-4.591800 0.000000
-4.556400 0.000000
-4.521000 0.000000
-4.485500 0.000000
-4.450100 0.000000
-4.414700 0.000000
-4.379300 0.000000
-4.343900 0.000000
-4.308500 0.000000
-4.273100 0.000000
-4.237700 0.000000
-4.202300 0.000000
-4.166900 0.000000
-4.131500 0.000000
-4.096100 0.000000
-4.060700 0.000000
-4.025300 0.000000
-3.989800 0.000000
-3.954400 0.000000
-3.919000 0.000000
-3.883600 0.000000
-3.848200 0.000000
-3.812800 0.000000
-3.777400 0.000000
-3.742000 0.000000
-3.706600 0.000000
-3.671200 0.000000
-3.635800 0.000000
-3.600400 0.000000
-3.565000 0.000000
-3.529600 0.000000
-3.494100 0.000000
-3.458700 0.000000
-3.423300 0.000000
-3.387900 0.000000
-3.352500 0.000000
-3.317100 0.000000
-3.281700 0.000000
-3.246300 0.000000
-3.210900 0.000000
-3.175500 0.000000
-3.140100 0.000000
-3.104700 0.000000
-3.069300 0.000000
-3.033900 0.002100
-2.998400 0.033800
-2.963000 0.085000
-2.927600 0.150200
-2.892200 0.220200
-2.856800 0.264700
-2.821400 0.303000
-2.786000 0.349200
-2.750600 0.400600
-2.715200 0.439500
-2.679800 0.448000
-2.644400 0.439600
-2.609000 0.437100
-2.573600 0.443900
-2.538200 0.463600
-2.502700 0.475400
-2.467300 0.481800
-2.431900 0.483900
-2.396500 0.488600
-2.361100 0.490300
-2.325700 0.487700
-2.290300 0.487600
-2.254900 0.490400
-2.219500 0.498200
-2.184100 0.506700
-2.148700 0.515200
-2.113300 0.523700
-2.077900 0.533000
-2.042500 0.543700
-2.007000 0.555600
-1.971600 0.569600
-1.936200 0.585400
-1.900800 0.602800
-1.865400 0.620100
-1.830000 0.636300
-1.794600 0.651400
-1.759200 0.665200
-1.723800 0.678800
-1.688400 0.692500
-1.653000 0.706200
-1.617600 0.727000
-1.582200 0.746000
-1.546800 0.765100
-1.511300 0.795700
-1.475900 0.865900
-1.440500 0.972700
-1.405100 1.072400
-1.369700 1.150800
-1.334300 1.206000
-1.298900 1.258500
-1.263500 1.391100
-1.228100 1.911200
-1.192700 1.789300
-1.157300 1.418600
-1.121900 2.210900
-1.086500 2.700000
-1.051100 3.170800
-1.015600 3.043900
-0.980200 4.361100
-0.944800 5.016400
-0.909400 6.255300
-0.874000 7.820800
-0.838600 8.868600
-0.803200 7.151100
-0.767800 5.615400
-0.732400 4.912400
-0.697000 4.813100
-0.661600 4.444900
-0.626200 3.899200
-0.590800 3.719600
-0.555400 4.303000
-0.520000 3.691300
-0.484500 18.023700
-0.449100 7.300200
-0.413700 11.564400
-0.378300 8.879900
-0.342900 9.916800
-0.307500 12.164100
-0.272100 16.586300
-0.236700 11.038100
-0.201300 8.215700
-0.165900 8.577500
-0.130500 5.899300
-0.095100 3.815000
-0.059700 4.837700
-0.024300 5.303500
0.011200 4.607900
0.046600 4.180700
0.082000 5.627000
0.117400 7.091000
0.152800 9.383700
0.188200 9.770200
0.223600 7.105000
0.259000 7.427400
0.294400 10.180000
0.329800 10.048500
0.365200 11.313700
0.400600 8.665700
0.436000 8.367600
0.471400 7.649200
0.506900 6.999100
0.542300 5.267500
0.577700 5.176900
0.613100 4.432800
0.648500 3.335700
0.683900 3.007100
0.719300 2.516300
0.754700 2.688000
0.790100 2.223600
0.825500 2.236300
0.860900 3.197000
0.896300 4.450300
0.931700 5.194000
0.967100 5.926200
1.002600 6.510700
1.038000 7.141200
1.073400 7.903100
1.108800 7.672300
1.144200 6.451500
1.179600 4.468300
1.215000 4.018800
1.250400 5.439500
1.285800 6.448000
1.321200 7.269000
1.356600 8.137000
1.392000 9.518400
1.427400 12.823400
1.462800 13.914300
1.498300 10.677700
1.533700 9.113800
1.569100 8.618800
1.604500 7.081400
1.639900 7.383600
1.675300 4.712100
1.710700 3.066300
1.746100 3.437500
1.781500 4.021500
1.816900 3.783500
1.852300 3.524400
1.887700 3.813900
1.923100 9.315200
1.958500 5.586100
1.994000 6.219000
2.029400 4.817000
2.064800 4.052100
2.100200 3.922000
2.135600 4.044100
2.171000 4.227200
2.206400 4.909500
2.241800 5.898600
2.277200 6.296600
2.312600 6.110000
2.348000 6.357300
2.383400 4.810900
2.418800 5.187400
2.454200 3.283700
2.489700 3.351600
2.525100 3.372500
2.560500 3.534400
2.595900 3.886900
2.631300 4.405000
2.666700 4.635500
2.702100 4.744500
2.737500 5.015000
2.772900 4.685800
2.808300 4.228600
2.843700 3.655500
2.879100 4.199900
2.914500 4.052100
2.949900 3.956900
2.985400 3.257600
3.020800 2.303000
3.056200 1.893700
3.091600 1.824700
3.127000 1.873700
3.162400 2.117800
3.197800 2.371000
3.233200 3.916200
3.268600 3.460500
3.304000 3.595300
3.339400 3.961800
3.374800 5.502000
3.410200 6.807900
3.445600 6.194600
3.481100 4.576200
3.516500 5.197300
3.551900 5.263300
3.587300 4.260900
3.622700 3.732100
3.658100 3.770700
3.693500 3.917500
3.728900 4.516900
3.764300 4.648200
3.799700 5.957900
3.835100 6.142700
3.870500 5.368500
3.905900 4.303700
3.941300 3.108000
3.976800 3.836100
4.012200 6.107700
4.047600 10.041200
4.083000 10.057100
4.118400 7.560800
4.153800 5.571700
4.189200 5.131100
4.224600 5.588600
4.260000 5.634800
4.295400 6.005000
4.330800 6.260300
4.366200 6.503400
4.401600 6.353400
4.437000 4.546600
4.472500 4.651000
4.507900 4.824000
4.543300 5.086400
4.578700 5.026900
4.614100 5.239200
4.649500 5.232100
4.684900 5.507200
4.720300 5.742900
4.755700 5.302500
4.791100 5.046000
4.826500 4.578400
4.861900 4.055500
4.897300 3.912700
4.932700 3.878400
4.968100 2.984100
5.003600 2.866500
5.039000 3.010900
5.074400 3.221000
5.109800 3.596000
5.145200 3.370700
5.180600 3.664000
5.216000 3.665400
5.251400 3.762500
5.286800 3.871000
5.322200 4.016300
5.357600 4.035000
5.393000 3.885400
5.428400 3.828900
5.463800 3.716500
5.499300 3.270800
5.534700 3.151200
5.570100 5.408100
5.605500 2.576900
5.640900 2.139500
5.676300 2.193200
5.711700 1.939300
5.747100 1.647400
5.782500 1.674100
5.817900 1.699100
5.853300 2.107800
5.888700 2.431000
5.924100 2.637800
5.959500 3.122400
5.995000 3.762200
6.030400 3.834700
6.065800 3.360800
6.101200 3.178400
6.136600 3.460600
6.172000 3.924800
6.207400 4.267800
6.242800 2.990700
6.278200 2.825900
6.313600 3.071300
6.349000 3.590700
6.384400 4.453700
6.419800 4.845800
6.455200 4.992000
6.490700 4.989700
6.526100 5.297300
6.561500 5.285600
6.596900 5.023900
6.632300 4.647200
6.667700 4.429300
6.703100 3.885500
6.738500 4.455800
6.773900 5.391800
6.809300 5.992200
6.844700 7.037900
6.880100 7.798600
6.915500 6.025900
6.950900 4.251200
6.986400 3.674300
7.021800 3.286600
7.057200 3.289700
7.092600 3.836000
7.128000 4.086700
7.163400 5.671900
7.198800 6.531100
7.234200 6.931900
7.269600 6.061600
7.305000 5.659800
7.340400 5.482000
7.375800 5.037700
7.411200 3.942900
7.446600 3.492400
7.482100 3.276300
7.517500 3.398300
7.552900 3.029200
7.588300 2.488000
7.623700 2.778100
7.659100 3.780600
7.694500 4.317800
7.729900 3.759000
7.765300 3.623900
7.800700 3.720900
7.836100 4.204400
7.871500 4.515700
7.906900 4.902600
7.942300 5.108900
7.977800 5.346500
8.013200 5.585500
8.048600 5.534100
8.084000 5.577200
8.119400 5.461700
8.154800 5.704800
8.190200 6.192700
8.225600 6.315200
8.261000 6.074300
8.296400 4.613500
8.331800 3.717200
8.367200 5.016200
8.402600 4.588800
8.438000 3.859900
8.473500 3.767000
8.508900 3.963300
8.544300 4.962500
8.579700 5.481200
8.615100 7.388900
8.650500 8.785100
8.685900 9.169800
8.721300 8.203100
8.756700 2.737900
8.792100 1.474300
8.827500 1.109900
8.862900 2.110500
8.898300 2.281600
8.933700 2.828000
8.969200 3.329300
9.004600 4.239000
9.040000 5.171400
9.075400 5.589000
9.110800 4.861000
9.146200 4.387000
9.181600 4.086600
9.217000 3.598300
9.252400 3.667800
9.287800 3.773900
9.323200 3.642900
9.358600 4.014700
9.394000 4.709400
9.429400 5.397600
9.464900 6.599000
9.500300 5.395400
9.535700 4.585800
9.571100 3.792300
9.606500 3.250800
9.641900 2.913500
9.677300 2.609600
9.712700 2.342600
9.748100 1.987000
9.783500 1.808400
9.818900 1.681100
9.854300 1.778400
9.889700 1.826300
9.925100 1.911800
9.960500 2.027300
9.996000 2.099100
10.031400 2.191700
10.066800 2.420000
10.102200 2.560100
10.137600 2.771600
10.173000 2.569100
10.208400 2.472800
10.243800 2.376800
10.279200 2.281100
10.314600 2.140900
10.350000 2.024300
10.385400 1.974500
10.420800 2.005400
10.456200 2.061400
10.491700 2.164800
10.527100 2.261800
10.562500 2.392300
10.597900 2.635800
10.633300 2.903400
10.668700 2.701500
10.704100 2.544000
10.739500 2.357400
10.774900 2.090600
10.810300 1.859100
10.845700 1.680700
10.881100 1.512700
10.916500 1.387300
10.951900 1.274600
10.987400 1.184100
11.022800 1.136600
11.058200 1.089700
11.093600 1.091600
11.129000 1.115000
11.164400 1.159700
11.199800 1.226100
11.235200 1.291400
11.270600 1.320000
11.306000 1.438300
11.341400 1.592200
11.376800 1.706800
11.412200 1.846300
11.447600 1.977300
11.483100 2.210300
11.518500 2.237100
11.553900 2.349600
11.589300 2.465800
11.624700 2.505700
11.660100 2.292700
11.695500 1.581900
11.730900 1.417500
11.766300 1.276900
11.801700 1.158000
11.837100 1.065300
11.872500 1.009400
11.907900 0.981800
11.943300 0.948600
11.978800 0.939400
12.014200 0.891300
12.049600 0.845400
12.085000 0.877300
12.120400 0.922600
12.155800 0.986100
12.191200 1.066000
12.226600 1.157200
12.262000 1.202800
12.297400 1.274800
12.332800 1.377500
12.368200 1.504700
12.403600 1.751900
12.439000 2.073500
12.474500 2.115400
12.509900 1.861800
12.545300 1.777500
12.580700 1.695400
12.616100 1.657200
12.651500 1.670300
12.686900 1.631800
12.722300 1.688300
12.757700 1.852200
12.793100 1.986100
12.828500 2.057000
12.863900 2.083800
12.899300 2.151800
12.934700 2.215500
12.970200 2.350700
13.005600 2.451000
13.041000 2.591400
13.076400 2.659600
13.111800 2.652400
13.147200 2.742300
13.182600 2.848900
13.218000 2.769600
13.253400 2.772000
13.288800 2.608100
13.324200 2.452900
13.359600 2.355100
13.395000 2.278000
13.430400 2.182800
13.465900 1.965900
13.501300 1.750300
13.536700 1.629300
13.572100 1.569600
13.607500 1.504500
13.642900 1.452400
13.678300 1.459700
13.713700 1.475900
13.749100 1.462500
13.784500 1.434800
13.819900 1.387400
13.855300 1.305100
13.890700 1.266400
13.926100 1.238900
13.961600 1.228200
13.997000 1.228000
14.032400 1.249900
14.067800 1.265500
14.103200 1.314800
14.138600 1.326100
14.174000 1.502500
14.209400 1.484800
14.244800 1.428000
14.280200 1.435800
14.315600 1.444600
14.351000 1.473400
14.386400 1.461200
14.421800 1.461200
14.457300 1.476100
14.492700 1.495600
14.528100 1.518500
14.563500 1.547100
14.598900 1.575000
14.634300 1.676500
14.669700 1.736300
14.705100 1.396400
14.740500 1.401800
14.775900 1.443800
14.811300 1.496400
14.846700 1.556000
14.882100 1.610000
14.917500 1.664400
14.952900 1.699700
14.988400 1.713700
15.023800 1.737100
15.059200 1.803300
15.094600 1.944800
15.130000 2.123500
15.165400 2.219400
15.200800 2.305100
15.236200 2.243200
15.271600 2.323900
15.307000 2.402500
15.342400 2.472200
15.377800 2.497400
15.413200 2.476800
15.448600 2.437600
15.484100 2.388000
15.519500 2.346400
15.554900 2.344800
15.590300 2.296600
15.625700 2.305300
15.661100 2.276500
15.696500 2.261500
15.731900 2.320500
15.767300 2.270800
15.802700 2.264600
15.838100 2.262000
15.873500 2.240200
15.908900 2.201400
15.944300 2.250900
15.979800 2.278400
16.015200 2.301500
16.050600 2.230200
16.086000 2.110700
16.121400 1.930700
16.156800 1.764500
16.192200 1.744600
16.227600 1.743300
16.263000 1.802200
16.298400 1.859600
16.333800 1.938400
16.369200 1.999600
16.404600 2.097000
16.440000 2.171300
16.475500 2.261200
16.510900 2.384100
16.546300 2.344200
16.581700 2.340900
16.617100 2.329700
16.652500 2.336200
16.687900 2.415400
16.723300 2.296600
16.758700 2.299000
16.794100 2.367000
16.829500 2.398200
16.864900 2.484900
16.900300 2.544300
16.935700 2.629400
16.971200 2.708300
17.006600 2.766100
17.042000 3.067100
17.077400 3.026300
17.112800 3.045000
17.148200 3.059700
17.183600 3.034600
17.219000 3.010300
17.254400 2.963600
17.289800 2.891900
17.325200 2.857800
17.360600 2.830800
17.396000 2.867300
17.431400 2.958100
17.466900 3.008900
17.502300 2.996300
17.537700 2.984800
17.573100 3.005900
17.608500 3.029900
17.643900 3.003900
17.679300 2.976400
17.714700 2.952000
17.750100 3.005600
17.785500 3.081500
17.820900 3.204600
17.856300 3.504800
17.891700 3.722700
17.927100 3.507900
17.962600 3.214100
17.998000 3.178800
18.033400 3.337500
18.068800 3.280500
18.104200 3.215000
18.139600 3.259300
18.175000 3.353900
18.210400 3.466900
18.245800 3.537400
18.281200 3.446700
18.316600 3.482200
18.352000 3.331400
18.387400 3.229700
18.422800 3.161500
18.458300 3.089500
18.493700 2.989800
18.529100 2.928000
18.564500 2.970400
18.599900 3.024400
18.635300 3.055800
18.670700 3.023100
18.706100 2.953100
18.741500 2.998900
18.776900 3.013000
18.812300 3.157900
18.847700 3.237000
18.883100 3.327100
18.918500 3.476000
18.954000 3.537500
18.989400 3.420000
19.024800 3.344300
19.060200 3.323800
19.095600 3.248100
19.131000 3.193000
19.166400 3.205700
19.201800 3.227000
19.237200 3.257900
19.272600 3.374800
19.308000 3.481900
19.343400 3.632700
19.378800 3.673800
19.414200 3.728900
19.449700 3.701400
19.485100 3.578600
19.520500 3.733700
19.555900 3.805200
19.591300 3.661600
19.626700 3.701900
19.662100 3.725900
19.697500 3.922100
19.732900 3.638100
19.768300 3.727600
19.803700 3.722600
19.839100 3.694500
19.874500 3.619300
19.909900 3.454700
19.945300 3.372900
19.980800 3.311000
20.016200 3.257600
20.051600 3.237500
20.087000 3.224400
20.122400 2.940600
20.157800 2.874500
20.193200 2.949800
20.228600 3.334200
20.264000 3.633100
20.299400 3.662200
20.334800 3.652900
20.370200 3.622600
20.405600 3.645800
20.441000 3.498900
20.476500 3.449000
20.511900 3.351100
20.547300 3.256200
20.582700 3.100900
20.618100 2.942400
20.653500 2.791000
20.688900 2.898400
20.724300 3.096000
20.759700 3.373600
20.795100 3.278100
20.830500 3.172200
20.865900 3.129300
20.901300 3.204900
20.936700 3.268400
20.972200 3.286100
21.007600 3.336600
21.043000 3.390500
21.078400 3.456300
21.113800 3.592500
21.149200 3.711900
21.184600 4.246800
21.220000 4.553400
21.255400 4.345000
21.290800 2.854900
21.326200 2.761400
21.361600 2.913400
21.397000 3.221800
21.432400 3.270700
21.467900 3.275900
21.503300 3.397900
21.538700 3.549400
21.574100 3.790700
21.609500 3.860900
21.644900 4.092700
21.680300 3.876900
21.715700 3.611600
21.751100 3.533100
21.786500 3.511300
21.821900 3.215100
21.857300 3.117700
21.892700 3.251200
21.928100 2.966100
21.963600 3.196900
21.999000 3.537000
22.034400 2.746900
22.069800 2.625800
22.105200 2.875400
22.140600 2.687700
22.176000 2.701100
22.211400 2.920700
22.246800 2.931300
22.282200 2.946400
22.317600 2.952800
22.353000 2.942700
22.388400 2.946000
22.423800 2.764500
22.459300 2.864500
22.494700 2.978400
22.530100 3.081100
22.565500 3.110900
22.600900 2.902800
22.636300 2.721200
22.671700 2.720600
22.707100 2.655600
22.742500 2.611100
22.777900 2.607500
22.813300 2.691700
22.848700 2.864400
22.884100 2.835700
22.919500 2.847700
22.955000 2.827000
22.990400 2.797900
23.025800 2.672900
23.061200 2.663100
23.096600 2.832200
23.132000 2.864800
23.167400 2.982200
23.202800 3.215500
23.238200 3.601800
23.273600 3.811500
23.309000 3.136500
23.344400 2.796800
23.379800 2.601700
23.415200 2.508100
23.450700 2.464500
23.486100 2.523300
23.521500 2.695500
23.556900 2.883700
23.592300 3.088900
23.627700 3.136800
23.663100 3.246300
23.698500 3.205200
23.733900 2.922100
23.769300 2.834300
23.804700 2.702000
23.840100 2.521400
23.875500 2.479000
23.910900 2.523600
23.946400 2.562300
23.981800 2.606700
24.017200 2.598300
24.052600 2.614300
24.088000 2.606300
24.123400 2.749800
24.158800 3.207300
24.194200 3.490100
24.229600 3.147000
24.265000 2.940700
24.300400 2.828500
24.335800 2.833900
24.371200 2.906700
24.406600 3.154300
24.442100 2.930000
24.477500 2.920300
24.512900 2.993900
24.548300 2.961300
24.583700 2.981500
24.619100 2.970700
24.654500 2.975500
24.689900 2.989200
24.725300 3.000600
24.760700 3.086600
24.796100 3.088000
24.831500 3.041600
24.866900 3.027100
24.902300 2.989600
24.937700 2.947100
24.973200 2.903900
25.008600 2.872700
25.044000 2.862500
25.079400 2.815000
25.114800 2.769300
25.150200 2.757000
25.185600 2.750300
25.221000 2.798600
25.256400 2.861300
25.291800 2.915300
25.327200 2.944800
25.362600 3.001100
25.398000 3.021100
25.433400 2.996100
25.468900 2.979200
25.504300 2.979000
25.539700 3.020700
25.575100 3.052200
25.610500 3.076800
25.645900 3.092400
25.681300 3.048300
25.716700 3.190200
25.752100 3.190800
25.787500 3.174400
25.822900 3.124600
25.858300 3.034400
25.893700 3.007600
25.929100 2.999900
25.964600 3.045200
26.000000 3.174400
26.035400 3.304600
26.070800 3.393100
26.106200 3.359900
26.141600 3.489300
26.177000 3.593600
26.212400 3.668300
26.247800 3.590900
26.283200 3.705500
26.318600 3.859700
26.354000 3.745300
26.389400 3.625900
26.424800 3.578600
26.460300 3.516500
26.495700 3.567300
26.531100 3.467800
26.566500 3.170200
26.601900 3.149300
26.637300 3.200300
26.672700 3.262800
26.708100 3.269500
26.743500 3.236000
26.778900 4.646700
26.814300 3.717400
26.849700 3.425700
26.885100 3.237100
26.920500 3.094400
26.956000 2.945700
26.991400 2.824900
27.026800 2.743400
27.062200 2.746900
27.097600 2.794400
27.133000 2.959400
27.168400 3.210500
27.203800 3.496400
27.239200 3.436200
27.274600 3.057600
27.310000 2.894500
27.345400 3.026300
27.380800 3.203400
27.416200 3.581700
27.451700 3.552600
27.487100 3.857800
27.522500 3.956900
27.557900 3.997800
27.593300 4.109500
27.628700 4.241600
27.664100 4.172800
27.699500 4.033700
27.734900 3.871300
27.770300 3.528400
27.805700 3.337100
27.841100 3.198500
27.876500 3.093500
27.911900 3.092000
27.947400 3.060700
27.982800 3.010600
28.018200 3.185500
28.053600 3.196100
28.089000 3.317900
28.124400 3.598900
28.159800 4.032900
28.195200 4.230700
28.230600 4.219800
28.266000 4.307100
28.301400 4.770500
28.336800 4.907800
28.372200 4.711000
28.407600 4.299200
28.443100 3.956200
28.478500 3.571500
28.513900 3.368000
28.549300 3.198000
28.584700 3.224600
28.620100 3.266600
28.655500 3.353300
28.690900 3.528600
28.726300 3.813900
28.761700 3.936200
28.797100 3.996800
28.832500 3.948300
28.867900 3.883800
28.903300 3.839800
28.938800 3.783900
28.974200 3.737100
29.009600 3.638900
29.045000 3.760500
29.080400 3.945400
29.115800 4.182700
29.151200 4.222700
29.186600 4.263300
29.222000 4.248000
29.257400 4.199700
29.292800 3.890300
29.328200 3.805200
29.363600 3.716500
29.399000 3.775800
29.434500 3.728000
29.469900 3.879200
29.505300 3.547300
29.540700 3.156900
29.576100 3.233500
29.611500 3.320100
29.646900 3.355000
29.682300 3.358400
29.717700 3.357100
29.753100 3.352700
29.788500 3.388100
29.823900 3.456100
29.859300 3.552400
29.894700 3.589500
29.930100 3.594400
29.965600 3.603900
30.001000 3.662800
30.036400 3.702500
30.071800 3.577400
30.107200 3.401600
30.142600 3.208600
30.178000 3.060800
30.213400 2.983500
30.248800 2.912000
30.284200 2.866800
30.319600 2.831500
30.355000 2.885000
30.390400 2.919500
30.425800 2.940700
30.461300 2.931600
30.496700 2.956500
30.532100 2.976200
30.567500 3.057500
30.602900 3.231600
30.638300 3.422800
30.673700 3.390300
30.709100 3.515300
30.744500 3.476200
30.779900 3.750300
30.815300 3.462500
30.850700 3.052100
30.886100 2.984400
30.921500 2.975400
30.957000 3.129100
30.992400 3.823700
31.027800 4.267500
31.063200 4.284900
31.098600 4.559700
31.134000 4.507500
31.169400 4.422900
31.204800 4.328400
31.240200 3.865300
31.275600 3.580100
31.311000 3.642900
31.346400 3.723400
31.381800 3.755700
31.417200 3.915400
31.452700 4.249600
31.488100 4.260100
31.523500 4.304600
31.558900 4.401500
31.594300 4.818900
31.629700 5.018900
31.665100 5.573400
31.700500 5.102800
31.735900 4.395600
31.771300 4.186200
31.806700 4.048200
31.842100 4.132400
31.877500 4.447800
31.912900 4.401200
31.948400 4.485600
31.983800 4.539500
32.019200 4.446700
32.054600 4.317100
32.090000 3.836800
32.125400 3.805200
32.160800 3.935400
32.196200 3.963000
32.231600 3.898400
32.267000 4.017500
32.302400 3.959100
32.337800 3.646000
32.373200 3.482400
32.408600 3.192700
32.444100 2.925400
32.479500 2.754100
32.514900 2.625400
32.550300 2.518700
32.585700 2.364800
32.621100 2.530600
32.656500 2.691000
32.691900 2.811400
32.727300 3.168500
32.762700 3.066000
32.798100 3.173800
32.833500 3.331400
32.868900 3.413000
32.904300 3.364800
32.939800 3.456600
32.975200 3.678200
33.010600 3.661100
33.046000 3.611900
33.081400 3.708800
33.116800 3.619200
33.152200 3.557900
33.187600 3.656600
33.223000 3.624100
33.258400 3.397300
33.293800 3.450700
33.329200 3.569400
33.364600 3.742400
33.400000 4.161900
33.435500 4.184700
33.470900 4.219900
33.506300 4.105400
33.541700 3.974500
33.577100 3.927500
33.612500 3.906100
33.647900 3.682400
33.683300 3.591000
33.718700 3.679600
33.754100 3.822000
33.789500 3.993200
33.824900 4.041700
33.860300 3.976200
33.895700 3.542600
33.931200 3.453100
33.966600 3.327600
34.002000 3.290500
34.037400 3.406400
34.072800 3.467100
34.108200 3.501700
34.143600 3.495600
34.179000 3.652200
34.214400 3.952900
34.249800 4.023500
34.285200 4.049500
34.320600 3.981500
34.356000 3.826500
34.391400 3.612100
34.426900 3.455600
34.462300 3.320500
34.497700 3.181000
34.533100 3.108800
34.568500 3.015000
34.603900 2.969100
34.639300 2.944000
34.674700 2.967900
34.710100 3.103600
34.745500 3.217900
34.780900 3.538800
34.816300 3.796000
34.851700 3.908700
34.887100 3.976900
34.922500 3.943600
34.958000 3.876700
34.993400 3.831700
35.028800 3.405600
35.064200 3.400300
35.099600 3.278600
35.135000 3.262800
35.170400 3.379000
35.205800 3.516600
35.241200 3.543500
35.276600 3.721400
35.312000 4.251000
35.347400 4.314100
35.382800 4.504400
35.418200 4.436100
35.453700 4.306700
35.489100 4.023000
35.524500 3.544400
35.559900 3.321400
35.595300 3.200300
35.630700 3.424200
35.666100 4.321400
35.701500 4.719900
35.736900 4.141200
35.772300 4.003100
35.807700 3.974700
35.843100 4.079800
35.878500 4.152000
35.913900 4.192800
35.949400 4.119500
35.984800 3.961700
36.020200 4.048100
36.055600 4.016500
36.091000 4.005400
36.126400 4.034000
36.161800 3.991100
36.197200 3.987300
36.232600 4.158600
36.268000 4.380600
36.303400 4.460500
36.338800 4.410200
36.374200 4.439400
36.409600 4.510500
36.445100 4.508400
36.480500 4.383600
36.515900 4.338900
36.551300 4.109400
36.586700 3.934500
36.622100 4.313000
36.657500 4.540000
36.692900 4.271200
36.728300 4.112700
36.763700 4.086200
36.799100 4.152300
36.834500 4.392700
36.869900 4.474300
36.905300 4.323900
36.940800 4.299400
36.976200 4.426200
37.011600 4.902200
37.047000 4.390800
37.082400 4.352200
37.117800 4.648500
37.153200 4.754400
37.188600 4.520500
37.224000 4.358500
37.259400 4.165000
37.294800 4.033000
37.330200 4.014000
37.365600 4.142000
37.401000 4.024400
37.436500 4.086700
37.471900 4.287600
37.507300 4.413600
37.542700 4.449900
37.578100 4.388100
37.613500 4.046500
37.648900 3.845200
37.684300 3.882400
37.719700 3.876800
37.755100 3.795800
37.790500 3.291600
37.825900 2.914100
37.861300 2.480500
37.896700 1.843300
37.932200 1.326300
37.967600 0.949000
38.003000 0.706600
38.038400 0.540900
38.073800 0.372000
38.109200 0.258200
38.144600 0.162000
38.180000 0.088000
38.215400 0.038900
38.250800 0.013100
38.286200 0.003000
38.321600 0.000000
38.357000 0.000000
38.392400 0.000000
38.427900 0.000000
38.463300 0.000000
38.498700 0.000000
38.534100 0.000000
38.569500 0.000000
38.604900 0.000000
38.640300 0.000000
38.675700 0.000000
38.711100 0.000000
38.746500 0.000000
38.781900 0.000000
38.817300 0.000000
38.852700 0.000000
38.888100 0.000000
38.923600 0.000000
38.959000 0.000000
38.994400 0.000000
39.029800 0.000000
39.065200 0.000000
39.100600 0.000000
39.136000 0.000000
39.171400 0.000000
39.206800 0.000000
39.242200 0.000000
39.277600 0.000000
39.313000 0.000000
39.348400 0.000000
39.383800 0.000000
39.419300 0.000000
39.454700 0.000000
39.490100 0.000000
39.525500 0.000000
39.560900 0.000000
39.596300 0.000000
39.631700 0.000000
39.667100 0.000000
39.702500 0.000000
39.737900 0.000000
39.773300 0.000000
39.808700 0.000000
39.844100 0.000000
39.879500 0.000000
39.915000 0.000000
39.950400 0.000000
39.985800 0.000000
40.021200 0.000000
40.056600 0.000000
40.092000 0.000000
40.127400 0.000000
40.162800 0.000000
40.198200 0.000000
40.233600 0.000000
40.269000 0.000000
40.304400 0.000000
40.339800 0.000000
40.375200 0.000000
40.410600 0.000000
40.446100 0.000000
40.481500 0.000000
40.516900 0.000000
40.552300 0.000000
40.587700 0.000000
40.623100 0.000000
40.658500 0.000000
40.693900 0.000000
40.729300 0.000000
40.764700 0.000000
40.800100 0.000000
40.835500 0.000000
40.870900 0.000000
40.906300 0.000000
40.941800 0.000000
40.977200 0.000000
41.012600 0.000000
41.048000 0.000000
41.083400 0.000000
41.118800 0.000000
41.154200 0.000000
41.189600 0.000000
41.225000 0.000000
41.260400 0.000000
41.295800 0.000000
41.331200 0.000000
41.366600 0.000000
41.402000 0.000000
41.437500 0.000000
41.472900 0.000000
41.508300 0.000000
41.543700 0.000000
e
