set title 'mp-558336 - Density of States'
set xlabel 'Energy (eV)'
set ylabel 'DOS (states/eV)'
set grid
set xrange [-10:10]
set yrange [0:33.498]
set xzeroaxis lt -1
set terminal png size 800,600
set output 'mp-558336_dos_gnuplot.png'
plot '-' using 1:2 with lines title 'DOS'
-22.513500 0.000000
-22.487300 0.000000
-22.461000 0.000000
-22.434800 0.000000
-22.408600 0.000000
-22.382400 0.000000
-22.356100 0.000000
-22.329900 0.000000
-22.303700 0.000000
-22.277400 0.000000
-22.251200 0.000000
-22.225000 0.000000
-22.198800 0.000000
-22.172500 0.000000
-22.146300 0.000000
-22.120100 0.000000
-22.093900 0.000000
-22.067600 0.000000
-22.041400 0.000000
-22.015200 0.000000
-21.988900 0.000000
-21.962700 0.000000
-21.936500 0.000000
-21.910300 0.000000
-21.884000 0.000000
-21.857800 0.000000
-21.831600 0.000000
-21.805300 0.000000
-21.779100 0.000000
-21.752900 0.000000
-21.726700 0.000000
-21.700400 0.000000
-21.674200 0.000000
-21.648000 0.000000
-21.621800 0.000000
-21.595500 0.000000
-21.569300 0.000000
-21.543100 0.000000
-21.516800 0.000000
-21.490600 0.000000
-21.464400 0.000000
-21.438200 0.000000
-21.411900 0.000000
-21.385700 0.000000
-21.359500 0.000000
-21.333200 0.000000
-21.307000 0.000000
-21.280800 0.000000
-21.254600 0.000000
-21.228300 0.000000
-21.202100 0.000000
-21.175900 0.000000
-21.149600 0.000000
-21.123400 0.000000
-21.097200 0.000000
-21.071000 0.000000
-21.044700 0.000000
-21.018500 0.000000
-20.992300 0.000000
-20.966100 0.000000
-20.939800 0.000000
-20.913600 0.000000
-20.887400 0.000000
-20.861100 0.000000
-20.834900 0.000000
-20.808700 0.000000
-20.782500 0.000000
-20.756200 0.000000
-20.730000 0.000000
-20.703800 0.000000
-20.677500 0.000000
-20.651300 0.000000
-20.625100 0.000000
-20.598900 0.000000
-20.572600 0.000000
-20.546400 0.000000
-20.520200 0.000000
-20.494000 0.000000
-20.467700 0.000000
-20.441500 0.000000
-20.415300 0.000000
-20.389000 0.000000
-20.362800 0.000000
-20.336600 0.000000
-20.310400 0.000000
-20.284100 0.000000
-20.257900 0.000000
-20.231700 0.000000
-20.205400 0.000000
-20.179200 0.000000
-20.153000 0.000000
-20.126800 0.003000
-20.100500 0.436300
-20.074300 1.464800
-20.048100 2.632700
-20.021900 3.923500
-19.995600 5.521100
-19.969400 24.155300
-19.943200 11.906800
-19.916900 8.156100
-19.890700 4.857600
-19.864500 16.888100
-19.838300 18.889800
-19.812000 27.095900
-19.785800 22.683100
-19.759600 35.121500
-19.733300 28.499600
-19.707100 32.824400
-19.680900 20.847500
-19.654700 20.519100
-19.628400 28.823200
-19.602200 23.559400
-19.576000 11.914400
-19.549700 13.427200
-19.523500 13.333500
-19.497300 11.283900
-19.471100 10.321800
-19.444800 18.066300
-19.418600 22.149800
-19.392400 15.596600
-19.366200 15.130400
-19.339900 18.690300
-19.313700 25.264600
-19.287500 26.627900
-19.261200 18.906600
-19.235000 43.865900
-19.208800 29.073900
-19.182600 29.246400
-19.156300 37.932900
-19.130100 36.431100
-19.103900 49.404500
-19.077600 65.826900
-19.051400 47.437500
-19.025200 50.700700
-18.999000 72.390300
-18.972700 76.757000
-18.946500 70.996400
-18.920300 64.491300
-18.894100 32.143100
-18.867800 13.563800
-18.841600 12.311100
-18.815400 12.315200
-18.789100 12.338700
-18.762900 4.891900
-18.736700 0.000000
-18.710500 0.000000
-18.684200 0.000000
-18.658000 0.000000
-18.631800 0.000000
-18.605500 0.000000
-18.579300 0.000000
-18.553100 0.000000
-18.526900 0.000000
-18.500600 0.000000
-18.474400 0.000000
-18.448200 0.000000
-18.422000 0.000000
-18.395700 0.000000
-18.369500 0.000000
-18.343300 0.000000
-18.317000 0.000000
-18.290800 0.000000
-18.264600 0.000000
-18.238400 0.000000
-18.212100 0.000000
-18.185900 0.000000
-18.159700 0.000000
-18.133400 0.000000
-18.107200 0.000000
-18.081000 0.000000
-18.054800 0.000000
-18.028500 0.000000
-18.002300 0.000000
-17.976100 0.000000
-17.949900 0.000000
-17.923600 0.000000
-17.897400 0.000000
-17.871200 0.000000
-17.844900 0.000000
-17.818700 0.000000
-17.792500 0.000000
-17.766300 0.000000
-17.740000 0.000000
-17.713800 0.000000
-17.687600 0.000000
-17.661300 0.000000
-17.635100 0.000000
-17.608900 0.000000
-17.582700 0.000000
-17.556400 0.000000
-17.530200 0.000000
-17.504000 0.000000
-17.477700 0.000000
-17.451500 0.000000
-17.425300 0.000000
-17.399100 0.000000
-17.372800 0.000000
-17.346600 0.000000
-17.320400 0.000000
-17.294200 0.000000
-17.267900 0.000000
-17.241700 0.000000
-17.215500 0.000000
-17.189200 0.000000
-17.163000 0.000000
-17.136800 0.000000
-17.110600 0.000000
-17.084300 0.000000
-17.058100 0.000000
-17.031900 0.000000
-17.005600 0.000000
-16.979400 0.000000
-16.953200 0.000000
-16.927000 0.000000
-16.900700 0.000000
-16.874500 0.000000
-16.848300 0.000000
-16.822100 0.000000
-16.795800 0.000000
-16.769600 0.000000
-16.743400 0.000000
-16.717100 0.000000
-16.690900 0.000000
-16.664700 0.000000
-16.638500 0.000000
-16.612200 0.000000
-16.586000 0.000000
-16.559800 0.000000
-16.533500 0.000000
-16.507300 0.000000
-16.481100 0.000000
-16.454900 0.000000
-16.428600 0.000000
-16.402400 0.000000
-16.376200 0.000000
-16.350000 0.000000
-16.323700 0.000000
-16.297500 0.000000
-16.271300 0.000000
-16.245000 0.000000
-16.218800 0.000000
-16.192600 0.000000
-16.166400 0.000000
-16.140100 0.000000
-16.113900 0.000000
-16.087700 0.000000
-16.061400 0.000000
-16.035200 0.000000
-16.009000 0.000000
-15.982800 0.000000
-15.956500 0.000000
-15.930300 0.000000
-15.904100 0.000000
-15.877900 0.000000
-15.851600 0.000000
-15.825400 0.000000
-15.799200 0.000000
-15.772900 0.000000
-15.746700 0.000000
-15.720500 0.000000
-15.694300 0.000000
-15.668000 0.000000
-15.641800 0.000000
-15.615600 0.000000
-15.589300 0.000000
-15.563100 0.000000
-15.536900 0.000000
-15.510700 0.000000
-15.484400 0.000000
-15.458200 0.000000
-15.432000 0.000000
-15.405700 0.000000
-15.379500 0.000000
-15.353300 0.000000
-15.327100 0.000000
-15.300800 0.000000
-15.274600 0.000000
-15.248400 0.000000
-15.222200 0.000000
-15.195900 0.000000
-15.169700 0.000000
-15.143500 0.000000
-15.117200 0.000000
-15.091000 0.000000
-15.064800 0.000000
-15.038600 0.000000
-15.012300 0.000000
-14.986100 0.000000
-14.959900 0.000000
-14.933600 0.000000
-14.907400 0.000000
-14.881200 0.000000
-14.855000 0.000000
-14.828700 0.000000
-14.802500 0.000000
-14.776300 0.000000
-14.750100 0.000000
-14.723800 0.000000
-14.697600 0.000000
-14.671400 0.000000
-14.645100 0.000000
-14.618900 0.000000
-14.592700 0.000000
-14.566500 0.000000
-14.540200 0.000000
-14.514000 0.004400
-14.487800 0.029500
-14.461500 0.076900
-14.435300 0.146600
-14.409100 0.238400
-14.382900 0.336600
-14.356600 0.431400
-14.330400 0.525500
-14.304200 0.624800
-14.278000 0.729500
-14.251700 0.839700
-14.225500 0.967500
-14.199300 1.121300
-14.173000 1.288900
-14.146800 1.424500
-14.120600 1.540200
-14.094400 1.712300
-14.068100 1.904900
-14.041900 2.206800
-14.015700 2.547000
-13.989400 2.758700
-13.963200 3.042100
-13.937000 3.482300
-13.910800 4.120900
-13.884500 4.943300
-13.858300 6.651300
-13.832100 12.351300
-13.805800 14.067500
-13.779600 11.385000
-13.753400 9.983300
-13.727200 9.628700
-13.700900 11.084400
-13.674700 13.150900
-13.648500 23.017000
-13.622300 10.465600
-13.596000 7.842900
-13.569800 6.012600
-13.543600 5.711300
-13.517300 9.773400
-13.491100 14.219700
-13.464900 19.996000
-13.438700 21.587400
-13.412400 12.212000
-13.386200 12.109200
-13.360000 21.344800
-13.333700 30.300400
-13.307500 16.523100
-13.281300 22.473000
-13.255100 18.655200
-13.228800 12.513500
-13.202600 8.910500
-13.176400 9.032500
-13.150200 11.053500
-13.123900 11.688100
-13.097700 16.547500
-13.071500 20.866600
-13.045200 21.709100
-13.019000 21.808400
-12.992800 24.867200
-12.966600 19.307700
-12.940300 16.942500
-12.914100 19.891800
-12.887900 21.799000
-12.861600 16.172000
-12.835400 10.564600
-12.809200 12.314100
-12.783000 12.753900
-12.756700 6.057600
-12.730500 2.208800
-12.704300 1.731800
-12.678100 1.286500
-12.651800 0.903400
-12.625600 0.566500
-12.599400 0.241900
-12.573100 0.045700
-12.546900 0.000000
-12.520700 0.000000
-12.494500 0.000000
-12.468200 0.000000
-12.442000 0.000000
-12.415800 0.000000
-12.389500 0.000000
-12.363300 0.000000
-12.337100 0.000000
-12.310900 0.000000
-12.284600 0.000000
-12.258400 0.000000
-12.232200 0.000000
-12.206000 0.000000
-12.179700 0.000000
-12.153500 0.000000
-12.127300 0.000000
-12.101000 0.000000
-12.074800 0.000000
-12.048600 0.000000
-12.022400 0.000000
-11.996100 0.000000
-11.969900 0.000000
-11.943700 0.000000
-11.917400 0.000000
-11.891200 0.000000
-11.865000 0.000000
-11.838800 0.000000
-11.812500 0.000000
-11.786300 0.000000
-11.760100 0.000000
-11.733800 0.000000
-11.707600 0.000000
-11.681400 0.000000
-11.655200 0.000000
-11.628900 0.000000
-11.602700 0.000000
-11.576500 0.000000
-11.550300 0.000000
-11.524000 0.000000
-11.497800 0.000000
-11.471600 0.000000
-11.445300 0.000000
-11.419100 0.000000
-11.392900 0.000000
-11.366700 0.000000
-11.340400 0.000000
-11.314200 0.000000
-11.288000 0.000000
-11.261700 0.000000
-11.235500 0.000000
-11.209300 0.000000
-11.183100 0.000000
-11.156800 0.000000
-11.130600 0.000000
-11.104400 0.000000
-11.078200 0.000000
-11.051900 0.000000
-11.025700 0.000000
-10.999500 0.000000
-10.973200 0.000000
-10.947000 0.000000
-10.920800 0.000000
-10.894600 0.000000
-10.868300 0.000000
-10.842100 0.000000
-10.815900 0.000000
-10.789600 0.000000
-10.763400 0.000000
-10.737200 0.000000
-10.711000 0.000000
-10.684700 0.000000
-10.658500 0.000000
-10.632300 0.000000
-10.606100 0.000000
-10.579800 0.000000
-10.553600 0.000000
-10.527400 0.000000
-10.501100 0.000000
-10.474900 0.000000
-10.448700 0.000000
-10.422500 0.000000
-10.396200 0.000000
-10.370000 0.000000
-10.343800 0.000000
-10.317500 0.000000
-10.291300 0.000000
-10.265100 0.000000
-10.238900 0.000000
-10.212600 0.000000
-10.186400 0.000000
-10.160200 0.000000
-10.133900 0.000000
-10.107700 0.000000
-10.081500 0.000000
-10.055300 0.000000
-10.029000 0.000000
-10.002800 0.000000
-9.976600 0.000000
-9.950400 0.000000
-9.924100 0.000000
-9.897900 0.000000
-9.871700 0.000000
-9.845400 0.000000
-9.819200 0.000000
-9.793000 0.000000
-9.766800 0.000000
-9.740500 0.000000
-9.714300 0.000000
-9.688100 0.000000
-9.661800 0.000000
-9.635600 0.000000
-9.609400 0.000000
-9.583200 0.000000
-9.556900 0.000000
-9.530700 0.000000
-9.504500 0.000000
-9.478300 0.000000
-9.452000 0.000000
-9.425800 0.000000
-9.399600 0.000000
-9.373300 0.000000
-9.347100 0.000000
-9.320900 0.000000
-9.294700 0.000000
-9.268400 0.000000
-9.242200 0.000000
-9.216000 0.000000
-9.189700 0.000000
-9.163500 0.000000
-9.137300 0.000000
-9.111100 0.000000
-9.084800 0.000000
-9.058600 0.000000
-9.032400 0.000000
-9.006200 0.000000
-8.979900 0.000000
-8.953700 0.000000
-8.927500 0.000000
-8.901200 0.000000
-8.875000 0.000000
-8.848800 0.000000
-8.822600 0.000000
-8.796300 0.000000
-8.770100 0.000000
-8.743900 0.000000
-8.717600 0.000000
-8.691400 0.000000
-8.665200 0.000000
-8.639000 0.000000
-8.612700 0.000000
-8.586500 0.000000
-8.560300 0.000000
-8.534100 0.000000
-8.507800 0.000000
-8.481600 0.000000
-8.455400 0.000000
-8.429100 0.000000
-8.402900 0.000000
-8.376700 0.000000
-8.350500 0.000000
-8.324200 0.000000
-8.298000 0.000000
-8.271800 0.000000
-8.245500 0.000000
-8.219300 0.000000
-8.193100 0.000000
-8.166900 0.000000
-8.140600 0.000000
-8.114400 0.000000
-8.088200 0.000000
-8.061900 0.000000
-8.035700 0.000000
-8.009500 0.000000
-7.983300 0.000000
-7.957000 0.000000
-7.930800 0.000000
-7.904600 0.000000
-7.878400 0.000000
-7.852100 0.000000
-7.825900 0.000000
-7.799700 0.000000
-7.773400 0.000000
-7.747200 0.000000
-7.721000 0.000000
-7.694800 0.000000
-7.668500 0.000000
-7.642300 0.000000
-7.616100 0.000000
-7.589800 0.000000
-7.563600 0.000000
-7.537400 0.000000
-7.511200 0.000000
-7.484900 0.000000
-7.458700 0.000000
-7.432500 0.000000
-7.406300 0.000000
-7.380000 0.000000
-7.353800 0.000000
-7.327600 0.000000
-7.301300 0.000000
-7.275100 0.000000
-7.248900 0.000000
-7.222700 0.000000
-7.196400 0.000000
-7.170200 0.000000
-7.144000 0.000000
-7.117700 0.000000
-7.091500 0.000000
-7.065300 0.000000
-7.039100 0.000000
-7.012800 0.000000
-6.986600 0.000000
-6.960400 0.000000
-6.934200 0.000000
-6.907900 0.000000
-6.881700 0.000000
-6.855500 0.000000
-6.829200 0.000000
-6.803000 0.000000
-6.776800 0.000000
-6.750600 0.000000
-6.724300 0.000000
-6.698100 0.000000
-6.671900 0.000000
-6.645600 0.000000
-6.619400 0.000000
-6.593200 0.000000
-6.567000 0.000000
-6.540700 0.000000
-6.514500 0.000000
-6.488300 0.000000
-6.462100 0.000000
-6.435800 0.000000
-6.409600 0.000000
-6.383400 0.000000
-6.357100 0.000000
-6.330900 0.000000
-6.304700 0.000000
-6.278500 0.000000
-6.252200 0.000000
-6.226000 0.000000
-6.199800 0.000000
-6.173500 0.000000
-6.147300 0.000000
-6.121100 0.000000
-6.094900 0.000000
-6.068600 0.000000
-6.042400 0.000000
-6.016200 0.000000
-5.989900 0.000000
-5.963700 0.000000
-5.937500 0.000000
-5.911300 0.000000
-5.885000 0.000000
-5.858800 0.000000
-5.832600 0.000000
-5.806400 0.000000
-5.780100 0.000000
-5.753900 0.000000
-5.727700 0.000000
-5.701400 0.000000
-5.675200 0.000000
-5.649000 0.000000
-5.622800 0.000000
-5.596500 0.000000
-5.570300 0.000000
-5.544100 0.000000
-5.517800 0.000000
-5.491600 0.000000
-5.465400 0.000000
-5.439200 0.000000
-5.412900 0.000000
-5.386700 0.000000
-5.360500 0.000000
-5.334300 0.000000
-5.308000 0.000000
-5.281800 0.000000
-5.255600 0.000000
-5.229300 0.000000
-5.203100 0.000000
-5.176900 0.000000
-5.150700 0.000000
-5.124400 0.000000
-5.098200 0.000000
-5.072000 0.000000
-5.045700 0.000000
-5.019500 0.000000
-4.993300 0.000000
-4.967100 0.000000
-4.940800 0.000000
-4.914600 0.000000
-4.888400 0.000000
-4.862200 0.000000
-4.835900 0.000000
-4.809700 0.000000
-4.783500 0.000000
-4.757200 0.000000
-4.731000 0.000000
-4.704800 0.000000
-4.678600 0.000000
-4.652300 0.000000
-4.626100 0.000000
-4.599900 0.000000
-4.573600 0.000000
-4.547400 0.000000
-4.521200 0.000000
-4.495000 0.000000
-4.468700 0.000000
-4.442500 0.000000
-4.416300 0.000000
-4.390000 0.000000
-4.363800 0.000000
-4.337600 0.000000
-4.311400 0.000000
-4.285100 0.000000
-4.258900 0.000000
-4.232700 0.000000
-4.206500 0.000000
-4.180200 0.000000
-4.154000 0.000000
-4.127800 0.000000
-4.101500 0.000000
-4.075300 0.000000
-4.049100 0.000000
-4.022900 0.000000
-3.996600 0.000000
-3.970400 0.000000
-3.944200 0.000000
-3.917900 0.000000
-3.891700 0.000000
-3.865500 0.000000
-3.839300 0.000000
-3.813000 0.000000
-3.786800 0.000000
-3.760600 0.000000
-3.734400 0.000000
-3.708100 0.000000
-3.681900 0.000000
-3.655700 0.000000
-3.629400 0.000000
-3.603200 0.000000
-3.577000 0.000000
-3.550800 0.000000
-3.524500 0.000000
-3.498300 0.000000
-3.472100 0.000000
-3.445800 0.000000
-3.419600 0.000000
-3.393400 0.000000
-3.367200 0.000000
-3.340900 0.000000
-3.314700 0.000000
-3.288500 0.000000
-3.262300 0.000000
-3.236000 0.000000
-3.209800 0.000000
-3.183600 0.000000
-3.157300 0.000000
-3.131100 0.000000
-3.104900 0.000000
-3.078700 0.000000
-3.052400 0.000000
-3.026200 0.000000
-3.000000 0.000000
-2.973700 0.000000
-2.947500 0.000000
-2.921300 0.000000
-2.895100 0.000000
-2.868800 0.000000
-2.842600 0.000000
-2.816400 0.000000
-2.790200 0.000000
-2.763900 0.000000
-2.737700 0.000000
-2.711500 0.000000
-2.685200 0.000000
-2.659000 0.000000
-2.632800 0.000000
-2.606600 0.000000
-2.580300 0.000000
-2.554100 0.000000
-2.527900 0.000000
-2.501600 0.000000
-2.475400 0.000000
-2.449200 0.000000
-2.423000 0.000000
-2.396700 0.000000
-2.370500 0.000000
-2.344300 0.000000
-2.318000 0.000000
-2.291800 0.000000
-2.265600 0.000000
-2.239400 0.000000
-2.213100 0.000000
-2.186900 0.000000
-2.160700 0.000000
-2.134500 0.000000
-2.108200 0.000000
-2.082000 0.000000
-2.055800 0.000000
-2.029500 0.000000
-2.003300 0.000000
-1.977100 0.000000
-1.950900 0.000000
-1.924600 0.000000
-1.898400 0.000000
-1.872200 0.000000
-1.845900 0.000000
-1.819700 0.003000
-1.793500 0.035100
-1.767300 0.163600
-1.741000 1.078200
-1.714800 2.251400
-1.688600 2.919500
-1.662400 3.149900
-1.636100 3.278300
-1.609900 3.385000
-1.583700 3.667100
-1.557400 4.184700
-1.531200 4.809400
-1.505000 5.561800
-1.478800 6.010100
-1.452500 5.667500
-1.426300 5.665600
-1.400100 6.050000
-1.373800 7.409400
-1.347600 8.862800
-1.321400 11.325000
-1.295200 11.754600
-1.268900 11.799400
-1.242700 11.458500
-1.216500 9.787800
-1.190300 7.585100
-1.164000 8.418100
-1.137800 10.928200
-1.111600 11.131000
-1.085300 12.434200
-1.059100 12.817000
-1.032900 14.919700
-1.006700 16.271200
-0.980400 14.191100
-0.954200 9.349500
-0.928000 18.355300
-0.901700 16.491600
-0.875500 11.591900
-0.849300 6.577900
-0.823100 4.810600
-0.796800 7.425500
-0.770600 17.316900
-0.744400 15.238800
-0.718100 12.090600
-0.691900 11.533800
-0.665700 13.043600
-0.639500 23.643000
-0.613200 22.867000
-0.587000 14.186000
-0.560800 11.966100
-0.534600 14.234000
-0.508300 16.580000
-0.482100 16.311000
-0.455900 16.402700
-0.429600 20.188800
-0.403400 16.774600
-0.377200 17.842800
-0.351000 27.469300
-0.324700 24.328000
-0.298500 24.975500
-0.272300 18.938500
-0.246000 23.863000
-0.219800 21.086900
-0.193600 13.007100
-0.167400 11.476500
-0.141100 16.034300
-0.114900 19.066000
-0.088700 15.750200
-0.062500 19.640200
-0.036200 19.513200
-0.010000 17.259200
0.016200 16.911000
0.042500 14.169000
0.068700 17.244800
0.094900 20.162000
0.121100 16.075900
0.147400 16.232700
0.173600 16.861600
0.199800 18.650700
0.226100 22.580600
0.252300 15.497300
0.278500 20.039000
0.304700 18.053500
0.331000 20.570400
0.357200 13.688200
0.383400 9.531300
0.409600 13.152600
0.435900 15.202300
0.462100 20.367500
0.488300 18.985200
0.514600 10.190400
0.540800 11.589500
0.567000 13.185300
0.593200 13.885200
0.619500 15.698400
0.645700 18.744100
0.671900 18.885200
0.698200 16.850000
0.724400 18.539400
0.750600 16.475500
0.776800 12.251200
0.803100 10.078400
0.829300 12.479400
0.855500 18.459600
0.881700 21.688000
0.908000 21.576100
0.934200 13.077300
0.960400 13.798500
0.986700 16.134500
1.012900 25.641600
1.039100 23.508600
1.065300 11.993500
1.091600 22.667700
1.117800 22.478100
1.144000 9.398600
1.170300 8.426700
1.196500 19.126200
1.222700 25.306500
1.248900 22.745200
1.275200 25.569900
1.301400 17.280500
1.327600 14.552000
1.353900 17.649900
1.380100 22.016800
1.406300 16.308000
1.432500 16.653900
1.458800 16.339700
1.485000 18.132500
1.511200 19.885000
1.537400 19.117400
1.563700 15.652800
1.589900 12.392300
1.616100 12.651400
1.642400 28.661700
1.668600 30.452800
1.694800 18.748600
1.721000 19.291400
1.747300 17.667800
1.773500 15.521000
1.799700 12.845000
1.826000 7.720200
1.852200 3.524300
1.878400 1.658100
1.904600 0.406700
1.930900 0.001100
1.957100 0.000000
1.983300 0.000000
2.009500 0.000000
2.035800 0.000000
2.062000 0.000000
2.088200 0.000000
2.114500 0.000000
2.140700 0.000000
2.166900 0.000000
2.193100 0.000000
2.219400 0.000000
2.245600 0.000000
2.271800 0.000000
2.298100 0.000000
2.324300 0.000000
2.350500 0.000000
2.376700 0.000000
2.403000 0.000000
2.429200 0.000000
2.455400 0.000000
2.481600 0.000000
2.507900 0.000000
2.534100 0.000000
2.560300 0.000000
2.586600 0.000000
2.612800 0.000000
2.639000 0.000000
2.665200 0.000000
2.691500 0.000000
2.717700 0.000000
2.743900 0.000000
2.770200 0.000000
2.796400 0.000000
2.822600 0.000000
2.848800 0.000000
2.875100 0.000000
2.901300 0.000000
2.927500 0.000000
2.953700 0.000000
2.980000 0.000000
3.006200 0.000000
3.032400 0.000000
3.058700 0.000000
3.084900 0.000000
3.111100 0.000000
3.137300 0.000000
3.163600 0.000000
3.189800 0.000000
3.216000 0.000000
3.242300 0.000000
3.268500 0.000000
3.294700 0.000000
3.320900 0.000000
3.347200 0.000000
3.373400 0.000000
3.399600 0.000000
3.425900 0.000000
3.452100 0.000000
3.478300 0.000000
3.504500 0.000000
3.530800 0.000000
3.557000 0.000000
3.583200 0.000000
3.609400 0.000000
3.635700 0.000000
3.661900 0.000000
3.688100 0.000000
3.714400 0.000000
3.740600 0.000000
3.766800 0.000000
3.793000 0.000000
3.819300 0.000000
3.845500 0.000000
3.871700 0.000000
3.898000 0.000000
3.924200 0.000000
3.950400 0.000000
3.976600 0.000000
4.002900 0.000000
4.029100 0.000000
4.055300 0.000000
4.081500 0.000000
4.107800 0.000000
4.134000 0.000000
4.160200 0.000000
4.186500 0.000000
4.212700 0.000000
4.238900 0.000000
4.265100 0.000000
4.291400 0.000000
4.317600 0.000000
4.343800 0.000000
4.370100 0.000000
4.396300 0.000000
4.422500 0.000000
4.448700 0.000000
4.475000 0.000000
4.501200 0.000000
4.527400 0.000000
4.553600 0.000000
4.579900 0.000000
4.606100 0.000000
4.632300 0.000000
4.658600 0.000000
4.684800 0.000000
4.711000 0.000000
4.737200 0.000000
4.763500 0.000000
4.789700 0.000000
4.815900 0.000000
4.842200 0.000000
4.868400 0.000000
4.894600 0.000000
4.920800 0.000000
4.947100 0.000000
4.973300 0.000000
4.999500 0.000000
5.025800 0.000000
5.052000 0.000000
5.078200 0.000000
5.104400 0.000000
5.130700 0.000000
5.156900 0.000000
5.183100 0.000000
5.209300 0.000000
5.235600 0.000000
5.261800 0.000000
5.288000 0.000000
5.314300 0.000000
5.340500 0.000000
5.366700 0.000000
5.392900 0.000000
5.419200 0.000000
5.445400 0.000000
5.471600 0.000000
5.497900 0.000000
5.524100 0.000000
5.550300 0.000000
5.576500 0.000000
5.602800 0.000000
5.629000 0.000000
5.655200 0.000000
5.681400 0.000000
5.707700 0.000000
5.733900 0.000000
5.760100 0.000000
5.786400 0.000000
5.812600 0.000000
5.838800 0.000000
5.865000 0.000000
5.891300 0.000000
5.917500 0.000000
5.943700 0.000000
5.970000 0.000000
5.996200 0.000000
6.022400 0.015400
6.048600 0.096600
6.074900 0.206600
6.101100 0.345400
6.127300 0.513100
6.153500 0.735700
6.179800 0.990000
6.206000 1.233900
6.232200 1.469600
6.258500 1.696500
6.284700 1.913800
6.310900 2.124800
6.337100 2.326100
6.363400 2.467000
6.389600 2.511600
6.415800 2.558200
6.442100 2.475300
6.468300 2.405600
6.494500 2.397800
6.520700 2.443200
6.547000 2.514100
6.573200 2.558500
6.599400 2.554000
6.625600 2.592200
6.651900 2.733000
6.678100 3.022200
6.704300 3.334400
6.730600 4.195500
6.756800 5.547100
6.783000 5.899800
6.809200 5.637900
6.835500 5.158900
6.861700 5.058200
6.887900 4.975300
6.914200 4.881200
6.940400 4.715800
6.966600 4.552200
6.992800 4.813600
7.019100 5.328300
7.045300 5.857200
7.071500 6.316000
7.097800 6.733800
7.124000 7.122400
7.150200 7.828400
7.176400 9.695700
7.202700 9.194800
7.228900 9.340500
7.255100 8.877600
7.281300 7.711200
7.307600 7.100000
7.333800 6.713200
7.360000 7.409400
7.386300 8.234400
7.412500 12.627800
7.438700 8.036600
7.464900 7.045600
7.491200 6.469400
7.517400 6.239800
7.543600 6.018700
7.569900 4.787300
7.596100 3.888900
7.622300 3.940800
7.648500 3.915400
7.674800 3.847700
7.701000 4.008500
7.727200 4.426100
7.753400 5.555600
7.779700 7.522800
7.805900 10.221500
7.832100 11.475000
7.858400 11.807100
7.884600 7.419600
7.910800 6.098300
7.937000 6.607600
7.963300 8.634600
7.989500 9.380400
8.015700 5.713300
8.042000 2.219000
8.068200 3.644100
8.094400 5.212500
8.120600 6.644900
8.146900 9.759500
8.173100 10.638000
8.199300 11.516500
8.225500 11.880800
8.251800 11.898500
8.278000 12.051500
8.304200 11.231500
8.330500 12.947400
8.356700 14.891600
8.382900 14.247100
8.409100 14.255900
8.435400 13.345500
8.461600 12.158800
8.487800 13.990500
8.514100 12.658300
8.540300 12.970300
8.566500 15.028000
8.592700 14.039300
8.619000 12.096100
8.645200 9.550500
8.671400 9.829100
8.697700 9.756900
8.723900 10.275500
8.750100 10.503200
8.776300 10.012800
8.802600 11.740200
8.828800 12.656600
8.855000 12.047000
8.881200 11.362900
8.907500 11.809400
8.933700 8.718800
8.959900 8.810900
8.986200 8.831700
9.012400 8.782100
9.038600 7.737400
9.064800 8.074700
9.091100 9.396800
9.117300 9.481900
9.143500 9.433600
9.169800 9.084800
9.196000 9.105500
9.222200 12.919000
9.248400 16.729800
9.274700 17.063100
9.300900 14.603700
9.327100 13.228600
9.353300 11.799200
9.379600 12.922700
9.405800 12.127800
9.432000 12.242300
9.458300 14.850900
9.484500 14.148200
9.510700 12.000800
9.536900 13.010500
9.563200 16.158700
9.589400 16.617100
9.615600 16.996600
9.641900 11.058700
9.668100 12.873500
9.694300 14.678800
9.720500 14.605500
9.746800 10.775400
9.773000 10.363700
9.799200 10.118400
9.825400 11.057000
9.851700 11.380700
9.877900 11.554500
9.904100 10.484200
9.930400 8.359100
9.956600 7.095500
9.982800 8.630200
10.009000 8.634100
10.035300 9.330900
10.061500 9.622600
10.087700 10.794000
10.114000 13.734200
10.140200 13.880000
10.166400 12.658900
10.192600 13.191300
10.218900 11.665100
10.245100 10.870700
10.271300 10.400700
10.297500 10.956300
10.323800 11.701400
10.350000 11.541800
10.376200 10.040600
10.402500 9.206600
10.428700 10.564300
10.454900 11.604800
10.481100 10.500400
10.507400 10.000600
10.533600 9.805900
10.559800 9.546500
10.586100 8.648800
10.612300 7.700800
10.638500 7.659100
10.664700 8.150800
10.691000 9.766500
10.717200 10.888100
10.743400 11.945500
10.769700 9.127500
10.795900 8.259700
10.822100 8.016000
10.848300 9.036100
10.874600 11.444600
10.900800 15.166000
10.927000 16.289400
10.953200 15.631800
10.979500 14.716500
11.005700 19.467200
11.031900 13.981200
11.058200 10.045100
11.084400 11.919200
11.110600 13.260700
11.136800 11.654000
11.163100 10.618000
11.189300 9.287800
11.215500 9.376600
11.241800 10.583400
11.268000 11.598600
11.294200 11.418200
11.320400 14.469300
11.346700 12.928400
11.372900 10.267500
11.399100 12.145100
11.425300 12.539700
11.451600 9.689400
11.477800 6.660800
11.504000 6.017100
11.530300 5.958300
11.556500 6.273400
11.582700 6.565500
11.608900 6.921600
11.635200 8.381200
11.661400 11.563600
11.687600 12.307900
11.713900 9.533900
11.740100 8.242900
11.766300 7.633100
11.792500 9.529900
11.818800 12.433300
11.845000 15.694400
11.871200 13.376000
11.897400 11.277000
11.923700 10.279900
11.949900 10.114500
11.976100 11.179500
12.002400 14.048800
12.028600 13.071400
12.054800 11.761800
12.081000 9.355800
12.107300 7.969200
12.133500 6.829400
12.159700 6.635400
12.186000 6.336400
12.212200 6.620700
12.238400 6.801500
12.264600 7.143600
12.290900 8.411500
12.317100 10.140200
12.343300 10.238300
12.369500 9.957100
12.395800 8.852500
12.422000 7.176400
12.448200 6.254400
12.474500 6.036800
12.500700 6.139100
12.526900 6.189500
12.553100 5.881700
12.579400 6.254400
12.605600 8.103300
12.631800 8.525300
12.658100 8.797200
12.684300 6.865100
12.710500 5.556600
12.736700 5.259900
12.763000 5.100100
12.789200 5.155100
12.815400 5.464400
12.841700 6.058200
12.867900 6.853800
12.894100 8.155900
12.920300 8.990000
12.946600 9.331900
12.972800 9.452800
12.999000 9.492000
13.025200 9.554400
13.051500 9.743800
13.077700 9.147900
13.103900 9.425300
13.130200 9.362100
13.156400 12.215800
13.182600 16.023400
13.208800 10.438300
13.235100 10.624700
13.261300 7.916000
13.287500 7.802100
13.313800 6.544000
13.340000 6.444700
13.366200 7.039100
13.392400 7.031100
13.418700 6.536500
13.444900 5.882500
13.471100 5.130400
13.497300 5.329400
13.523600 5.337400
13.549800 5.400500
13.576000 5.409800
13.602300 5.207400
13.628500 4.796000
13.654700 4.364500
13.680900 3.993200
13.707200 3.820400
13.733400 3.750300
13.759600 3.674900
13.785900 3.580900
13.812100 3.500400
13.838300 3.429300
13.864500 3.328000
13.890800 3.255500
13.917000 3.223700
13.943200 3.193800
13.969400 3.187100
13.995700 3.241600
14.021900 3.362000
14.048100 3.516700
14.074400 3.648300
14.100600 4.027900
14.126800 4.036800
14.153000 4.047000
14.179300 4.058000
14.205500 4.068500
14.231700 4.078500
14.258000 4.090300
14.284200 4.105100
14.310400 4.122000
14.336600 4.138500
14.362900 4.152800
14.389100 4.142200
14.415300 4.102100
14.441600 4.007100
14.467800 3.930400
14.494000 3.878000
14.520200 3.855800
14.546500 3.873700
14.572700 3.938200
14.598900 4.042600
14.625100 4.227900
14.651400 4.479100
14.677600 4.741900
14.703800 4.948800
14.730100 5.053900
14.756300 5.000300
14.782500 4.736900
14.808700 4.518600
14.835000 4.449800
14.861200 4.442200
14.887400 4.443400
14.913700 4.504900
14.939900 4.571200
14.966100 4.606000
14.992300 4.605100
15.018600 4.996100
15.044800 4.489500
15.071000 4.486400
15.097200 4.679300
15.123500 4.942000
15.149700 5.229500
15.175900 5.531000
15.202200 5.638000
15.228400 5.235800
15.254600 5.336700
15.280800 5.355700
15.307100 6.068000
15.333300 5.999100
15.359500 5.951400
15.385800 5.882700
15.412000 5.989000
15.438200 7.455000
15.464400 7.153100
15.490700 7.547600
15.516900 6.709800
15.543100 5.956900
15.569300 5.349000
15.595600 4.919900
15.621800 4.516500
15.648000 4.267800
15.674300 4.090600
15.700500 4.025100
15.726700 4.029500
15.752900 4.150300
15.779200 4.508300
15.805400 4.881900
15.831600 5.412200
15.857900 6.341000
15.884100 7.213300
15.910300 8.882900
15.936500 9.959700
15.962800 6.013400
15.989000 5.234800
16.015200 4.075400
16.041400 2.994400
16.067700 3.015000
16.093900 3.788800
16.120100 4.366700
16.146400 4.496100
16.172600 4.568900
16.198800 4.665800
16.225000 4.627100
16.251300 4.465400
16.277500 4.453900
16.303700 4.337500
16.330000 4.294000
16.356200 4.326100
16.382400 4.399100
16.408600 4.551900
16.434900 4.978800
16.461100 5.343800
16.487300 5.677700
16.513600 5.941100
16.539800 5.827000
16.566000 5.953100
16.592200 6.274700
16.618500 5.868000
16.644700 5.298200
16.670900 4.475100
16.697100 4.228200
16.723400 4.120600
16.749600 4.099800
16.775800 4.629200
16.802100 5.623700
16.828300 6.095100
16.854500 6.192900
16.880700 6.121200
16.907000 5.857700
16.933200 5.330100
16.959400 4.704100
16.985700 4.526700
17.011900 4.724700
17.038100 4.837400
17.064300 4.919100
17.090600 5.064400
17.116800 5.259000
17.143000 5.381200
17.169200 5.952300
17.195500 6.165300
17.221700 6.345200
17.247900 6.532400
17.274200 6.836200
17.300400 7.013800
17.326600 6.609100
17.352800 5.712500
17.379100 5.225300
17.405300 4.943000
17.431500 4.804200
17.457800 4.333600
17.484000 4.430000
17.510200 4.555100
17.536400 4.706400
17.562700 4.882400
17.588900 5.112300
17.615100 5.349400
17.641300 5.516100
17.667600 5.626500
17.693800 5.681300
17.720000 5.406500
17.746300 5.412200
17.772500 5.364900
17.798700 5.314400
17.824900 5.553300
17.851200 5.759900
17.877400 6.039000
17.903600 6.390500
17.929900 6.743500
17.956100 7.461400
17.982300 7.939400
18.008500 8.472900
18.034800 7.956900
18.061000 7.366800
18.087200 6.926400
18.113500 6.616100
18.139700 5.997500
18.165900 5.597500
18.192100 5.614200
18.218400 5.631400
18.244600 5.498500
18.270800 5.350600
18.297000 5.368600
18.323300 5.432900
18.349500 5.497700
18.375700 5.557800
18.402000 5.605400
18.428200 6.175200
18.454400 6.314100
18.480600 6.135500
18.506900 5.976500
18.533100 5.843900
18.559300 5.787000
18.585600 6.076300
18.611800 5.925400
18.638000 4.738100
18.664200 4.729700
18.690500 4.944500
18.716700 5.286500
18.742900 7.617400
18.769100 8.865300
18.795400 9.639600
18.821600 8.715700
18.847800 5.680000
18.874100 4.788800
18.900300 4.916000
18.926500 5.912100
18.952700 7.713000
18.979000 7.185400
19.005200 5.842300
19.031400 5.489100
19.057700 5.230900
19.083900 5.034100
19.110100 5.018300
19.136300 5.412300
19.162600 6.177000
19.188800 7.185100
19.215000 6.589200
19.241200 5.449900
19.267500 5.516500
19.293700 5.918200
19.319900 6.809900
19.346200 8.608500
19.372400 8.939800
19.398600 8.858300
19.424800 7.893100
19.451100 8.144700
19.477300 8.238600
19.503500 8.417500
19.529800 9.109900
19.556000 9.431500
19.582200 8.214300
19.608400 7.765600
19.634700 7.600000
19.660900 6.859600
19.687100 6.562200
19.713300 6.779800
19.739600 7.001600
19.765800 7.260300
19.792000 7.532300
19.818300 7.656700
19.844500 7.914600
19.870700 8.318400
19.896900 7.506900
19.923200 6.725000
19.949400 7.191700
19.975600 7.127300
20.001900 7.465500
20.028100 7.339600
20.054300 7.479200
20.080500 7.576700
20.106800 7.599500
20.133000 7.513000
20.159200 7.434700
20.185500 7.465300
20.211700 7.021000
20.237900 6.185700
20.264100 5.309400
20.290400 4.897600
20.316600 5.019200
20.342800 5.330600
20.369000 5.672100
20.395300 5.963100
20.421500 6.221900
20.447700 6.357700
20.474000 6.506400
20.500200 6.797600
20.526400 6.406100
20.552600 5.918900
20.578900 5.429200
20.605100 5.115700
20.631300 5.398200
20.657600 5.789900
20.683800 6.468600
20.710000 6.298200
20.736200 6.161100
20.762500 6.154100
20.788700 6.369300
20.814900 6.015100
20.841100 5.354700
20.867400 5.377700
20.893600 5.472100
20.919800 5.719900
20.946100 5.671000
20.972300 5.696900
20.998500 5.801700
21.024700 5.766500
21.051000 5.937700
21.077200 6.110900
21.103400 6.226500
21.129700 6.467700
21.155900 6.776800
21.182100 6.988000
21.208300 6.934400
21.234600 6.845000
21.260800 6.763800
21.287000 6.156200
21.313200 6.967100
21.339500 8.239600
21.365700 8.190300
21.391900 7.997900
21.418200 7.381100
21.444400 7.031600
21.470600 6.670900
21.496800 6.295200
21.523100 6.331200
21.549300 6.587500
21.575500 6.651000
21.601800 6.424300
21.628000 6.428200
21.654200 6.466400
21.680400 6.621600
21.706700 6.850000
21.732900 7.042000
21.759100 7.057400
21.785300 7.019600
21.811600 6.946000
21.837800 6.928000
21.864000 6.723500
21.890300 6.295800
21.916500 6.015700
21.942700 6.113500
21.968900 5.816200
21.995200 5.205700
22.021400 4.800400
22.047600 4.628300
22.073900 4.631000
22.100100 4.816400
22.126300 5.388800
22.152500 5.882000
22.178800 6.285600
22.205000 6.749700
22.231200 7.333000
22.257500 8.133300
22.283700 6.426100
22.309900 6.504700
22.336100 7.262800
22.362400 8.509500
22.388600 7.236300
22.414800 6.962100
22.441000 6.239800
22.467300 5.880800
22.493500 5.237400
22.519700 5.022500
22.546000 4.910100
22.572200 4.507700
22.598400 4.666400
22.624600 4.867200
22.650900 5.142900
22.677100 6.082600
22.703300 6.309400
22.729600 6.288400
22.755800 6.375300
22.782000 6.589800
22.808200 6.770500
22.834500 6.952900
22.860700 7.021300
22.886900 7.018500
22.913100 5.641000
22.939400 5.486600
22.965600 5.403800
22.991800 5.273800
23.018100 5.012500
23.044300 5.092900
23.070500 5.720800
23.096700 5.752500
23.123000 5.900700
23.149200 6.337400
23.175400 6.989700
23.201700 7.024400
23.227900 6.998400
23.254100 5.488200
23.280300 4.748400
23.306600 4.538700
23.332800 4.319600
23.359000 4.285400
23.385200 4.439800
23.411500 5.242100
23.437700 5.971300
23.463900 6.170200
23.490200 6.388800
23.516400 6.718500
23.542600 7.076000
23.568800 7.092400
23.595100 6.853400
23.621300 6.325600
23.647500 6.064800
23.673800 6.509000
23.700000 6.538000
23.726200 6.610600
23.752400 6.162300
23.778700 5.620700
23.804900 5.447000
23.831100 5.612400
23.857400 5.939600
23.883600 6.319800
23.909800 6.537500
23.936000 7.504500
23.962300 6.758900
23.988500 6.368600
24.014700 5.902600
24.040900 5.683200
24.067200 5.462100
24.093400 5.285400
24.119600 5.828000
24.145900 6.452800
24.172100 7.048800
24.198300 6.172200
24.224500 6.847600
24.250800 6.799900
24.277000 6.382900
24.303200 7.286100
24.329500 7.884500
24.355700 7.528100
24.381900 6.943700
24.408100 6.675300
24.434400 6.538900
24.460600 7.104700
24.486800 7.369200
24.513000 7.068100
24.539300 6.810100
24.565500 6.427100
24.591700 6.095500
24.618000 5.822100
24.644200 5.632000
24.670400 5.767800
24.696600 6.730700
24.722900 6.845600
24.749100 6.865200
24.775300 6.814700
24.801600 6.824300
24.827800 6.768100
24.854000 6.640600
24.880200 6.927200
24.906500 6.948200
24.932700 6.996700
24.958900 7.552100
24.985100 7.657900
25.011400 7.411800
25.037600 7.011400
25.063800 6.758500
25.090100 6.647200
25.116300 6.242200
25.142500 5.563400
25.168700 5.443300
25.195000 5.833600
25.221200 6.340200
25.247400 6.327400
25.273700 6.251500
25.299900 6.601100
25.326100 6.889300
25.352300 7.231300
25.378600 7.758000
25.404800 8.177300
25.431000 8.219700
25.457200 8.078300
25.483500 8.232300
25.509700 8.533700
25.535900 9.188600
25.562200 9.554200
25.588400 8.630700
25.614600 7.834800
25.640800 7.457400
25.667100 7.193800
25.693300 7.015300
25.719500 7.091300
25.745800 7.692200
25.772000 8.349900
25.798200 8.494000
25.824400 8.513900
25.850700 8.541000
25.876900 8.473900
25.903100 10.733300
25.929400 7.963500
25.955600 8.214200
25.981800 8.208700
26.008000 8.318200
26.034300 8.238500
26.060500 7.434200
26.086700 7.154300
26.112900 7.116600
26.139200 7.298700
26.165400 7.676300
26.191600 8.105500
26.217900 8.004000
26.244100 6.828200
26.270300 5.804800
26.296500 5.246200
26.322800 4.444700
26.349000 4.822900
26.375200 5.920200
26.401500 8.057500
26.427700 9.028400
26.453900 8.961600
26.480100 8.654000
26.506400 7.975700
26.532600 6.783700
26.558800 6.151600
26.585000 6.089500
26.611300 5.972500
26.637500 5.802400
26.663700 5.641300
26.690000 6.004900
26.716200 6.519100
26.742400 6.565600
26.768600 6.540700
26.794900 6.676500
26.821100 6.727900
26.847300 6.395300
26.873600 5.598300
26.899800 4.911100
26.926000 4.327400
26.952200 3.836800
26.978500 3.379500
27.004700 2.950900
27.030900 2.548800
27.057100 2.070500
27.083400 1.601800
27.109600 1.336100
27.135800 1.214100
27.162100 1.111000
27.188300 1.012300
27.214500 0.916700
27.240700 0.824200
27.267000 0.734400
27.293200 0.647000
27.319400 0.562600
27.345700 0.488500
27.371900 0.420300
27.398100 0.344700
27.424300 0.260100
27.450600 0.174500
27.476800 0.104000
27.503000 0.053800
27.529300 0.019100
27.555500 0.000200
27.581700 0.000000
27.607900 0.000000
27.634200 0.000000
27.660400 0.000000
27.686600 0.000000
27.712800 0.000000
27.739100 0.000000
27.765300 0.000000
27.791500 0.000000
27.817800 0.000000
27.844000 0.000000
27.870200 0.000000
27.896400 0.000000
27.922700 0.000000
27.948900 0.000000
27.975100 0.000000
28.001400 0.000000
28.027600 0.000000
28.053800 0.000000
28.080000 0.000000
28.106300 0.000000
28.132500 0.000000
28.158700 0.000000
28.184900 0.000000
28.211200 0.000000
28.237400 0.000000
28.263600 0.000000
28.289900 0.000000
28.316100 0.000000
28.342300 0.000000
28.368500 0.000000
28.394800 0.000000
28.421000 0.000000
28.447200 0.000000
28.473500 0.000000
28.499700 0.000000
28.525900 0.000000
28.552100 0.000000
28.578400 0.000000
28.604600 0.000000
28.630800 0.000000
28.657000 0.000000
28.683300 0.000000
28.709500 0.000000
28.735700 0.000000
28.762000 0.000000
28.788200 0.000000
28.814400 0.000000
28.840600 0.000000
28.866900 0.000000
28.893100 0.000000
28.919300 0.000000
28.945600 0.000000
28.971800 0.000000
28.998000 0.000000
29.024200 0.000000
29.050500 0.000000
29.076700 0.000000
29.102900 0.000000
29.129100 0.000000
29.155400 0.000000
29.181600 0.000000
29.207800 0.000000
29.234100 0.000000
29.260300 0.000000
29.286500 0.000000
29.312700 0.000000
29.339000 0.000000
29.365200 0.000000
29.391400 0.000000
29.417700 0.000000
29.443900 0.000000
29.470100 0.000000
29.496300 0.000000
29.522600 0.000000
29.548800 0.000000
29.575000 0.000000
29.601300 0.000000
29.627500 0.000000
29.653700 0.000000
29.679900 0.000000
29.706200 0.000000
29.732400 0.000000
29.758600 0.000000
29.784800 0.000000
29.811100 0.000000
29.837300 0.000000
29.863500 0.000000
29.889800 0.000000
29.916000 0.000000
29.942200 0.000000
e
